title:winkLeft22, recorded:21.05.18 17.01.54, timestamp started:2018-05-12T20:28:52.032863+02:00            , sampling:128, subject:Noé, labels:COUNTER INTERPOLATED AF3 F7 F3 FC5 T7 P7 O1 O2 P8 T8 FC6 F4 F8 AF4 RAW_CQ GYROX GYROY MARKER MARKER_HARDWARE SYNC TIME_STAMP_s TIME_STAMP_ms CQ_AF3 CQ_F7 CQ_F3 CQ_FC5 CQ_T7 CQ_P7 CQ_O1 CQ_O2 CQ_P8 CQ_T8 CQ_FC6 CQ_F4 CQ_F8 CQ_AF4 CQ_CMS CQ_DRL, chan:40, samples:2145, units:emotiv
38.000000, 0.000000, 3681.538330, 4286.153809, 4182.051270, 4206.666504, 4201.025391, 4169.230469, 4170.769043, 4149.743652, 4186.153809, 4185.127930, 4175.384277, 4156.922852, 4254.871582, 4136.410156, 0.000000, 8246.000000, 8138.000000, 0.000000, 0.000000, 0.000000, -21250.000000, 789.743591, 4.000000, 4.000000, 4.000000, 4.000000, 4.000000, 4.000000, 4.000000, 4.000000, 1.000000, 4.000000, 4.000000, 4.000000, 4.000000, 4.000000, 4.000000, 4.000000
39.000000, 0.000000, 3715.897461, 4296.410156, 4185.127930, 4214.871582, 4206.153809, 4173.846191, 4171.281738, 4152.307617, 4185.641113, 4184.615234, 4183.589844, 4156.922852, 4266.666504, 4146.666504, 0.000000, 8250.000000, 8157.000000, 0.000000, 0.000000, 0.000000, -21250.000000, 797.948669, 4.000000, 4.000000, 4.000000, 4.000000, 4.000000, 4.000000, 4.000000, 4.000000, 1.000000, 4.000000, 4.000000, 4.000000, 4.000000, 4.000000, 4.000000, 4.000000
40.000000, 0.000000, 3713.333252, 4285.641113, 4185.641113, 4213.333008, 4190.256348, 4168.717773, 4163.076660, 4156.922852, 4186.666504, 4182.563965, 4173.333008, 4153.333008, 4258.974121, 4128.205078, 0.000000, 8250.000000, 8157.000000, 0.000000, 0.000000, 0.000000, -21250.000000, 805.640991, 4.000000, 4.000000, 4.000000, 4.000000, 4.000000, 4.000000, 4.000000, 4.000000, 1.000000, 4.000000, 4.000000, 4.000000, 4.000000, 4.000000, 4.000000, 4.000000
41.000000, 0.000000, 3707.179443, 4284.615234, 4190.256348, 4213.333008, 4190.256348, 4167.179199, 4162.051270, 4155.897461, 4187.179199, 4181.025391, 4170.256348, 4154.358887, 4250.256348, 4122.563965, 0.000000, 8254.000000, 8179.000000, 0.000000, 0.000000, 0.000000, -21250.000000, 813.846130, 4.000000, 4.000000, 4.000000, 4.000000, 4.000000, 4.000000, 4.000000, 4.000000, 1.000000, 4.000000, 4.000000, 4.000000, 4.000000, 4.000000, 4.000000, 4.000000
42.000000, 0.000000, 3729.743408, 4298.461426, 4196.922852, 4218.461426, 4195.897461, 4169.230469, 4168.205078, 4154.871582, 4186.666504, 4186.153809, 4186.153809, 4161.025391, 4269.230469, 4140.000000, 0.000000, 8254.000000, 8179.000000, 0.000000, 0.000000, 0.000000, -21250.000000, 821.538452, 4.000000, 4.000000, 4.000000, 4.000000, 4.000000, 4.000000, 4.000000, 4.000000, 1.000000, 4.000000, 4.000000, 4.000000, 4.000000, 4.000000, 4.000000, 4.000000
43.000000, 0.000000, 3774.871582, 4308.205078, 4193.333008, 4219.487305, 4191.794922, 4169.230469, 4165.127930, 4152.307617, 4187.179199, 4187.179199, 4194.358887, 4167.179199, 4277.436035, 4132.307617, 0.000000, 8259.000000, 8192.000000, 0.000000, 0.000000, 0.000000, -21250.000000, 829.230774, 4.000000, 4.000000, 4.000000, 4.000000, 4.000000, 4.000000, 4.000000, 4.000000, 1.000000, 4.000000, 4.000000, 4.000000, 4.000000, 4.000000, 4.000000, 4.000000
44.000000, 0.000000, 3816.923096, 4309.743652, 4188.717773, 4217.436035, 4202.051270, 4167.692383, 4160.000000, 4158.974121, 4187.692383, 4186.153809, 4194.358887, 4171.281738, 4265.127930, 4121.538574, 0.000000, 8259.000000, 8192.000000, 0.000000, 0.000000, 0.000000, -21250.000000, 837.435852, 4.000000, 4.000000, 4.000000, 4.000000, 4.000000, 4.000000, 4.000000, 4.000000, 1.000000, 4.000000, 4.000000, 4.000000, 4.000000, 4.000000, 4.000000, 4.000000
45.000000, 0.000000, 3815.384521, 4313.333008, 4191.281738, 4215.384277, 4206.153809, 4168.205078, 4168.205078, 4174.358887, 4187.692383, 4192.307617, 4201.025391, 4173.333008, 4271.794922, 4140.000000, 0.000000, 8288.000000, 8221.000000, 0.000000, 0.000000, 0.000000, -21250.000000, 845.128174, 4.000000, 4.000000, 4.000000, 4.000000, 4.000000, 4.000000, 4.000000, 4.000000, 1.000000, 4.000000, 4.000000, 4.000000, 4.000000, 4.000000, 4.000000, 4.000000
46.000000, 0.000000, 3801.025635, 4311.281738, 4190.769043, 4215.897461, 4190.769043, 4169.743652, 4176.922852, 4174.871582, 4187.692383, 4192.820313, 4201.025391, 4169.230469, 4276.410156, 4145.127930, 0.000000, 8288.000000, 8221.000000, 0.000000, 0.000000, 0.000000, -21250.000000, 852.820496, 4.000000, 4.000000, 4.000000, 4.000000, 4.000000, 4.000000, 4.000000, 4.000000, 1.000000, 4.000000, 4.000000, 4.000000, 4.000000, 4.000000, 4.000000, 4.000000
47.000000, 0.000000, 3828.205078, 4309.230469, 4185.641113, 4219.487305, 4198.974121, 4170.256348, 4170.769043, 4167.179199, 4186.666504, 4186.666504, 4192.820313, 4165.127930, 4263.589844, 4130.769043, 0.000000, 8300.000000, 8237.000000, 0.000000, 0.000000, 0.000000, -21250.000000, 860.512817, 4.000000, 4.000000, 4.000000, 4.000000, 4.000000, 4.000000, 4.000000, 4.000000, 1.000000, 4.000000, 4.000000, 4.000000, 4.000000, 4.000000, 4.000000, 4.000000
48.000000, 0.000000, 3860.000000, 4312.307617, 4188.717773, 4220.512695, 4222.563965, 4172.820313, 4165.641113, 4167.179199, 4186.153809, 4186.153809, 4191.281738, 4169.230469, 4262.051270, 4136.922852, 0.000000, 8300.000000, 8237.000000, 0.000000, 0.000000, 0.000000, -21250.000000, 868.717957, 4.000000, 4.000000, 4.000000, 4.000000, 4.000000, 4.000000, 4.000000, 4.000000, 1.000000, 4.000000, 4.000000, 4.000000, 4.000000, 4.000000, 4.000000, 4.000000
49.000000, 0.000000, 3868.205078, 4312.307617, 4187.179199, 4218.461426, 4212.820313, 4173.846191, 4176.922852, 4167.179199, 4186.153809, 4187.179199, 4188.717773, 4167.179199, 4263.589844, 4142.051270, 0.000000, 8323.000000, 8285.000000, 0.000000, 0.000000, 0.000000, -21250.000000, 876.410217, 4.000000, 4.000000, 4.000000, 4.000000, 4.000000, 4.000000, 4.000000, 4.000000, 1.000000, 4.000000, 4.000000, 4.000000, 4.000000, 4.000000, 4.000000, 4.000000
50.000000, 0.000000, 3900.512695, 4313.333008, 4176.922852, 4213.846191, 4196.922852, 4172.307617, 4184.102539, 4168.717773, 4186.153809, 4182.563965, 4183.589844, 4156.922852, 4251.794922, 4126.666504, 0.000000, 8323.000000, 8285.000000, 0.000000, 0.000000, 0.000000, -21250.000000, 884.102539, 4.000000, 4.000000, 4.000000, 4.000000, 4.000000, 4.000000, 4.000000, 4.000000, 1.000000, 4.000000, 4.000000, 4.000000, 4.000000, 4.000000, 4.000000, 4.000000
51.000000, 0.000000, 3935.897461, 4311.794922, 4175.384277, 4205.641113, 4201.025391, 4174.358887, 4175.384277, 4169.743652, 4186.153809, 4182.563965, 4183.076660, 4151.794922, 4243.589844, 4118.461426, 0.000000, 8341.000000, 8310.000000, 0.000000, 0.000000, 0.000000, -21250.000000, 891.794861, 4.000000, 4.000000, 4.000000, 4.000000, 4.000000, 4.000000, 4.000000, 4.000000, 1.000000, 4.000000, 4.000000, 4.000000, 4.000000, 4.000000, 4.000000, 4.000000
52.000000, 0.000000, 3945.128174, 4312.307617, 4177.948730, 4207.179199, 4201.538574, 4172.307617, 4173.846191, 4168.205078, 4185.641113, 4183.589844, 4186.153809, 4155.384277, 4244.615234, 4126.153809, 0.000000, 8341.000000, 8310.000000, 0.000000, 0.000000, 0.000000, -21250.000000, 900.000000, 4.000000, 4.000000, 4.000000, 4.000000, 4.000000, 4.000000, 4.000000, 4.000000, 1.000000, 4.000000, 4.000000, 4.000000, 4.000000, 4.000000, 4.000000, 4.000000
53.000000, 0.000000, 3957.948730, 4312.820313, 4179.487305, 4217.436035, 4204.615234, 4170.769043, 4186.666504, 4173.333008, 4186.153809, 4185.127930, 4192.307617, 4164.102539, 4248.205078, 4143.076660, 0.000000, 8357.000000, 8334.000000, 0.000000, 0.000000, 0.000000, -21250.000000, 907.692261, 4.000000, 4.000000, 4.000000, 4.000000, 4.000000, 4.000000, 4.000000, 4.000000, 1.000000, 4.000000, 4.000000, 4.000000, 4.000000, 4.000000, 4.000000, 4.000000
54.000000, 0.000000, 3951.794678, 4310.256348, 4185.641113, 4216.922852, 4215.384277, 4176.410156, 4186.153809, 4183.589844, 4188.717773, 4193.846191, 4200.512695, 4172.307617, 4251.281738, 4155.384277, 0.000000, 8357.000000, 8334.000000, 0.000000, 0.000000, 0.000000, -21250.000000, 915.384583, 4.000000, 4.000000, 4.000000, 4.000000, 4.000000, 4.000000, 4.000000, 4.000000, 1.000000, 4.000000, 4.000000, 4.000000, 4.000000, 4.000000, 4.000000, 4.000000
55.000000, 0.000000, 3920.512695, 4320.512695, 4188.717773, 4215.897461, 4222.563965, 4180.000000, 4174.358887, 4195.384277, 4188.717773, 4198.974121, 4203.589844, 4173.333008, 4249.230469, 4144.615234, 0.000000, 8402.000000, 8356.000000, 0.000000, 0.000000, 0.000000, -21250.000000, 923.589722, 4.000000, 4.000000, 4.000000, 4.000000, 4.000000, 4.000000, 4.000000, 4.000000, 1.000000, 4.000000, 4.000000, 4.000000, 4.000000, 4.000000, 4.000000, 4.000000
56.000000, 0.000000, 3886.153809, 4336.922852, 4185.127930, 4222.051270, 4217.948730, 4178.974121, 4172.307617, 4194.871582, 4186.153809, 4196.410156, 4203.076660, 4169.230469, 4251.794922, 4135.384277, 0.000000, 8402.000000, 8356.000000, 0.000000, 0.000000, 0.000000, -21250.000000, 931.282043, 4.000000, 4.000000, 4.000000, 4.000000, 4.000000, 4.000000, 4.000000, 4.000000, 1.000000, 4.000000, 4.000000, 4.000000, 4.000000, 4.000000, 4.000000, 4.000000
57.000000, 0.000000, 3836.923096, 4335.384277, 4196.410156, 4221.538574, 4205.127930, 4181.025391, 4173.333008, 4177.436035, 4185.127930, 4198.974121, 4204.615234, 4174.871582, 4263.076660, 4150.769043, 0.000000, 8413.000000, 8349.000000, 0.000000, 0.000000, 0.000000, -21250.000000, 938.974365, 4.000000, 4.000000, 4.000000, 4.000000, 4.000000, 4.000000, 4.000000, 4.000000, 1.000000, 4.000000, 4.000000, 4.000000, 4.000000, 4.000000, 4.000000, 4.000000
58.000000, 0.000000, 3792.307617, 4322.563965, 4205.641113, 4223.589844, 4207.692383, 4180.000000, 4170.256348, 4168.717773, 4185.127930, 4202.051270, 4203.589844, 4181.538574, 4264.102539, 4156.922852, 0.000000, 8413.000000, 8349.000000, 0.000000, 0.000000, 0.000000, -21250.000000, 946.666626, 4.000000, 4.000000, 4.000000, 4.000000, 4.000000, 4.000000, 4.000000, 4.000000, 1.000000, 4.000000, 4.000000, 4.000000, 4.000000, 4.000000, 4.000000, 4.000000
59.000000, 0.000000, 3792.307617, 4326.153809, 4189.743652, 4229.743652, 4222.563965, 4170.769043, 4167.179199, 4174.358887, 4184.615234, 4194.871582, 4202.051270, 4173.333008, 4255.384277, 4151.281738, 0.000000, 8427.000000, 8355.000000, 0.000000, 0.000000, 0.000000, -21250.000000, 954.871765, 4.000000, 4.000000, 4.000000, 4.000000, 4.000000, 4.000000, 4.000000, 4.000000, 1.000000, 4.000000, 4.000000, 4.000000, 4.000000, 4.000000, 4.000000, 4.000000
60.000000, 0.000000, 3801.025635, 4342.563965, 4181.538574, 4224.102539, 4229.230469, 4173.846191, 4168.205078, 4176.410156, 4185.641113, 4196.410156, 4201.538574, 4165.641113, 4260.512695, 4154.871582, 0.000000, 8427.000000, 8355.000000, 0.000000, 0.000000, 0.000000, -21250.000000, 962.564087, 4.000000, 4.000000, 4.000000, 4.000000, 4.000000, 4.000000, 4.000000, 4.000000, 1.000000, 4.000000, 4.000000, 4.000000, 4.000000, 4.000000, 4.000000, 4.000000
61.000000, 0.000000, 3762.051270, 4332.307617, 4187.692383, 4215.384277, 4211.281738, 4182.563965, 4173.333008, 4174.358887, 4185.641113, 4198.974121, 4198.461426, 4168.717773, 4265.641113, 4145.127930, 0.000000, 8438.000000, 8360.000000, 0.000000, 0.000000, 0.000000, -21250.000000, 970.769226, 4.000000, 4.000000, 4.000000, 4.000000, 4.000000, 4.000000, 4.000000, 4.000000, 1.000000, 4.000000, 4.000000, 4.000000, 4.000000, 4.000000, 4.000000, 4.000000
62.000000, 0.000000, 3726.153809, 4304.615234, 4187.692383, 4217.436035, 4196.922852, 4180.512695, 4175.897461, 4168.205078, 4185.127930, 4186.666504, 4198.974121, 4171.281738, 4249.743652, 4138.461426, 0.000000, 8438.000000, 8360.000000, 0.000000, 0.000000, 0.000000, -21250.000000, 978.461487, 4.000000, 4.000000, 4.000000, 4.000000, 4.000000, 4.000000, 4.000000, 4.000000, 1.000000, 4.000000, 4.000000, 4.000000, 4.000000, 4.000000, 4.000000, 4.000000
63.000000, 0.000000, 3755.384521, 4316.410156, 4186.153809, 4221.025391, 4217.436035, 4181.538574, 4171.794922, 4160.000000, 4187.179199, 4185.641113, 4203.076660, 4170.769043, 4247.692383, 4161.025391, 0.000000, 8454.000000, 8380.000000, 0.000000, 0.000000, 0.000000, -21250.000000, 986.666626, 4.000000, 4.000000, 4.000000, 4.000000, 4.000000, 4.000000, 4.000000, 4.000000, 1.000000, 4.000000, 4.000000, 4.000000, 4.000000, 4.000000, 4.000000, 4.000000
64.000000, 0.000000, 3798.461426, 4346.153809, 4188.205078, 4219.487305, 4240.512695, 4186.153809, 4171.794922, 4165.641113, 4187.692383, 4193.333008, 4201.025391, 4171.794922, 4266.153809, 4173.333008, 2863.000000, 8454.000000, 8380.000000, 0.000000, 0.000000, 0.000000, -21250.000000, 994.358948, 4.000000, 4.000000, 4.000000, 4.000000, 4.000000, 4.000000, 4.000000, 4.000000, 1.000000, 4.000000, 4.000000, 4.000000, 4.000000, 4.000000, 4.000000, 4.000000
65.000000, 0.000000, 3784.615234, 4331.794922, 4187.179199, 4216.410156, 4226.153809, 4185.641113, 4176.410156, 4170.769043, 4186.153809, 4186.153809, 4188.205078, 4166.153809, 4253.846191, 4154.358887, 3509.000000, 8453.000000, 8382.000000, 0.000000, 0.000000, 0.000000, -21249.000000, 2.051282, 4.000000, 4.000000, 4.000000, 4.000000, 4.000000, 4.000000, 4.000000, 4.000000, 1.000000, 4.000000, 4.000000, 4.000000, 4.000000, 4.000000, 4.000000, 4.000000
66.000000, 0.000000, 3767.179443, 4314.871582, 4186.666504, 4216.410156, 4208.205078, 4191.281738, 4176.410156, 4166.666504, 4186.666504, 4182.051270, 4184.102539, 4161.025391, 4224.615234, 4137.436035, 3574.000000, 8453.000000, 8382.000000, 0.000000, 0.000000, 0.000000, -21249.000000, 9.743589, 4.000000, 4.000000, 4.000000, 4.000000, 4.000000, 4.000000, 4.000000, 4.000000, 1.000000, 4.000000, 4.000000, 4.000000, 4.000000, 4.000000, 4.000000, 4.000000
67.000000, 0.000000, 3797.948730, 4325.127930, 4186.666504, 4219.487305, 4227.692383, 4200.512695, 4177.436035, 4184.102539, 4188.205078, 4197.948730, 4202.563965, 4166.153809, 4238.461426, 4138.974121, 2446.000000, 8458.000000, 8384.000000, 0.000000, 0.000000, 0.000000, -21249.000000, 17.948717, 4.000000, 4.000000, 4.000000, 4.000000, 4.000000, 4.000000, 4.000000, 4.000000, 1.000000, 4.000000, 4.000000, 4.000000, 4.000000, 4.000000, 4.000000, 4.000000
68.000000, 0.000000, 3805.128174, 4318.461426, 4185.127930, 4210.769043, 4234.871582, 4196.410156, 4185.127930, 4204.615234, 4187.692383, 4207.692383, 4217.436035, 4171.794922, 4266.153809, 4157.436035, 3541.000000, 8458.000000, 8384.000000, 0.000000, 0.000000, 0.000000, -21249.000000, 26.153845, 4.000000, 4.000000, 4.000000, 4.000000, 4.000000, 4.000000, 4.000000, 4.000000, 1.000000, 4.000000, 4.000000, 4.000000, 4.000000, 4.000000, 4.000000, 4.000000
69.000000, 0.000000, 3776.410156, 4309.230469, 4185.127930, 4204.615234, 4217.948730, 4186.666504, 4188.717773, 4193.333008, 4186.666504, 4196.922852, 4212.307617, 4167.179199, 4257.436035, 4172.820313, 3560.000000, 8441.000000, 8398.000000, 0.000000, 0.000000, 0.000000, -21249.000000, 33.846153, 4.000000, 4.000000, 4.000000, 4.000000, 4.000000, 4.000000, 4.000000, 4.000000, 1.000000, 4.000000, 4.000000, 4.000000, 4.000000, 4.000000, 4.000000, 4.000000
70.000000, 0.000000, 3793.333252, 4326.153809, 4177.436035, 4213.333008, 4211.281738, 4176.922852, 4173.333008, 4165.641113, 4185.641113, 4186.153809, 4196.922852, 4155.384277, 4237.436035, 4156.410156, 3361.000000, 8441.000000, 8398.000000, 0.000000, 0.000000, 0.000000, -21249.000000, 42.051281, 4.000000, 4.000000, 4.000000, 4.000000, 4.000000, 4.000000, 4.000000, 4.000000, 1.000000, 4.000000, 4.000000, 4.000000, 4.000000, 4.000000, 4.000000, 4.000000
71.000000, 0.000000, 3834.871582, 4331.794922, 4173.333008, 4217.436035, 4215.384277, 4168.717773, 4155.897461, 4152.307617, 4185.641113, 4184.102539, 4187.179199, 4150.256348, 4230.256348, 4134.871582, 3538.000000, 8429.000000, 8399.000000, 0.000000, 0.000000, 0.000000, -21249.000000, 49.743587, 4.000000, 4.000000, 4.000000, 4.000000, 4.000000, 4.000000, 4.000000, 4.000000, 1.000000, 4.000000, 4.000000, 4.000000, 4.000000, 4.000000, 4.000000, 4.000000
72.000000, 0.000000, 3846.666504, 4324.615234, 4180.512695, 4214.871582, 4221.025391, 4170.769043, 4160.000000, 4156.922852, 4186.153809, 4184.615234, 4191.794922, 4152.820313, 4232.307617, 4136.922852, 85.000000, 8429.000000, 8399.000000, 0.000000, 0.000000, 0.000000, -21249.000000, 57.948715, 4.000000, 4.000000, 4.000000, 4.000000, 4.000000, 4.000000, 4.000000, 4.000000, 1.000000, 4.000000, 4.000000, 4.000000, 4.000000, 4.000000, 4.000000, 4.000000
73.000000, 0.000000, 3861.025635, 4334.358887, 4183.076660, 4224.102539, 4217.436035, 4177.436035, 4169.230469, 4167.692383, 4186.666504, 4182.051270, 4201.538574, 4156.410156, 4229.743652, 4147.692383, 2191.000000, 8398.000000, 8397.000000, 0.000000, 0.000000, 0.000000, -21249.000000, 65.641022, 4.000000, 4.000000, 4.000000, 4.000000, 4.000000, 4.000000, 4.000000, 4.000000, 1.000000, 4.000000, 4.000000, 4.000000, 4.000000, 4.000000, 4.000000, 4.000000
74.000000, 0.000000, 3863.589600, 4341.538574, 4188.205078, 4234.871582, 4214.871582, 4182.051270, 4162.051270, 4167.692383, 4186.153809, 4184.615234, 4202.563965, 4162.563965, 4218.974121, 4161.538574, 3589.000000, 8398.000000, 8397.000000, 0.000000, 0.000000, 0.000000, -21249.000000, 73.333328, 4.000000, 4.000000, 4.000000, 4.000000, 4.000000, 4.000000, 4.000000, 4.000000, 1.000000, 4.000000, 4.000000, 4.000000, 4.000000, 4.000000, 4.000000, 4.000000
75.000000, 0.000000, 3856.923096, 4343.076660, 4197.436035, 4232.307617, 4226.666504, 4184.102539, 4152.307617, 4151.281738, 4186.153809, 4188.717773, 4201.025391, 4167.179199, 4217.948730, 4173.846191, 3583.000000, 8381.000000, 8383.000000, 0.000000, 0.000000, 0.000000, -21249.000000, 81.025642, 4.000000, 4.000000, 4.000000, 4.000000, 4.000000, 4.000000, 4.000000, 4.000000, 1.000000, 4.000000, 4.000000, 4.000000, 4.000000, 4.000000, 4.000000, 4.000000
76.000000, 0.000000, 3896.923096, 4350.769043, 4197.436035, 4235.897461, 4227.179199, 4177.948730, 4153.333008, 4144.615234, 4186.666504, 4187.692383, 4205.641113, 4168.717773, 4222.563965, 4165.641113, 3539.000000, 8381.000000, 8383.000000, 0.000000, 0.000000, 0.000000, -21249.000000, 89.230766, 4.000000, 4.000000, 4.000000, 4.000000, 4.000000, 4.000000, 4.000000, 4.000000, 1.000000, 4.000000, 4.000000, 4.000000, 4.000000, 4.000000, 4.000000, 4.000000
77.000000, 0.000000, 3930.769043, 4355.384277, 4191.281738, 4243.589844, 4212.307617, 4168.717773, 4157.948730, 4164.615234, 4187.179199, 4179.487305, 4198.974121, 4164.102539, 4209.230469, 4153.846191, 3463.000000, 8357.000000, 8381.000000, 0.000000, 0.000000, 0.000000, -21249.000000, 96.923073, 4.000000, 4.000000, 4.000000, 4.000000, 4.000000, 4.000000, 4.000000, 4.000000, 1.000000, 4.000000, 4.000000, 4.000000, 4.000000, 4.000000, 4.000000, 4.000000
78.000000, 0.000000, 3902.563965, 4354.871582, 4196.922852, 4245.127930, 4215.897461, 4170.769043, 4156.922852, 4172.307617, 4186.153809, 4179.487305, 4182.051270, 4157.948730, 4189.230469, 4158.461426, 3589.000000, 8357.000000, 8381.000000, 0.000000, 0.000000, 0.000000, -21249.000000, 104.615379, 4.000000, 4.000000, 4.000000, 4.000000, 4.000000, 4.000000, 4.000000, 4.000000, 1.000000, 4.000000, 4.000000, 4.000000, 4.000000, 4.000000, 4.000000, 4.000000
79.000000, 0.000000, 3889.743408, 4347.179199, 4206.153809, 4248.717773, 4227.692383, 4174.358887, 4154.871582, 4154.871582, 4185.127930, 4184.102539, 4180.000000, 4155.384277, 4181.538574, 4173.333008, 3583.000000, 8306.000000, 8367.000000, 0.000000, 0.000000, 0.000000, -21249.000000, 112.820511, 4.000000, 4.000000, 4.000000, 4.000000, 4.000000, 4.000000, 4.000000, 4.000000, 1.000000, 4.000000, 4.000000, 4.000000, 4.000000, 4.000000, 4.000000, 4.000000
80.000000, 0.000000, 3941.538330, 4351.281738, 4196.922852, 4247.692383, 4229.743652, 4173.846191, 4160.512695, 4154.358887, 4185.127930, 4174.871582, 4195.384277, 4161.538574, 4177.948730, 4183.076660, 3539.000000, 8306.000000, 8367.000000, 0.000000, 0.000000, 0.000000, -21249.000000, 120.512817, 4.000000, 4.000000, 4.000000, 4.000000, 4.000000, 4.000000, 4.000000, 4.000000, 1.000000, 4.000000, 4.000000, 4.000000, 4.000000, 4.000000, 4.000000, 4.000000
81.000000, 0.000000, 3978.974365, 4369.230469, 4185.641113, 4234.358887, 4228.205078, 4173.333008, 4164.615234, 4169.743652, 4185.127930, 4170.769043, 4201.025391, 4169.743652, 4167.179199, 4178.974121, 3463.000000, 8281.000000, 8358.000000, 0.000000, 0.000000, 0.000000, -21249.000000, 128.717941, 4.000000, 4.000000, 4.000000, 4.000000, 4.000000, 4.000000, 4.000000, 4.000000, 1.000000, 4.000000, 4.000000, 4.000000, 4.000000, 4.000000, 4.000000, 4.000000
82.000000, 0.000000, 3957.948730, 4369.230469, 4185.127930, 4226.153809, 4221.538574, 4171.794922, 4158.974121, 4171.794922, 4185.127930, 4185.641113, 4187.692383, 4166.666504, 4143.589844, 4154.871582, 3589.000000, 8281.000000, 8358.000000, 0.000000, 0.000000, 0.000000, -21249.000000, 136.410248, 4.000000, 4.000000, 4.000000, 4.000000, 4.000000, 4.000000, 4.000000, 4.000000, 1.000000, 4.000000, 4.000000, 4.000000, 4.000000, 4.000000, 4.000000, 4.000000
83.000000, 0.000000, 3924.102539, 4347.692383, 4193.333008, 4231.794922, 4214.358887, 4170.769043, 4153.846191, 4165.641113, 4185.127930, 4186.666504, 4181.025391, 4158.461426, 4114.871582, 4103.589844, 3583.000000, 8251.000000, 8374.000000, 0.000000, 0.000000, 0.000000, -21249.000000, 144.102554, 4.000000, 4.000000, 4.000000, 4.000000, 4.000000, 4.000000, 4.000000, 4.000000, 1.000000, 4.000000, 4.000000, 4.000000, 4.000000, 4.000000, 4.000000, 4.000000
84.000000, 0.000000, 3950.769043, 4352.307617, 4190.256348, 4234.871582, 4222.563965, 4174.871582, 4154.358887, 4156.922852, 4185.127930, 4169.743652, 4185.641113, 4153.846191, 4098.974121, 4046.666504, 3539.000000, 8251.000000, 8374.000000, 0.000000, 0.000000, 0.000000, -21249.000000, 152.307693, 4.000000, 4.000000, 4.000000, 4.000000, 4.000000, 4.000000, 4.000000, 4.000000, 1.000000, 4.000000, 4.000000, 4.000000, 4.000000, 4.000000, 4.000000, 4.000000
85.000000, 0.000000, 4002.051270, 4368.717773, 4178.461426, 4232.307617, 4218.974121, 4182.051270, 4160.000000, 4153.846191, 4185.127930, 4168.205078, 4187.692383, 4154.358887, 4089.230713, 4024.102539, 3463.000000, 8245.000000, 8390.000000, 0.000000, 0.000000, 0.000000, -21249.000000, 160.000000, 4.000000, 4.000000, 4.000000, 4.000000, 4.000000, 4.000000, 4.000000, 4.000000, 1.000000, 4.000000, 4.000000, 4.000000, 4.000000, 4.000000, 4.000000, 4.000000
86.000000, 0.000000, 3956.410156, 4350.256348, 4193.846191, 4235.897461, 4202.051270, 4185.641113, 4168.205078, 4165.127930, 4186.666504, 4167.179199, 4186.666504, 4156.922852, 4074.871582, 4034.358887, 3589.000000, 8245.000000, 8390.000000, 0.000000, 0.000000, 0.000000, -21249.000000, 167.692307, 4.000000, 4.000000, 4.000000, 4.000000, 4.000000, 4.000000, 4.000000, 4.000000, 1.000000, 4.000000, 4.000000, 4.000000, 4.000000, 4.000000, 4.000000, 4.000000
87.000000, 0.000000, 3910.769043, 4344.615234, 4203.589844, 4234.871582, 4212.820313, 4181.538574, 4176.410156, 4177.948730, 4187.179199, 4165.127930, 4186.153809, 4157.948730, 4066.666504, 4039.487061, 3583.000000, 8235.000000, 8396.000000, 0.000000, 0.000000, 0.000000, -21249.000000, 175.897430, 4.000000, 4.000000, 4.000000, 4.000000, 4.000000, 4.000000, 4.000000, 4.000000, 1.000000, 4.000000, 4.000000, 4.000000, 4.000000, 4.000000, 4.000000, 4.000000
88.000000, 0.000000, 3976.923096, 4373.333008, 4179.487305, 4228.205078, 4234.358887, 4184.102539, 4182.563965, 4186.153809, 4186.666504, 4186.666504, 4186.666504, 4155.897461, 4069.230713, 4032.820313, 3539.000000, 8235.000000, 8396.000000, 0.000000, 0.000000, 0.000000, -21249.000000, 183.589737, 4.000000, 4.000000, 4.000000, 4.000000, 4.000000, 4.000000, 4.000000, 4.000000, 1.000000, 4.000000, 4.000000, 4.000000, 4.000000, 4.000000, 4.000000, 4.000000
89.000000, 0.000000, 4034.358887, 4381.025391, 4167.179199, 4232.307617, 4234.358887, 4195.897461, 4186.666504, 4190.256348, 4186.666504, 4203.589844, 4198.461426, 4151.281738, 4072.307617, 4032.820313, 3463.000000, 8238.000000, 8384.000000, 0.000000, 0.000000, 0.000000, -21249.000000, 191.282043, 4.000000, 4.000000, 4.000000, 4.000000, 4.000000, 4.000000, 4.000000, 4.000000, 1.000000, 4.000000, 4.000000, 4.000000, 4.000000, 4.000000, 4.000000, 4.000000
90.000000, 0.000000, 4032.820313, 4372.820313, 4184.615234, 4242.051270, 4230.256348, 4195.897461, 4184.615234, 4185.127930, 4187.179199, 4201.025391, 4214.871582, 4159.487305, 4082.051270, 4054.358887, 3589.000000, 8238.000000, 8384.000000, 0.000000, 0.000000, 0.000000, -21249.000000, 198.974350, 4.000000, 4.000000, 4.000000, 4.000000, 4.000000, 4.000000, 4.000000, 4.000000, 1.000000, 4.000000, 4.000000, 4.000000, 4.000000, 4.000000, 4.000000, 4.000000
91.000000, 0.000000, 4059.487061, 4380.512695, 4198.461426, 4246.153809, 4226.666504, 4187.179199, 4186.666504, 4182.051270, 4187.179199, 4195.897461, 4213.333008, 4170.769043, 4089.743408, 4067.692139, 3583.000000, 8252.000000, 8366.000000, 0.000000, 0.000000, 0.000000, -21249.000000, 207.179489, 4.000000, 4.000000, 4.000000, 4.000000, 4.000000, 4.000000, 4.000000, 4.000000, 1.000000, 4.000000, 4.000000, 4.000000, 4.000000, 4.000000, 4.000000, 4.000000
92.000000, 0.000000, 4080.512695, 4363.076660, 4208.205078, 4255.384277, 4208.205078, 4186.666504, 4188.717773, 4185.127930, 4187.179199, 4188.205078, 4201.025391, 4170.256348, 4080.000000, 4037.948730, 3539.000000, 8252.000000, 8366.000000, 0.000000, 0.000000, 0.000000, -21249.000000, 214.871796, 4.000000, 4.000000, 4.000000, 4.000000, 4.000000, 4.000000, 4.000000, 4.000000, 1.000000, 4.000000, 4.000000, 4.000000, 4.000000, 4.000000, 4.000000, 4.000000
93.000000, 0.000000, 4098.974121, 4340.512695, 4214.358887, 4258.461426, 4202.051270, 4184.102539, 4181.025391, 4182.563965, 4186.153809, 4177.948730, 4204.102539, 4173.333008, 4075.897217, 4030.769043, 3463.000000, 8276.000000, 8335.000000, 0.000000, 0.000000, 0.000000, -21249.000000, 223.076920, 4.000000, 4.000000, 4.000000, 4.000000, 4.000000, 4.000000, 4.000000, 4.000000, 1.000000, 4.000000, 4.000000, 4.000000, 4.000000, 4.000000, 4.000000, 4.000000
94.000000, 0.000000, 4194.871582, 4382.563965, 4191.281738, 4241.538574, 4227.692383, 4183.076660, 4188.717773, 4185.127930, 4186.153809, 4181.538574, 4216.922852, 4182.563965, 4091.794678, 4068.205078, 3589.000000, 8276.000000, 8335.000000, 0.000000, 0.000000, 0.000000, -21249.000000, 230.769226, 4.000000, 4.000000, 4.000000, 4.000000, 4.000000, 4.000000, 4.000000, 4.000000, 1.000000, 4.000000, 4.000000, 4.000000, 4.000000, 4.000000, 4.000000, 4.000000
95.000000, 0.000000, 4266.666504, 4423.076660, 4167.692383, 4227.179199, 4240.000000, 4195.897461, 4203.076660, 4186.666504, 4187.179199, 4191.794922, 4218.974121, 4179.487305, 4095.897217, 4056.410156, 3583.000000, 8277.000000, 8320.000000, 0.000000, 0.000000, 0.000000, -21249.000000, 238.461533, 4.000000, 4.000000, 4.000000, 4.000000, 4.000000, 4.000000, 4.000000, 4.000000, 1.000000, 4.000000, 4.000000, 4.000000, 4.000000, 4.000000, 4.000000, 4.000000
96.000000, 0.000000, 4252.820313, 4401.538574, 4171.794922, 4230.769043, 4234.358887, 4202.051270, 4194.358887, 4183.076660, 4188.205078, 4189.743652, 4212.820313, 4162.563965, 4088.205078, 4009.743408, 3539.000000, 8277.000000, 8320.000000, 0.000000, 0.000000, 0.000000, -21249.000000, 246.666656, 4.000000, 4.000000, 4.000000, 4.000000, 4.000000, 4.000000, 4.000000, 4.000000, 1.000000, 4.000000, 4.000000, 4.000000, 4.000000, 4.000000, 4.000000, 4.000000
97.000000, 0.000000, 4276.922852, 4382.563965, 4180.000000, 4241.538574, 4227.692383, 4189.743652, 4182.051270, 4190.769043, 4187.692383, 4183.589844, 4211.281738, 4160.000000, 4088.205078, 4034.871582, 3463.000000, 8267.000000, 8279.000000, 0.000000, 0.000000, 0.000000, -21249.000000, 254.358963, 4.000000, 4.000000, 4.000000, 4.000000, 4.000000, 4.000000, 4.000000, 4.000000, 1.000000, 4.000000, 4.000000, 4.000000, 4.000000, 4.000000, 4.000000, 4.000000
98.000000, 0.000000, 4360.000000, 4414.871582, 4183.076660, 4244.102539, 4220.512695, 4177.948730, 4182.563965, 4194.871582, 4187.179199, 4189.743652, 4217.948730, 4170.256348, 4083.076904, 4046.153809, 3589.000000, 8267.000000, 8279.000000, 0.000000, 0.000000, 0.000000, -21249.000000, 262.051270, 4.000000, 4.000000, 4.000000, 4.000000, 4.000000, 4.000000, 4.000000, 4.000000, 1.000000, 4.000000, 4.000000, 4.000000, 4.000000, 4.000000, 4.000000, 4.000000
99.000000, 0.000000, 4397.948730, 4456.922852, 4184.615234, 4233.333008, 4218.974121, 4171.794922, 4169.743652, 4174.871582, 4185.641113, 4197.436035, 4226.666504, 4169.743652, 4078.461426, 3932.820313, 3583.000000, 8259.000000, 8259.000000, 0.000000, 0.000000, 0.000000, -21249.000000, 270.256409, 4.000000, 4.000000, 4.000000, 4.000000, 4.000000, 4.000000, 4.000000, 4.000000, 1.000000, 4.000000, 4.000000, 4.000000, 4.000000, 4.000000, 4.000000, 4.000000
100.000000, 0.000000, 4376.410156, 4467.692383, 4183.076660, 4229.743652, 4229.743652, 4167.692383, 4155.897461, 4156.410156, 4185.127930, 4188.717773, 4228.717773, 4163.589844, 4088.205078, 3831.794678, 3539.000000, 8259.000000, 8259.000000, 0.000000, 0.000000, 0.000000, -21249.000000, 277.948700, 4.000000, 4.000000, 4.000000, 4.000000, 4.000000, 4.000000, 4.000000, 4.000000, 1.000000, 4.000000, 4.000000, 4.000000, 4.000000, 4.000000, 4.000000, 4.000000
101.000000, 0.000000, 4364.615234, 4466.153809, 4184.615234, 4245.127930, 4245.127930, 4169.743652, 4163.589844, 4166.153809, 4187.179199, 4183.589844, 4230.769043, 4168.205078, 4091.794678, 3837.435791, 3463.000000, 8253.000000, 8252.000000, 0.000000, 0.000000, 0.000000, -21249.000000, 285.641022, 4.000000, 4.000000, 4.000000, 4.000000, 4.000000, 4.000000, 4.000000, 4.000000, 1.000000, 4.000000, 4.000000, 4.000000, 4.000000, 4.000000, 4.000000, 4.000000
102.000000, 0.000000, 4394.871582, 4492.307617, 4193.846191, 4252.307617, 4245.641113, 4175.384277, 4170.769043, 4180.512695, 4186.666504, 4190.256348, 4243.589844, 4178.461426, 4092.820313, 3844.102539, 3589.000000, 8253.000000, 8252.000000, 0.000000, 0.000000, 0.000000, -21249.000000, 293.333313, 4.000000, 4.000000, 4.000000, 4.000000, 4.000000, 4.000000, 4.000000, 4.000000, 1.000000, 4.000000, 4.000000, 4.000000, 4.000000, 4.000000, 4.000000, 4.000000
103.000000, 0.000000, 4423.076660, 4522.051270, 4198.461426, 4245.641113, 4238.461426, 4181.025391, 4169.743652, 4185.641113, 4184.615234, 4196.410156, 4251.794922, 4180.000000, 4098.974121, 3804.102539, 3583.000000, 8239.000000, 8253.000000, 0.000000, 0.000000, 0.000000, -21249.000000, 301.538452, 4.000000, 4.000000, 4.000000, 4.000000, 4.000000, 4.000000, 4.000000, 4.000000, 1.000000, 4.000000, 4.000000, 4.000000, 4.000000, 4.000000, 4.000000, 4.000000
104.000000, 0.000000, 4446.666504, 4519.487305, 4192.820313, 4245.641113, 4243.589844, 4187.179199, 4172.307617, 4187.179199, 4186.153809, 4196.922852, 4245.641113, 4174.871582, 4096.410156, 3781.538330, 3539.000000, 8239.000000, 8253.000000, 0.000000, 0.000000, 0.000000, -21249.000000, 309.230774, 4.000000, 4.000000, 4.000000, 4.000000, 4.000000, 4.000000, 4.000000, 4.000000, 1.000000, 4.000000, 4.000000, 4.000000, 4.000000, 4.000000, 4.000000, 4.000000
105.000000, 0.000000, 4513.846191, 4532.307617, 4182.051270, 4245.127930, 4252.820313, 4181.538574, 4170.769043, 4176.922852, 4187.692383, 4192.307617, 4241.025391, 4166.153809, 4096.922852, 3775.897461, 3463.000000, 8234.000000, 8254.000000, 0.000000, 0.000000, 0.000000, -21249.000000, 317.435883, 4.000000, 4.000000, 4.000000, 4.000000, 4.000000, 4.000000, 4.000000, 4.000000, 1.000000, 4.000000, 4.000000, 4.000000, 4.000000, 4.000000, 4.000000, 4.000000
106.000000, 0.000000, 4553.846191, 4566.153809, 4183.076660, 4248.205078, 4247.179199, 4172.820313, 4168.717773, 4168.205078, 4186.666504, 4186.153809, 4237.436035, 4155.897461, 4107.179199, 3775.384521, 3589.000000, 8234.000000, 8254.000000, 0.000000, 0.000000, 0.000000, -21249.000000, 325.128204, 4.000000, 4.000000, 4.000000, 4.000000, 4.000000, 4.000000, 4.000000, 4.000000, 1.000000, 4.000000, 4.000000, 4.000000, 4.000000, 4.000000, 4.000000, 4.000000
107.000000, 0.000000, 4530.256348, 4580.000000, 4198.461426, 4259.487305, 4240.000000, 4172.820313, 4178.974121, 4168.717773, 4185.641113, 4184.102539, 4231.794922, 4162.563965, 4103.589844, 3793.845947, 3583.000000, 8232.000000, 8226.000000, 0.000000, 0.000000, 0.000000, -21249.000000, 333.333313, 4.000000, 4.000000, 4.000000, 4.000000, 4.000000, 4.000000, 4.000000, 4.000000, 1.000000, 4.000000, 4.000000, 4.000000, 4.000000, 4.000000, 4.000000, 4.000000
108.000000, 0.000000, 4554.871582, 4586.153809, 4202.563965, 4262.051270, 4246.153809, 4172.307617, 4180.512695, 4154.358887, 4185.127930, 4182.051270, 4231.794922, 4175.384277, 4096.922852, 3797.435791, 3539.000000, 8232.000000, 8226.000000, 0.000000, 0.000000, 0.000000, -21249.000000, 341.025635, 4.000000, 4.000000, 4.000000, 4.000000, 4.000000, 4.000000, 4.000000, 4.000000, 1.000000, 4.000000, 4.000000, 4.000000, 4.000000, 4.000000, 4.000000, 4.000000
109.000000, 0.000000, 4661.538574, 4605.127930, 4188.717773, 4252.307617, 4247.692383, 4173.333008, 4173.846191, 4136.410156, 4186.666504, 4181.025391, 4234.358887, 4173.846191, 4112.307617, 3789.743408, 3463.000000, 8228.000000, 8215.000000, 0.000000, 0.000000, 0.000000, -21249.000000, 348.717926, 4.000000, 4.000000, 4.000000, 4.000000, 4.000000, 4.000000, 4.000000, 4.000000, 1.000000, 4.000000, 4.000000, 4.000000, 4.000000, 4.000000, 4.000000, 4.000000
110.000000, 0.000000, 4741.538574, 4610.256348, 4180.000000, 4248.205078, 4247.179199, 4183.076660, 4178.461426, 4150.256348, 4187.692383, 4185.641113, 4233.333008, 4168.717773, 4126.666504, 3799.487061, 3589.000000, 8228.000000, 8215.000000, 0.000000, 0.000000, 0.000000, -21249.000000, 356.410248, 4.000000, 4.000000, 4.000000, 4.000000, 4.000000, 4.000000, 4.000000, 4.000000, 1.000000, 4.000000, 4.000000, 4.000000, 4.000000, 4.000000, 4.000000, 4.000000
111.000000, 0.000000, 4785.127930, 4600.000000, 4186.666504, 4249.230469, 4251.794922, 4183.589844, 4182.563965, 4170.256348, 4186.666504, 4185.127930, 4232.307617, 4167.179199, 4125.127930, 3804.615234, 3583.000000, 8227.000000, 8231.000000, 0.000000, 0.000000, 0.000000, -21249.000000, 364.615387, 4.000000, 4.000000, 4.000000, 4.000000, 4.000000, 4.000000, 4.000000, 4.000000, 1.000000, 4.000000, 4.000000, 4.000000, 4.000000, 4.000000, 4.000000, 4.000000
112.000000, 0.000000, 4864.102539, 4608.205078, 4190.256348, 4247.179199, 4248.717773, 4172.820313, 4178.461426, 4168.205078, 4187.179199, 4181.025391, 4227.692383, 4160.000000, 4119.487305, 3790.256348, 3539.000000, 8227.000000, 8231.000000, 0.000000, 0.000000, 0.000000, -21249.000000, 372.820496, 4.000000, 4.000000, 4.000000, 4.000000, 4.000000, 4.000000, 4.000000, 4.000000, 1.000000, 4.000000, 4.000000, 4.000000, 4.000000, 4.000000, 4.000000, 4.000000
113.000000, 0.000000, 4924.102539, 4618.974121, 4183.076660, 4247.179199, 4238.461426, 4173.333008, 4182.051270, 4165.641113, 4187.692383, 4180.512695, 4215.384277, 4155.384277, 4106.153809, 3755.897461, 3463.000000, 8231.000000, 8246.000000, 0.000000, 0.000000, 0.000000, -21249.000000, 380.512817, 4.000000, 4.000000, 4.000000, 4.000000, 4.000000, 4.000000, 4.000000, 4.000000, 1.000000, 4.000000, 4.000000, 4.000000, 4.000000, 4.000000, 4.000000, 4.000000
114.000000, 0.000000, 4941.025391, 4628.205078, 4174.871582, 4248.205078, 4240.512695, 4175.384277, 4188.205078, 4168.205078, 4186.666504, 4181.538574, 4217.948730, 4156.922852, 4098.461426, 3704.102539, 3589.000000, 8231.000000, 8246.000000, 0.000000, 0.000000, 0.000000, -21249.000000, 388.205109, 4.000000, 4.000000, 4.000000, 4.000000, 4.000000, 4.000000, 4.000000, 4.000000, 1.000000, 4.000000, 4.000000, 4.000000, 4.000000, 4.000000, 4.000000, 4.000000
115.000000, 0.000000, 4980.000000, 4638.974121, 4175.384277, 4244.102539, 4245.127930, 4172.307617, 4184.102539, 4175.897461, 4186.153809, 4183.076660, 4229.230469, 4156.410156, 4109.230469, 3677.435791, 3583.000000, 8241.000000, 8267.000000, 0.000000, 0.000000, 0.000000, -21249.000000, 396.410248, 4.000000, 4.000000, 4.000000, 4.000000, 4.000000, 4.000000, 4.000000, 4.000000, 1.000000, 4.000000, 4.000000, 4.000000, 4.000000, 4.000000, 4.000000, 4.000000
116.000000, 0.000000, 5049.743652, 4644.615234, 4179.487305, 4241.025391, 4242.051270, 4177.436035, 4183.589844, 4188.205078, 4187.179199, 4178.461426, 4223.589844, 4160.000000, 4112.307617, 3686.153809, 3539.000000, 8241.000000, 8267.000000, 0.000000, 0.000000, 0.000000, -21249.000000, 404.102539, 4.000000, 4.000000, 4.000000, 4.000000, 4.000000, 4.000000, 4.000000, 4.000000, 1.000000, 4.000000, 4.000000, 4.000000, 4.000000, 4.000000, 4.000000, 4.000000
117.000000, 0.000000, 5115.384277, 4656.922852, 4184.615234, 4245.641113, 4240.000000, 4183.589844, 4190.769043, 4188.717773, 4187.692383, 4172.820313, 4217.948730, 4169.743652, 4105.127930, 3690.769043, 3463.000000, 8265.000000, 8294.000000, 0.000000, 0.000000, 0.000000, -21249.000000, 412.307678, 4.000000, 4.000000, 4.000000, 4.000000, 4.000000, 4.000000, 4.000000, 4.000000, 1.000000, 4.000000, 4.000000, 4.000000, 4.000000, 4.000000, 4.000000, 4.000000
118.000000, 0.000000, 5171.794922, 4667.692383, 4189.230469, 4251.281738, 4249.743652, 4186.666504, 4199.487305, 4183.589844, 4187.692383, 4181.538574, 4233.846191, 4177.436035, 4115.384277, 3675.897461, 3589.000000, 8265.000000, 8294.000000, 0.000000, 0.000000, 0.000000, -21249.000000, 420.000000, 4.000000, 4.000000, 4.000000, 4.000000, 4.000000, 4.000000, 4.000000, 4.000000, 1.000000, 4.000000, 4.000000, 4.000000, 4.000000, 4.000000, 4.000000, 4.000000
119.000000, 0.000000, 5229.230469, 4671.794922, 4181.538574, 4248.717773, 4256.922852, 4188.205078, 4200.512695, 4184.615234, 4188.205078, 4196.410156, 4245.127930, 4175.897461, 4132.820313, 3666.153809, 3583.000000, 8279.000000, 8292.000000, 0.000000, 0.000000, 0.000000, -21249.000000, 428.205109, 4.000000, 4.000000, 4.000000, 4.000000, 4.000000, 4.000000, 4.000000, 4.000000, 1.000000, 4.000000, 4.000000, 4.000000, 4.000000, 4.000000, 4.000000, 4.000000
120.000000, 0.000000, 5282.051270, 4674.871582, 4174.871582, 4243.076660, 4252.307617, 4185.641113, 4195.384277, 4186.666504, 4186.666504, 4195.897461, 4237.948730, 4170.769043, 4130.769043, 3667.692139, 3539.000000, 8279.000000, 8292.000000, 0.000000, 0.000000, 0.000000, -21249.000000, 435.897430, 4.000000, 4.000000, 4.000000, 4.000000, 4.000000, 4.000000, 4.000000, 4.000000, 1.000000, 4.000000, 4.000000, 4.000000, 4.000000, 4.000000, 4.000000, 4.000000
121.000000, 0.000000, 5341.538574, 4674.871582, 4181.025391, 4248.717773, 4250.769043, 4186.153809, 4201.025391, 4188.717773, 4185.127930, 4186.153809, 4227.179199, 4174.358887, 4120.000000, 3665.128174, 3463.000000, 8312.000000, 8293.000000, 0.000000, 0.000000, 0.000000, -21249.000000, 444.102539, 4.000000, 4.000000, 4.000000, 4.000000, 4.000000, 4.000000, 4.000000, 4.000000, 1.000000, 4.000000, 4.000000, 4.000000, 4.000000, 4.000000, 4.000000, 4.000000
122.000000, 0.000000, 5384.615234, 4667.179199, 4182.563965, 4247.692383, 4244.102539, 4182.051270, 4202.051270, 4190.256348, 4185.127930, 4178.974121, 4218.974121, 4171.794922, 4118.461426, 3648.717773, 3589.000000, 8312.000000, 8293.000000, 0.000000, 0.000000, 0.000000, -21249.000000, 451.794861, 4.000000, 4.000000, 4.000000, 4.000000, 4.000000, 4.000000, 4.000000, 4.000000, 1.000000, 4.000000, 4.000000, 4.000000, 4.000000, 4.000000, 4.000000, 4.000000
123.000000, 0.000000, 5409.230469, 4665.127930, 4171.794922, 4232.820313, 4233.333008, 4173.846191, 4188.205078, 4185.641113, 4186.666504, 4175.384277, 4215.897461, 4158.974121, 4123.589844, 3631.794678, 3583.000000, 8335.000000, 8300.000000, 0.000000, 0.000000, 0.000000, -21249.000000, 460.000000, 4.000000, 4.000000, 4.000000, 4.000000, 4.000000, 4.000000, 4.000000, 4.000000, 1.000000, 4.000000, 4.000000, 4.000000, 4.000000, 4.000000, 4.000000, 4.000000
124.000000, 0.000000, 5464.615234, 4669.230469, 4171.794922, 4231.281738, 4240.512695, 4176.922852, 4182.563965, 4182.051270, 4187.692383, 4175.897461, 4218.974121, 4160.512695, 4125.127930, 3637.948730, 3539.000000, 8335.000000, 8300.000000, 0.000000, 0.000000, 0.000000, -21249.000000, 467.692291, 4.000000, 4.000000, 4.000000, 4.000000, 4.000000, 4.000000, 4.000000, 4.000000, 1.000000, 4.000000, 4.000000, 4.000000, 4.000000, 4.000000, 4.000000, 4.000000
125.000000, 0.000000, 5516.922852, 4657.435547, 4171.794922, 4231.794922, 4256.410156, 4180.000000, 4182.563965, 4178.461426, 4187.179199, 4172.307617, 4215.384277, 4164.615234, 4118.974121, 3628.717773, 3463.000000, 8352.000000, 8299.000000, 0.000000, 0.000000, 0.000000, -21249.000000, 475.897430, 4.000000, 4.000000, 4.000000, 4.000000, 4.000000, 4.000000, 4.000000, 4.000000, 1.000000, 4.000000, 4.000000, 4.000000, 4.000000, 4.000000, 4.000000, 4.000000
126.000000, 0.000000, 5523.589844, 4643.076660, 4163.076660, 4223.589844, 4241.025391, 4168.205078, 4170.769043, 4174.871582, 4186.666504, 4173.846191, 4204.102539, 4151.794922, 4117.948730, 3583.076904, 3589.000000, 8352.000000, 8299.000000, 0.000000, 0.000000, 0.000000, -21249.000000, 483.589722, 4.000000, 4.000000, 4.000000, 4.000000, 4.000000, 4.000000, 4.000000, 4.000000, 1.000000, 4.000000, 4.000000, 4.000000, 4.000000, 4.000000, 4.000000, 4.000000
127.000000, 0.000000, 5538.461426, 4644.102539, 4172.307617, 4227.179199, 4221.538574, 4168.717773, 4171.281738, 4180.000000, 4187.179199, 4183.076660, 4207.179199, 4153.333008, 4129.230469, 3562.563965, 57.000000, 8387.000000, 8297.000000, 0.000000, 0.000000, 0.000000, -21249.000000, 491.794861, 4.000000, 4.000000, 4.000000, 4.000000, 4.000000, 4.000000, 4.000000, 4.000000, 1.000000, 4.000000, 4.000000, 4.000000, 4.000000, 4.000000, 4.000000, 4.000000
0.000000, 0.000000, 5577.435547, 4651.794922, 4183.076660, 4235.384277, 4249.230469, 4185.127930, 4183.589844, 4185.641113, 4187.179199, 4187.692383, 4225.641113, 4173.846191, 4145.127930, 3580.000000, 3038.000000, 8387.000000, 8297.000000, 0.000000, 0.000000, 0.000000, -21249.000000, 499.487152, 4.000000, 4.000000, 4.000000, 4.000000, 4.000000, 4.000000, 4.000000, 4.000000, 1.000000, 4.000000, 4.000000, 4.000000, 4.000000, 4.000000, 4.000000, 4.000000
1.000000, 0.000000, 5601.025391, 4646.153809, 4177.948730, 4229.743652, 4265.641113, 4190.256348, 4183.589844, 4184.615234, 4186.666504, 4184.102539, 4234.358887, 4176.410156, 4153.333008, 3567.692139, 3503.000000, 8403.000000, 8306.000000, 0.000000, 0.000000, 0.000000, -21249.000000, 507.692291, 4.000000, 4.000000, 4.000000, 4.000000, 4.000000, 4.000000, 4.000000, 4.000000, 1.000000, 4.000000, 4.000000, 4.000000, 4.000000, 4.000000, 4.000000, 4.000000
2.000000, 0.000000, 5617.948730, 4633.333008, 4174.358887, 4229.230469, 4249.743652, 4184.615234, 4188.205078, 4191.794922, 4186.666504, 4186.153809, 4229.743652, 4166.666504, 4151.794922, 3516.410156, 3491.000000, 8403.000000, 8306.000000, 0.000000, 0.000000, 0.000000, -21249.000000, 515.897400, 4.000000, 4.000000, 4.000000, 4.000000, 4.000000, 4.000000, 4.000000, 4.000000, 1.000000, 4.000000, 4.000000, 4.000000, 4.000000, 4.000000, 4.000000, 4.000000
3.000000, 0.000000, 5620.512695, 4630.256348, 4185.641113, 4235.384277, 4249.743652, 4183.589844, 4199.487305, 4207.179199, 4185.641113, 4190.769043, 4230.256348, 4173.333008, 4156.922852, 3516.410156, 2421.000000, 8414.000000, 8311.000000, 0.000000, 0.000000, 0.000000, -21249.000000, 523.589722, 4.000000, 4.000000, 4.000000, 4.000000, 4.000000, 4.000000, 4.000000, 4.000000, 1.000000, 4.000000, 4.000000, 4.000000, 4.000000, 4.000000, 4.000000, 4.000000
4.000000, 0.000000, 5612.820313, 4632.820313, 4198.974121, 4234.358887, 4267.179199, 4187.692383, 4194.358887, 4200.000000, 4186.153809, 4185.641113, 4234.358887, 4187.692383, 4164.615234, 3543.076904, 3521.000000, 8414.000000, 8311.000000, 0.000000, 0.000000, 0.000000, -21249.000000, 531.794861, 4.000000, 4.000000, 4.000000, 4.000000, 4.000000, 4.000000, 4.000000, 4.000000, 1.000000, 4.000000, 4.000000, 4.000000, 4.000000, 4.000000, 4.000000, 4.000000
5.000000, 0.000000, 5648.205078, 4641.538574, 4194.358887, 4235.384277, 4271.794922, 4184.102539, 4183.076660, 4186.666504, 4188.717773, 4190.769043, 4235.897461, 4189.743652, 4174.358887, 3506.153809, 3561.000000, 8413.000000, 8295.000000, 0.000000, 0.000000, 0.000000, -21249.000000, 539.487183, 4.000000, 4.000000, 4.000000, 4.000000, 4.000000, 4.000000, 4.000000, 4.000000, 1.000000, 4.000000, 4.000000, 4.000000, 4.000000, 4.000000, 4.000000, 4.000000
6.000000, 0.000000, 5684.102539, 4637.948730, 4188.717773, 4235.897461, 4254.871582, 4174.358887, 4183.589844, 4188.717773, 4190.256348, 4204.615234, 4235.384277, 4181.025391, 4185.127930, 3462.563965, 3535.000000, 8413.000000, 8295.000000, 0.000000, 0.000000, 0.000000, -21249.000000, 547.692322, 4.000000, 4.000000, 4.000000, 4.000000, 4.000000, 4.000000, 4.000000, 4.000000, 1.000000, 4.000000, 4.000000, 4.000000, 4.000000, 4.000000, 4.000000, 4.000000
7.000000, 0.000000, 5666.153809, 4622.051270, 4192.307617, 4232.820313, 4249.230469, 4175.897461, 4187.179199, 4192.820313, 4188.205078, 4205.127930, 4232.820313, 4182.563965, 4182.563965, 3466.666504, 3521.000000, 8406.000000, 8270.000000, 0.000000, 0.000000, 0.000000, -21249.000000, 555.384583, 4.000000, 4.000000, 4.000000, 4.000000, 4.000000, 4.000000, 4.000000, 4.000000, 1.000000, 4.000000, 4.000000, 4.000000, 4.000000, 4.000000, 4.000000, 4.000000
8.000000, 0.000000, 5645.641113, 4621.025391, 4191.281738, 4231.794922, 4267.692383, 4185.127930, 4190.256348, 4188.717773, 4186.153809, 4197.436035, 4235.897461, 4185.641113, 4179.487305, 3459.487061, 86.000000, 8406.000000, 8270.000000, 0.000000, 0.000000, 0.000000, -21249.000000, 563.589722, 4.000000, 4.000000, 4.000000, 4.000000, 4.000000, 4.000000, 4.000000, 4.000000, 1.000000, 4.000000, 4.000000, 4.000000, 4.000000, 4.000000, 4.000000, 4.000000
9.000000, 0.000000, 5627.179199, 4617.948730, 4185.127930, 4226.666504, 4273.333008, 4184.102539, 4194.358887, 4186.666504, 4186.666504, 4199.487305, 4233.333008, 4175.384277, 4185.641113, 3407.692139, 2190.000000, 8394.000000, 8235.000000, 0.000000, 0.000000, 0.000000, -21249.000000, 571.282043, 4.000000, 4.000000, 4.000000, 4.000000, 4.000000, 4.000000, 4.000000, 4.000000, 1.000000, 4.000000, 4.000000, 4.000000, 4.000000, 4.000000, 4.000000, 4.000000
10.000000, 0.000000, 5614.358887, 4601.025391, 4182.051270, 4222.563965, 4262.051270, 4173.333008, 4187.692383, 4188.717773, 4187.179199, 4202.563965, 4220.512695, 4168.205078, 4187.179199, 3362.051270, 3595.000000, 8394.000000, 8235.000000, 0.000000, 0.000000, 0.000000, -21249.000000, 579.487183, 4.000000, 4.000000, 4.000000, 4.000000, 4.000000, 4.000000, 4.000000, 4.000000, 1.000000, 4.000000, 4.000000, 4.000000, 4.000000, 4.000000, 4.000000, 4.000000
11.000000, 0.000000, 5617.435547, 4597.948730, 4185.127930, 4227.692383, 4258.974121, 4164.615234, 4172.307617, 4182.051270, 4187.179199, 4191.281738, 4215.384277, 4164.615234, 4181.025391, 3334.871826, 3645.000000, 8390.000000, 8216.000000, 0.000000, 0.000000, 0.000000, -21249.000000, 587.692322, 4.000000, 4.000000, 4.000000, 4.000000, 4.000000, 4.000000, 4.000000, 4.000000, 1.000000, 4.000000, 4.000000, 4.000000, 4.000000, 4.000000, 4.000000, 4.000000
12.000000, 0.000000, 5602.563965, 4611.794922, 4184.615234, 4232.820313, 4265.641113, 4163.076660, 4165.641113, 4172.820313, 4187.179199, 4184.102539, 4215.897461, 4154.871582, 4182.563965, 3303.589600, 3525.000000, 8390.000000, 8216.000000, 0.000000, 0.000000, 0.000000, -21249.000000, 595.384583, 4.000000, 4.000000, 4.000000, 4.000000, 4.000000, 4.000000, 4.000000, 4.000000, 1.000000, 4.000000, 4.000000, 4.000000, 4.000000, 4.000000, 4.000000, 4.000000
13.000000, 0.000000, 5597.435547, 4615.897461, 4180.000000, 4227.692383, 4265.641113, 4168.717773, 4171.794922, 4171.281738, 4187.179199, 4185.641113, 4210.769043, 4157.436035, 4184.615234, 3279.487061, 3463.000000, 8377.000000, 8190.000000, 0.000000, 0.000000, 0.000000, -21249.000000, 603.589722, 4.000000, 4.000000, 4.000000, 4.000000, 4.000000, 4.000000, 4.000000, 4.000000, 1.000000, 4.000000, 4.000000, 4.000000, 4.000000, 4.000000, 4.000000, 4.000000
14.000000, 0.000000, 5608.717773, 4605.127930, 4175.384277, 4219.487305, 4268.717773, 4169.230469, 4177.436035, 4171.794922, 4186.666504, 4185.127930, 4208.205078, 4169.743652, 4180.000000, 3263.589600, 3595.000000, 8377.000000, 8190.000000, 0.000000, 0.000000, 0.000000, -21249.000000, 611.282043, 4.000000, 4.000000, 4.000000, 4.000000, 4.000000, 4.000000, 4.000000, 4.000000, 1.000000, 4.000000, 4.000000, 4.000000, 4.000000, 4.000000, 4.000000, 4.000000
15.000000, 0.000000, 5579.486816, 4588.205078, 4172.820313, 4217.948730, 4267.179199, 4166.153809, 4174.358887, 4169.230469, 4186.153809, 4183.076660, 4211.794922, 4167.692383, 4181.538574, 3243.076904, 3645.000000, 8365.000000, 8179.000000, 0.000000, 0.000000, 0.000000, -21249.000000, 619.487183, 4.000000, 4.000000, 4.000000, 4.000000, 4.000000, 4.000000, 4.000000, 4.000000, 1.000000, 4.000000, 4.000000, 4.000000, 4.000000, 4.000000, 4.000000, 4.000000
16.000000, 0.000000, 5556.922852, 4586.666504, 4171.281738, 4222.563965, 4263.076660, 4165.127930, 4170.256348, 4168.205078, 4186.153809, 4186.666504, 4218.461426, 4164.615234, 4188.717773, 3226.666504, 0.000000, 8365.000000, 8179.000000, 0.000000, 0.000000, 0.000000, -21249.000000, 627.179443, 4.000000, 4.000000, 4.000000, 4.000000, 4.000000, 4.000000, 4.000000, 4.000000, 1.000000, 4.000000, 4.000000, 4.000000, 4.000000, 4.000000, 4.000000, 4.000000
17.000000, 0.000000, 5575.384277, 4594.358887, 4167.692383, 4222.051270, 4267.179199, 4163.589844, 4179.487305, 4178.974121, 4186.666504, 4189.743652, 4218.461426, 4167.692383, 4191.794922, 3230.769043, 0.000000, 8327.000000, 8180.000000, 0.000000, 0.000000, 0.000000, -21249.000000, 635.384583, 4.000000, 4.000000, 4.000000, 4.000000, 4.000000, 4.000000, 4.000000, 4.000000, 1.000000, 4.000000, 4.000000, 4.000000, 4.000000, 4.000000, 4.000000, 4.000000
18.000000, 0.000000, 5552.820313, 4573.333008, 4168.717773, 4216.410156, 4250.256348, 4161.025391, 4192.307617, 4186.666504, 4188.205078, 4186.666504, 4206.666504, 4157.436035, 4181.025391, 3224.615234, 0.000000, 8327.000000, 8180.000000, 0.000000, 0.000000, 0.000000, -21249.000000, 643.076904, 4.000000, 4.000000, 4.000000, 4.000000, 4.000000, 4.000000, 4.000000, 4.000000, 1.000000, 4.000000, 4.000000, 4.000000, 4.000000, 4.000000, 4.000000, 4.000000
19.000000, 0.000000, 5528.717773, 4562.563965, 4171.281738, 4214.871582, 4244.615234, 4160.512695, 4191.281738, 4185.127930, 4188.205078, 4185.641113, 4200.512695, 4150.256348, 4173.333008, 3197.948730, 0.000000, 8302.000000, 8171.000000, 0.000000, 0.000000, 0.000000, -21249.000000, 651.282043, 4.000000, 4.000000, 4.000000, 4.000000, 4.000000, 4.000000, 4.000000, 4.000000, 1.000000, 4.000000, 4.000000, 4.000000, 4.000000, 4.000000, 4.000000, 4.000000
20.000000, 0.000000, 5546.153809, 4576.922852, 4174.358887, 4215.384277, 4277.948730, 4160.000000, 4185.127930, 4186.666504, 4187.179199, 4181.538574, 4212.820313, 4160.000000, 4178.974121, 3191.281982, 0.000000, 8302.000000, 8171.000000, 0.000000, 0.000000, 0.000000, -21249.000000, 658.974365, 4.000000, 4.000000, 4.000000, 4.000000, 4.000000, 4.000000, 4.000000, 4.000000, 1.000000, 4.000000, 4.000000, 4.000000, 4.000000, 4.000000, 4.000000, 4.000000
21.000000, 0.000000, 5530.769043, 4566.666504, 4185.641113, 4217.948730, 4287.692383, 4154.358887, 4182.051270, 4183.589844, 4185.641113, 4183.076660, 4220.000000, 4170.769043, 4186.666504, 3208.205078, 0.000000, 8266.000000, 8152.000000, 0.000000, 0.000000, 0.000000, -21249.000000, 667.179443, 4.000000, 4.000000, 4.000000, 4.000000, 4.000000, 4.000000, 4.000000, 4.000000, 1.000000, 4.000000, 4.000000, 4.000000, 4.000000, 4.000000, 4.000000, 4.000000
22.000000, 0.000000, 5505.641113, 4551.281738, 4191.281738, 4216.922852, 4265.641113, 4152.307617, 4174.871582, 4174.871582, 4184.615234, 4188.717773, 4214.358887, 4172.820313, 4187.692383, 3220.512695, 0.000000, 8266.000000, 8152.000000, 0.000000, 0.000000, 0.000000, -21249.000000, 674.871765, 4.000000, 4.000000, 4.000000, 4.000000, 4.000000, 4.000000, 4.000000, 4.000000, 1.000000, 4.000000, 4.000000, 4.000000, 4.000000, 4.000000, 4.000000, 4.000000
23.000000, 0.000000, 5513.333008, 4556.410156, 4181.025391, 4204.102539, 4256.922852, 4153.333008, 4168.717773, 4162.563965, 4185.127930, 4178.974121, 4204.615234, 4165.127930, 4177.436035, 3214.358887, 0.000000, 8226.000000, 8145.000000, 0.000000, 0.000000, 0.000000, -21249.000000, 683.076904, 4.000000, 4.000000, 4.000000, 4.000000, 4.000000, 4.000000, 4.000000, 4.000000, 1.000000, 4.000000, 4.000000, 4.000000, 4.000000, 4.000000, 4.000000, 4.000000
24.000000, 0.000000, 5498.974121, 4549.743652, 4171.281738, 4196.410156, 4254.358887, 4152.307617, 4168.205078, 4146.153809, 4185.127930, 4163.589844, 4191.794922, 4153.333008, 4163.076660, 3191.281982, 0.000000, 8226.000000, 8145.000000, 0.000000, 0.000000, 0.000000, -21249.000000, 690.769226, 4.000000, 4.000000, 4.000000, 4.000000, 4.000000, 4.000000, 4.000000, 4.000000, 1.000000, 4.000000, 4.000000, 4.000000, 4.000000, 4.000000, 4.000000, 4.000000
25.000000, 0.000000, 5459.486816, 4530.256348, 4171.281738, 4204.615234, 4252.820313, 4149.230469, 4169.743652, 4146.153809, 4184.615234, 4163.076660, 4193.333008, 4150.769043, 4167.179199, 3176.410156, 0.000000, 8221.000000, 8148.000000, 0.000000, 0.000000, 0.000000, -21249.000000, 698.974365, 4.000000, 4.000000, 4.000000, 4.000000, 4.000000, 4.000000, 4.000000, 4.000000, 1.000000, 4.000000, 4.000000, 4.000000, 4.000000, 4.000000, 4.000000, 4.000000
26.000000, 0.000000, 5445.641113, 4532.307617, 4167.692383, 4204.615234, 4272.820313, 4152.307617, 4169.743652, 4170.256348, 4185.641113, 4169.230469, 4205.641113, 4153.846191, 4181.025391, 3177.948730, 0.000000, 8221.000000, 8148.000000, 0.000000, 0.000000, 0.000000, -21249.000000, 706.666626, 4.000000, 4.000000, 4.000000, 4.000000, 4.000000, 4.000000, 4.000000, 4.000000, 1.000000, 4.000000, 4.000000, 4.000000, 4.000000, 4.000000, 4.000000, 4.000000
27.000000, 0.000000, 5436.922852, 4532.820313, 4165.127930, 4198.461426, 4286.666504, 4155.897461, 4169.743652, 4185.641113, 4187.692383, 4169.743652, 4204.615234, 4150.256348, 4175.897461, 3176.410156, 0.000000, 8217.000000, 8142.000000, 0.000000, 0.000000, 0.000000, -21249.000000, 714.871765, 4.000000, 4.000000, 4.000000, 4.000000, 4.000000, 4.000000, 4.000000, 4.000000, 1.000000, 4.000000, 4.000000, 4.000000, 4.000000, 4.000000, 4.000000, 4.000000
28.000000, 0.000000, 5407.692383, 4518.461426, 4166.153809, 4203.076660, 4277.948730, 4133.846191, 4168.205078, 4186.666504, 4187.692383, 4170.769043, 4199.487305, 4146.153809, 4165.127930, 3174.358887, 0.000000, 8217.000000, 8142.000000, 0.000000, 0.000000, 0.000000, -21249.000000, 722.564087, 4.000000, 4.000000, 4.000000, 4.000000, 4.000000, 4.000000, 4.000000, 4.000000, 1.000000, 4.000000, 4.000000, 4.000000, 4.000000, 4.000000, 4.000000, 4.000000
29.000000, 0.000000, 5373.333008, 4511.794922, 4162.563965, 4200.000000, 4266.666504, 4104.615234, 4171.794922, 4180.512695, 4185.641113, 4174.358887, 4192.307617, 4142.563965, 4152.307617, 3170.256348, 0.000000, 8233.000000, 8122.000000, 0.000000, 0.000000, 0.000000, -21249.000000, 730.769226, 4.000000, 4.000000, 4.000000, 4.000000, 4.000000, 4.000000, 4.000000, 4.000000, 1.000000, 4.000000, 4.000000, 4.000000, 4.000000, 4.000000, 4.000000, 4.000000
30.000000, 0.000000, 5335.897461, 4500.512695, 4163.589844, 4189.230469, 4257.948730, 4106.153809, 4178.974121, 4160.000000, 4184.615234, 4170.256348, 4177.436035, 4136.410156, 4128.717773, 3155.384521, 0.000000, 8233.000000, 8122.000000, 0.000000, 0.000000, 0.000000, -21249.000000, 738.461548, 4.000000, 4.000000, 4.000000, 4.000000, 4.000000, 4.000000, 4.000000, 4.000000, 1.000000, 4.000000, 4.000000, 4.000000, 4.000000, 4.000000, 4.000000, 4.000000
31.000000, 0.000000, 5302.563965, 4488.205078, 4166.666504, 4186.153809, 4270.256348, 4122.563965, 4176.922852, 4153.333008, 4186.666504, 4161.538574, 4168.205078, 4142.051270, 4123.076660, 3158.461426, 0.000000, 8248.000000, 8109.000000, 0.000000, 0.000000, 0.000000, -21249.000000, 746.666626, 4.000000, 4.000000, 4.000000, 4.000000, 4.000000, 4.000000, 4.000000, 4.000000, 1.000000, 4.000000, 4.000000, 4.000000, 4.000000, 4.000000, 4.000000, 4.000000
32.000000, 0.000000, 5275.897461, 4492.307617, 4158.974121, 4185.641113, 4289.230469, 4123.589844, 4175.384277, 4175.384277, 4188.205078, 4161.538574, 4178.461426, 4153.846191, 4136.410156, 3174.358887, 0.000000, 8248.000000, 8109.000000, 0.000000, 0.000000, 0.000000, -21249.000000, 754.358948, 4.000000, 4.000000, 4.000000, 4.000000, 4.000000, 4.000000, 4.000000, 4.000000, 1.000000, 4.000000, 4.000000, 4.000000, 4.000000, 4.000000, 4.000000, 4.000000
33.000000, 0.000000, 5243.589844, 4485.127930, 4157.436035, 4191.281738, 4273.846191, 4123.076660, 4184.615234, 4192.820313, 4188.205078, 4171.281738, 4184.615234, 4156.410156, 4137.948730, 3173.333252, 0.000000, 8260.000000, 8096.000000, 0.000000, 0.000000, 0.000000, -21249.000000, 762.051270, 4.000000, 4.000000, 4.000000, 4.000000, 4.000000, 4.000000, 4.000000, 4.000000, 1.000000, 4.000000, 4.000000, 4.000000, 4.000000, 4.000000, 4.000000, 4.000000
34.000000, 0.000000, 5213.333008, 4478.974121, 4169.743652, 4201.538574, 4258.974121, 4121.025391, 4183.589844, 4185.641113, 4187.692383, 4172.820313, 4181.538574, 4152.820313, 4139.487305, 3175.897461, 0.000000, 8260.000000, 8096.000000, 0.000000, 0.000000, 0.000000, -21249.000000, 770.256409, 4.000000, 4.000000, 4.000000, 4.000000, 4.000000, 4.000000, 4.000000, 4.000000, 1.000000, 4.000000, 4.000000, 4.000000, 4.000000, 4.000000, 4.000000, 4.000000
35.000000, 0.000000, 5196.410156, 4501.025391, 4170.769043, 4208.717773, 4286.153809, 4105.641113, 4166.666504, 4171.794922, 4187.692383, 4168.717773, 4190.769043, 4155.384277, 4158.974121, 3191.794678, 0.000000, 8256.000000, 8082.000000, 0.000000, 0.000000, 0.000000, -21249.000000, 777.948669, 4.000000, 4.000000, 4.000000, 4.000000, 4.000000, 4.000000, 4.000000, 4.000000, 1.000000, 4.000000, 4.000000, 4.000000, 4.000000, 4.000000, 4.000000, 4.000000
36.000000, 0.000000, 5155.897461, 4508.717773, 4168.717773, 4214.358887, 4307.179199, 4103.076660, 4164.615234, 4175.384277, 4187.692383, 4171.281738, 4203.589844, 4164.615234, 4163.589844, 3189.743408, 0.000000, 8256.000000, 8082.000000, 0.000000, 0.000000, 0.000000, -21249.000000, 786.153809, 4.000000, 4.000000, 4.000000, 4.000000, 4.000000, 4.000000, 4.000000, 4.000000, 1.000000, 4.000000, 4.000000, 4.000000, 4.000000, 4.000000, 4.000000, 4.000000
37.000000, 0.000000, 5082.051270, 4477.948730, 4174.358887, 4215.384277, 4279.487305, 4111.794922, 4175.384277, 4183.076660, 4187.179199, 4174.358887, 4198.974121, 4170.769043, 4153.333008, 3177.435791, 0.000000, 8243.000000, 8037.000000, 0.000000, 0.000000, 0.000000, -21249.000000, 793.846130, 4.000000, 4.000000, 4.000000, 4.000000, 4.000000, 4.000000, 4.000000, 4.000000, 1.000000, 4.000000, 4.000000, 4.000000, 4.000000, 4.000000, 4.000000, 4.000000
38.000000, 0.000000, 5033.333008, 4468.717773, 4171.794922, 4209.743652, 4260.512695, 4105.641113, 4168.717773, 4174.871582, 4186.666504, 4176.922852, 4190.769043, 4164.102539, 4161.538574, 3186.666504, 0.000000, 8243.000000, 8037.000000, 0.000000, 0.000000, 0.000000, -21249.000000, 802.051270, 4.000000, 4.000000, 4.000000, 4.000000, 4.000000, 4.000000, 4.000000, 4.000000, 1.000000, 4.000000, 4.000000, 4.000000, 4.000000, 4.000000, 4.000000, 4.000000
39.000000, 0.000000, 5017.948730, 4490.769043, 4167.692383, 4211.794922, 4288.205078, 4107.179199, 4164.615234, 4175.384277, 4186.666504, 4183.589844, 4194.358887, 4153.846191, 4174.358887, 3198.461426, 0.000000, 8232.000000, 8010.000000, 0.000000, 0.000000, 0.000000, -21249.000000, 809.743591, 4.000000, 4.000000, 4.000000, 4.000000, 4.000000, 4.000000, 4.000000, 4.000000, 1.000000, 4.000000, 4.000000, 4.000000, 4.000000, 4.000000, 4.000000, 4.000000
40.000000, 0.000000, 4967.692383, 4485.127930, 4177.948730, 4215.384277, 4299.487305, 4123.589844, 4180.000000, 4195.384277, 4187.179199, 4186.153809, 4197.436035, 4157.948730, 4173.846191, 3201.025635, 0.000000, 8232.000000, 8010.000000, 0.000000, 0.000000, 0.000000, -21249.000000, 817.948669, 4.000000, 4.000000, 4.000000, 4.000000, 4.000000, 4.000000, 4.000000, 4.000000, 1.000000, 4.000000, 4.000000, 4.000000, 4.000000, 4.000000, 4.000000, 4.000000
41.000000, 0.000000, 4898.461426, 4466.666504, 4185.127930, 4206.666504, 4285.127930, 4127.692383, 4189.743652, 4203.589844, 4186.666504, 4184.615234, 4197.436035, 4168.717773, 4173.846191, 3228.717773, 0.000000, 8218.000000, 7958.000000, 0.000000, 0.000000, 0.000000, -21249.000000, 825.640991, 4.000000, 4.000000, 4.000000, 4.000000, 4.000000, 4.000000, 4.000000, 4.000000, 1.000000, 4.000000, 4.000000, 4.000000, 4.000000, 4.000000, 4.000000, 4.000000
42.000000, 0.000000, 4841.538574, 4459.487305, 4191.281738, 4203.076660, 4281.025391, 4123.076660, 4187.179199, 4200.000000, 4187.179199, 4185.127930, 4205.127930, 4180.512695, 4185.127930, 3293.333252, 0.000000, 8218.000000, 7958.000000, 0.000000, 0.000000, 0.000000, -21249.000000, 833.846130, 4.000000, 4.000000, 4.000000, 4.000000, 4.000000, 4.000000, 4.000000, 4.000000, 1.000000, 4.000000, 4.000000, 4.000000, 4.000000, 4.000000, 4.000000, 4.000000
43.000000, 0.000000, 4771.794922, 4447.179199, 4198.461426, 4205.127930, 4268.717773, 4125.127930, 4186.153809, 4194.358887, 4187.692383, 4183.076660, 4209.230469, 4185.127930, 4186.666504, 3366.153809, 0.000000, 8167.000000, 7934.000000, 0.000000, 0.000000, 0.000000, -21249.000000, 841.538452, 4.000000, 4.000000, 4.000000, 4.000000, 4.000000, 4.000000, 4.000000, 4.000000, 1.000000, 4.000000, 4.000000, 4.000000, 4.000000, 4.000000, 4.000000, 4.000000
44.000000, 0.000000, 4713.846191, 4445.641113, 4188.205078, 4195.897461, 4262.051270, 4125.641113, 4183.589844, 4186.153809, 4184.615234, 4177.436035, 4201.538574, 4176.922852, 4175.384277, 3436.410156, 0.000000, 8167.000000, 7934.000000, 0.000000, 0.000000, 0.000000, -21249.000000, 849.743591, 4.000000, 4.000000, 4.000000, 4.000000, 4.000000, 4.000000, 4.000000, 4.000000, 1.000000, 4.000000, 4.000000, 4.000000, 4.000000, 4.000000, 4.000000, 4.000000
45.000000, 0.000000, 4682.051270, 4455.897461, 4170.769043, 4186.153809, 4281.025391, 4122.563965, 4176.410156, 4182.051270, 4183.076660, 4168.717773, 4185.127930, 4165.127930, 4168.205078, 3496.410156, 0.000000, 8139.000000, 7918.000000, 0.000000, 0.000000, 0.000000, -21249.000000, 857.435852, 4.000000, 4.000000, 4.000000, 4.000000, 4.000000, 4.000000, 4.000000, 4.000000, 1.000000, 4.000000, 4.000000, 4.000000, 4.000000, 4.000000, 4.000000, 4.000000
46.000000, 0.000000, 4633.333008, 4449.230469, 4168.717773, 4191.281738, 4278.974121, 4123.589844, 4172.820313, 4177.436035, 4185.127930, 4165.641113, 4173.333008, 4156.410156, 4165.641113, 3523.589600, 0.000000, 8139.000000, 7918.000000, 0.000000, 0.000000, 0.000000, -21249.000000, 865.128174, 4.000000, 4.000000, 4.000000, 4.000000, 4.000000, 4.000000, 4.000000, 4.000000, 1.000000, 4.000000, 4.000000, 4.000000, 4.000000, 4.000000, 4.000000, 4.000000
47.000000, 0.000000, 4586.666504, 4435.897461, 4174.358887, 4203.076660, 4262.051270, 4129.743652, 4174.358887, 4175.384277, 4186.666504, 4171.281738, 4181.025391, 4152.820313, 4165.127930, 3545.128174, 0.000000, 8065.000000, 7911.000000, 0.000000, 0.000000, 0.000000, -21249.000000, 873.333313, 4.000000, 4.000000, 4.000000, 4.000000, 4.000000, 4.000000, 4.000000, 4.000000, 1.000000, 4.000000, 4.000000, 4.000000, 4.000000, 4.000000, 4.000000, 4.000000
48.000000, 0.000000, 4564.615234, 4443.589844, 4171.281738, 4203.076660, 4279.487305, 4137.436035, 4178.461426, 4182.563965, 4186.153809, 4173.846191, 4191.281738, 4152.307617, 4155.897461, 3590.769043, 0.000000, 8065.000000, 7911.000000, 0.000000, 0.000000, 0.000000, -21249.000000, 881.538452, 4.000000, 4.000000, 4.000000, 4.000000, 4.000000, 4.000000, 4.000000, 4.000000, 1.000000, 4.000000, 4.000000, 4.000000, 4.000000, 4.000000, 4.000000, 4.000000
49.000000, 0.000000, 4529.230469, 4446.153809, 4170.256348, 4190.769043, 4282.563965, 4135.897461, 4184.102539, 4185.127930, 4186.153809, 4171.281738, 4184.102539, 4151.281738, 4135.384277, 3637.948730, 0.000000, 8019.000000, 7919.000000, 0.000000, 0.000000, 0.000000, -21249.000000, 889.230774, 4.000000, 4.000000, 4.000000, 4.000000, 4.000000, 4.000000, 4.000000, 4.000000, 1.000000, 4.000000, 4.000000, 4.000000, 4.000000, 4.000000, 4.000000, 4.000000
50.000000, 0.000000, 4485.127930, 4432.307617, 4169.743652, 4183.076660, 4250.769043, 4127.692383, 4186.153809, 4183.589844, 4186.153809, 4169.743652, 4171.281738, 4152.307617, 4113.846191, 3668.717773, 0.000000, 8019.000000, 7919.000000, 0.000000, 0.000000, 0.000000, -21249.000000, 896.923035, 4.000000, 4.000000, 4.000000, 4.000000, 4.000000, 4.000000, 4.000000, 4.000000, 1.000000, 4.000000, 4.000000, 4.000000, 4.000000, 4.000000, 4.000000, 4.000000
51.000000, 0.000000, 4456.922852, 4428.717773, 4161.025391, 4187.692383, 4250.769043, 4125.641113, 4184.615234, 4188.205078, 4186.153809, 4168.205078, 4169.743652, 4154.358887, 4097.436035, 3699.487061, 0.000000, 7946.000000, 7947.000000, 0.000000, 0.000000, 0.000000, -21249.000000, 905.128174, 4.000000, 4.000000, 4.000000, 4.000000, 4.000000, 4.000000, 4.000000, 4.000000, 1.000000, 4.000000, 4.000000, 4.000000, 4.000000, 4.000000, 4.000000, 4.000000
52.000000, 0.000000, 4422.563965, 4433.846191, 4153.333008, 4184.102539, 4270.769043, 4132.307617, 4183.589844, 4188.717773, 4186.153809, 4168.205078, 4170.256348, 4148.205078, 4091.794678, 3732.307617, 0.000000, 7946.000000, 7947.000000, 0.000000, 0.000000, 0.000000, -21249.000000, 912.820496, 4.000000, 4.000000, 4.000000, 4.000000, 4.000000, 4.000000, 4.000000, 4.000000, 1.000000, 4.000000, 4.000000, 4.000000, 4.000000, 4.000000, 4.000000, 4.000000
53.000000, 0.000000, 4386.153809, 4427.692383, 4153.333008, 4168.717773, 4265.127930, 4136.410156, 4181.025391, 4188.205078, 4186.153809, 4169.230469, 4163.589844, 4139.487305, 4086.153809, 3752.307617, 0.000000, 7913.000000, 7948.000000, 0.000000, 0.000000, 0.000000, -21249.000000, 921.025635, 4.000000, 4.000000, 4.000000, 4.000000, 4.000000, 4.000000, 4.000000, 4.000000, 1.000000, 4.000000, 4.000000, 4.000000, 4.000000, 4.000000, 4.000000, 4.000000
54.000000, 0.000000, 4353.333008, 4413.333008, 4157.436035, 4168.717773, 4256.922852, 4136.410156, 4182.051270, 4189.743652, 4186.153809, 4165.641113, 4154.358887, 4139.487305, 4075.897217, 3767.692139, 0.000000, 7913.000000, 7948.000000, 0.000000, 0.000000, 0.000000, -21249.000000, 929.230774, 4.000000, 4.000000, 4.000000, 4.000000, 4.000000, 4.000000, 4.000000, 4.000000, 1.000000, 4.000000, 4.000000, 4.000000, 4.000000, 4.000000, 4.000000, 4.000000
55.000000, 0.000000, 4322.051270, 4411.281738, 4163.589844, 4183.589844, 4263.589844, 4137.436035, 4186.666504, 4188.205078, 4186.153809, 4166.666504, 4155.897461, 4143.076660, 4084.615234, 3792.307617, 0.000000, 7888.000000, 7942.000000, 0.000000, 0.000000, 0.000000, -21249.000000, 936.923035, 4.000000, 4.000000, 4.000000, 4.000000, 4.000000, 4.000000, 4.000000, 4.000000, 1.000000, 4.000000, 4.000000, 4.000000, 4.000000, 4.000000, 4.000000, 4.000000
56.000000, 0.000000, 4292.820313, 4413.846191, 4170.256348, 4184.102539, 4261.538574, 4140.512695, 4183.076660, 4183.589844, 4186.153809, 4173.846191, 4155.897461, 4140.000000, 4093.845947, 3808.205078, 0.000000, 7888.000000, 7942.000000, 0.000000, 0.000000, 0.000000, -21249.000000, 945.128174, 4.000000, 4.000000, 4.000000, 4.000000, 4.000000, 4.000000, 4.000000, 4.000000, 1.000000, 4.000000, 4.000000, 4.000000, 4.000000, 4.000000, 4.000000, 4.000000
57.000000, 0.000000, 4252.820313, 4394.871582, 4170.769043, 4167.179199, 4250.769043, 4148.205078, 4184.615234, 4185.641113, 4186.153809, 4165.641113, 4137.948730, 4137.948730, 4069.743408, 3811.281982, 0.000000, 7852.000000, 7962.000000, 0.000000, 0.000000, 0.000000, -21249.000000, 952.820496, 4.000000, 4.000000, 4.000000, 4.000000, 4.000000, 4.000000, 4.000000, 4.000000, 1.000000, 4.000000, 4.000000, 4.000000, 4.000000, 4.000000, 4.000000, 4.000000
58.000000, 0.000000, 4216.922852, 4373.333008, 4166.666504, 4160.512695, 4261.538574, 4155.897461, 4194.871582, 4189.230469, 4186.153809, 4151.281738, 4135.897461, 4146.153809, 4065.640869, 3840.000000, 0.000000, 7852.000000, 7962.000000, 0.000000, 0.000000, 0.000000, -21249.000000, 961.025635, 4.000000, 4.000000, 4.000000, 4.000000, 4.000000, 4.000000, 4.000000, 4.000000, 1.000000, 4.000000, 4.000000, 4.000000, 4.000000, 4.000000, 4.000000, 4.000000
59.000000, 0.000000, 4200.512695, 4378.974121, 4168.205078, 4170.769043, 4276.922852, 4158.461426, 4195.384277, 4181.538574, 4186.153809, 4157.948730, 4154.871582, 4155.384277, 4101.538574, 3887.692139, 0.000000, 7846.000000, 7990.000000, 0.000000, 0.000000, 0.000000, -21249.000000, 968.717896, 4.000000, 4.000000, 4.000000, 4.000000, 4.000000, 4.000000, 4.000000, 4.000000, 1.000000, 4.000000, 4.000000, 4.000000, 4.000000, 4.000000, 4.000000, 4.000000
60.000000, 0.000000, 4182.563965, 4385.641113, 4169.743652, 4177.436035, 4272.307617, 4153.333008, 4184.615234, 4174.871582, 4186.153809, 4166.666504, 4159.487305, 4153.333008, 4117.436035, 3912.307617, 0.000000, 7846.000000, 7990.000000, 0.000000, 0.000000, 0.000000, -21249.000000, 976.923035, 4.000000, 4.000000, 4.000000, 4.000000, 4.000000, 4.000000, 4.000000, 4.000000, 1.000000, 4.000000, 4.000000, 4.000000, 4.000000, 4.000000, 4.000000, 4.000000
61.000000, 0.000000, 4157.436035, 4372.307617, 4168.717773, 4170.256348, 4264.102539, 4151.794922, 4181.025391, 4182.051270, 4186.153809, 4165.641113, 4158.461426, 4151.281738, 4116.410156, 3930.256348, 0.000000, 7847.000000, 8032.000000, 0.000000, 0.000000, 0.000000, -21249.000000, 984.615356, 4.000000, 4.000000, 4.000000, 4.000000, 4.000000, 4.000000, 4.000000, 4.000000, 1.000000, 4.000000, 4.000000, 4.000000, 4.000000, 4.000000, 4.000000, 4.000000
62.000000, 0.000000, 4135.897461, 4356.922852, 4176.410156, 4169.743652, 4262.563965, 4155.384277, 4186.666504, 4189.230469, 4186.153809, 4167.692383, 4166.666504, 4162.563965, 4136.410156, 3963.076904, 0.000000, 7847.000000, 8032.000000, 0.000000, 0.000000, 0.000000, -21249.000000, 992.820496, 4.000000, 4.000000, 4.000000, 4.000000, 4.000000, 4.000000, 4.000000, 4.000000, 1.000000, 4.000000, 4.000000, 4.000000, 4.000000, 4.000000, 4.000000, 4.000000
63.000000, 0.000000, 4114.871582, 4350.256348, 4187.179199, 4182.563965, 4263.589844, 4155.384277, 4184.615234, 4186.666504, 4186.153809, 4169.743652, 4171.281738, 4176.410156, 4158.461426, 3992.820313, 0.000000, 7856.000000, 8045.000000, 0.000000, 0.000000, 0.000000, -21248.000000, 0.512820, 4.000000, 4.000000, 4.000000, 4.000000, 4.000000, 4.000000, 4.000000, 4.000000, 1.000000, 4.000000, 4.000000, 4.000000, 4.000000, 4.000000, 4.000000, 4.000000
64.000000, 0.000000, 4097.436035, 4342.051270, 4186.666504, 4183.589844, 4268.717773, 4158.461426, 4181.538574, 4184.102539, 4186.153809, 4170.769043, 4176.410156, 4183.076660, 4166.666504, 4011.794678, 3082.000000, 7856.000000, 8045.000000, 0.000000, 0.000000, 0.000000, -21248.000000, 8.717949, 4.000000, 4.000000, 4.000000, 4.000000, 4.000000, 4.000000, 4.000000, 4.000000, 1.000000, 4.000000, 4.000000, 4.000000, 4.000000, 4.000000, 4.000000, 4.000000
65.000000, 0.000000, 4085.128174, 4331.281738, 4183.589844, 4171.794922, 4268.205078, 4166.666504, 4189.743652, 4187.179199, 4186.153809, 4178.974121, 4185.127930, 4186.153809, 4178.974121, 4026.666504, 3509.000000, 7872.000000, 8052.000000, 0.000000, 0.000000, 0.000000, -21248.000000, 16.923077, 4.000000, 4.000000, 4.000000, 4.000000, 4.000000, 4.000000, 4.000000, 4.000000, 1.000000, 4.000000, 4.000000, 4.000000, 4.000000, 4.000000, 4.000000, 4.000000
66.000000, 0.000000, 4074.871582, 4323.076660, 4182.563965, 4163.076660, 4262.563965, 4170.769043, 4197.436035, 4186.666504, 4186.153809, 4190.256348, 4187.179199, 4188.717773, 4201.025391, 4038.461426, 3583.000000, 7872.000000, 8052.000000, 0.000000, 0.000000, 0.000000, -21248.000000, 24.615383, 4.000000, 4.000000, 4.000000, 4.000000, 4.000000, 4.000000, 4.000000, 4.000000, 1.000000, 4.000000, 4.000000, 4.000000, 4.000000, 4.000000, 4.000000, 4.000000
67.000000, 0.000000, 4061.025635, 4315.897461, 4180.512695, 4157.948730, 4255.897461, 4168.717773, 4196.410156, 4187.179199, 4186.153809, 4190.769043, 4194.358887, 4191.794922, 4222.051270, 4046.153809, 2438.000000, 7916.000000, 8062.000000, 0.000000, 0.000000, 0.000000, -21248.000000, 32.820511, 4.000000, 4.000000, 4.000000, 4.000000, 4.000000, 4.000000, 4.000000, 4.000000, 1.000000, 4.000000, 4.000000, 4.000000, 4.000000, 4.000000, 4.000000, 4.000000
68.000000, 0.000000, 4035.384521, 4301.025391, 4180.512695, 4154.871582, 4247.692383, 4166.153809, 4195.384277, 4194.358887, 4186.153809, 4188.205078, 4201.538574, 4191.794922, 4225.641113, 4051.794678, 3538.000000, 7916.000000, 8062.000000, 0.000000, 0.000000, 0.000000, -21248.000000, 40.512821, 4.000000, 4.000000, 4.000000, 4.000000, 4.000000, 4.000000, 4.000000, 4.000000, 1.000000, 4.000000, 4.000000, 4.000000, 4.000000, 4.000000, 4.000000, 4.000000
69.000000, 0.000000, 4008.205078, 4284.102539, 4181.538574, 4155.897461, 4241.025391, 4167.692383, 4202.563965, 4202.563965, 4186.153809, 4191.794922, 4192.820313, 4190.769043, 4219.487305, 4053.333252, 3563.000000, 7945.000000, 8059.000000, 0.000000, 0.000000, 0.000000, -21248.000000, 48.717949, 4.000000, 4.000000, 4.000000, 4.000000, 4.000000, 4.000000, 4.000000, 4.000000, 1.000000, 4.000000, 4.000000, 4.000000, 4.000000, 4.000000, 4.000000, 4.000000
70.000000, 0.000000, 3987.179443, 4281.025391, 4184.102539, 4152.307617, 4243.589844, 4168.205078, 4207.692383, 4203.589844, 4186.153809, 4200.000000, 4184.615234, 4188.717773, 4216.410156, 4051.794678, 3403.000000, 7945.000000, 8059.000000, 0.000000, 0.000000, 0.000000, -21248.000000, 56.410255, 4.000000, 4.000000, 4.000000, 4.000000, 4.000000, 4.000000, 4.000000, 4.000000, 1.000000, 4.000000, 4.000000, 4.000000, 4.000000, 4.000000, 4.000000, 4.000000
71.000000, 0.000000, 3980.512695, 4289.743652, 4183.076660, 4147.179199, 4250.256348, 4163.589844, 4201.538574, 4197.436035, 4186.153809, 4201.538574, 4185.127930, 4186.666504, 4220.512695, 4059.487061, 3519.000000, 7987.000000, 8045.000000, 0.000000, 0.000000, 0.000000, -21248.000000, 64.615379, 4.000000, 4.000000, 4.000000, 4.000000, 4.000000, 4.000000, 4.000000, 4.000000, 1.000000, 4.000000, 4.000000, 4.000000, 4.000000, 4.000000, 4.000000, 4.000000
72.000000, 0.000000, 3972.820313, 4281.538574, 4177.436035, 4150.256348, 4243.076660, 4154.358887, 4187.179199, 4193.846191, 4186.153809, 4193.333008, 4184.615234, 4187.179199, 4225.641113, 4070.769043, 86.000000, 7987.000000, 8045.000000, 0.000000, 0.000000, 0.000000, -21248.000000, 72.820511, 4.000000, 4.000000, 4.000000, 4.000000, 4.000000, 4.000000, 4.000000, 4.000000, 1.000000, 4.000000, 4.000000, 4.000000, 4.000000, 4.000000, 4.000000, 4.000000
73.000000, 0.000000, 3946.153809, 4258.461426, 4178.974121, 4147.692383, 4228.717773, 4151.281738, 4181.025391, 4198.974121, 4186.153809, 4192.820313, 4182.051270, 4186.153809, 4223.589844, 4069.743408, 2196.000000, 8006.000000, 8031.000000, 0.000000, 0.000000, 0.000000, -21248.000000, 80.512817, 4.000000, 4.000000, 4.000000, 4.000000, 4.000000, 4.000000, 4.000000, 4.000000, 1.000000, 4.000000, 4.000000, 4.000000, 4.000000, 4.000000, 4.000000, 4.000000
74.000000, 0.000000, 3921.025635, 4257.436035, 4177.948730, 4139.487305, 4234.358887, 4163.589844, 4192.307617, 4203.076660, 4186.153809, 4201.025391, 4176.922852, 4184.615234, 4222.563965, 4058.461426, 3600.000000, 8006.000000, 8031.000000, 0.000000, 0.000000, 0.000000, -21248.000000, 88.717949, 4.000000, 4.000000, 4.000000, 4.000000, 4.000000, 4.000000, 4.000000, 4.000000, 1.000000, 4.000000, 4.000000, 4.000000, 4.000000, 4.000000, 4.000000, 4.000000
75.000000, 0.000000, 3913.845947, 4271.281738, 4172.307617, 4138.974121, 4247.692383, 4169.743652, 4194.871582, 4191.794922, 4186.153809, 4197.436035, 4173.846191, 4186.153809, 4225.127930, 4056.410156, 3606.000000, 8019.000000, 8019.000000, 0.000000, 0.000000, 0.000000, -21248.000000, 96.410255, 4.000000, 4.000000, 4.000000, 4.000000, 4.000000, 4.000000, 4.000000, 4.000000, 1.000000, 4.000000, 4.000000, 4.000000, 4.000000, 4.000000, 4.000000, 4.000000
76.000000, 0.000000, 3894.358887, 4262.563965, 4170.769043, 4141.025391, 4238.461426, 4157.436035, 4182.051270, 4177.436035, 4186.153809, 4187.692383, 4169.743652, 4183.076660, 4220.512695, 4054.358887, 3525.000000, 8019.000000, 8019.000000, 0.000000, 0.000000, 0.000000, -21248.000000, 104.615379, 4.000000, 4.000000, 4.000000, 4.000000, 4.000000, 4.000000, 4.000000, 4.000000, 1.000000, 4.000000, 4.000000, 4.000000, 4.000000, 4.000000, 4.000000, 4.000000
77.000000, 0.000000, 3865.640869, 4245.127930, 4172.307617, 4135.384277, 4225.641113, 4147.692383, 4182.563965, 4178.461426, 4186.153809, 4182.051270, 4157.436035, 4174.871582, 4209.230469, 4043.076904, 3457.000000, 8019.000000, 8017.000000, 0.000000, 0.000000, 0.000000, -21248.000000, 112.307686, 4.000000, 4.000000, 4.000000, 4.000000, 4.000000, 4.000000, 4.000000, 4.000000, 1.000000, 4.000000, 4.000000, 4.000000, 4.000000, 4.000000, 4.000000, 4.000000
78.000000, 0.000000, 3863.076904, 4245.127930, 4172.820313, 4133.333008, 4228.717773, 4154.358887, 4197.436035, 4186.153809, 4186.153809, 4182.563965, 4156.410156, 4174.358887, 4210.769043, 4044.615234, 3600.000000, 8019.000000, 8017.000000, 0.000000, 0.000000, 0.000000, -21248.000000, 120.000000, 4.000000, 4.000000, 4.000000, 4.000000, 4.000000, 4.000000, 4.000000, 4.000000, 1.000000, 4.000000, 4.000000, 4.000000, 4.000000, 4.000000, 4.000000, 4.000000
79.000000, 0.000000, 3854.358887, 4246.666504, 4180.000000, 4140.512695, 4228.205078, 4163.076660, 4202.051270, 4189.743652, 4186.153809, 4191.794922, 4168.205078, 4185.641113, 4217.948730, 4058.974365, 3606.000000, 8019.000000, 8020.000000, 0.000000, 0.000000, 0.000000, -21248.000000, 128.205124, 4.000000, 4.000000, 4.000000, 4.000000, 4.000000, 4.000000, 4.000000, 4.000000, 1.000000, 4.000000, 4.000000, 4.000000, 4.000000, 4.000000, 4.000000, 4.000000
80.000000, 0.000000, 3830.769043, 4245.641113, 4190.256348, 4142.051270, 4228.717773, 4166.153809, 4200.000000, 4192.820313, 4186.153809, 4204.102539, 4172.307617, 4196.922852, 4217.948730, 4063.589600, 3525.000000, 8019.000000, 8020.000000, 0.000000, 0.000000, 0.000000, -21248.000000, 135.897430, 4.000000, 4.000000, 4.000000, 4.000000, 4.000000, 4.000000, 4.000000, 4.000000, 1.000000, 4.000000, 4.000000, 4.000000, 4.000000, 4.000000, 4.000000, 4.000000
81.000000, 0.000000, 3829.230713, 4250.256348, 4190.769043, 4140.000000, 4238.974121, 4169.743652, 4203.076660, 4201.025391, 4186.153809, 4202.563965, 4176.410156, 4204.102539, 4218.461426, 4065.128174, 3457.000000, 8001.000000, 8038.000000, 0.000000, 0.000000, 0.000000, -21248.000000, 144.102554, 4.000000, 4.000000, 4.000000, 4.000000, 4.000000, 4.000000, 4.000000, 4.000000, 1.000000, 4.000000, 4.000000, 4.000000, 4.000000, 4.000000, 4.000000, 4.000000
82.000000, 0.000000, 3820.512695, 4240.000000, 4192.307617, 4148.717773, 4232.307617, 4168.717773, 4202.563965, 4211.281738, 4186.153809, 4196.410156, 4184.102539, 4205.641113, 4216.922852, 4076.923096, 3600.000000, 8001.000000, 8038.000000, 0.000000, 0.000000, 0.000000, -21248.000000, 152.307693, 4.000000, 4.000000, 4.000000, 4.000000, 4.000000, 4.000000, 4.000000, 4.000000, 1.000000, 4.000000, 4.000000, 4.000000, 4.000000, 4.000000, 4.000000, 4.000000
83.000000, 0.000000, 3805.128174, 4235.897461, 4196.410156, 4158.461426, 4227.179199, 4168.205078, 4204.615234, 4215.384277, 4186.153809, 4202.563965, 4187.179199, 4204.102539, 4220.000000, 4089.230713, 3606.000000, 7993.000000, 8048.000000, 0.000000, 0.000000, 0.000000, -21248.000000, 160.000000, 4.000000, 4.000000, 4.000000, 4.000000, 4.000000, 4.000000, 4.000000, 4.000000, 1.000000, 4.000000, 4.000000, 4.000000, 4.000000, 4.000000, 4.000000, 4.000000
84.000000, 0.000000, 3811.794678, 4255.384277, 4194.871582, 4155.897461, 4245.641113, 4172.820313, 4210.256348, 4217.436035, 4186.153809, 4204.615234, 4185.641113, 4209.743652, 4226.153809, 4097.948730, 3525.000000, 7993.000000, 8048.000000, 0.000000, 0.000000, 0.000000, -21248.000000, 168.205124, 4.000000, 4.000000, 4.000000, 4.000000, 4.000000, 4.000000, 4.000000, 4.000000, 1.000000, 4.000000, 4.000000, 4.000000, 4.000000, 4.000000, 4.000000, 4.000000
85.000000, 0.000000, 3803.589600, 4252.820313, 4193.846191, 4147.179199, 4255.897461, 4175.384277, 4212.820313, 4218.974121, 4186.153809, 4198.461426, 4182.563965, 4216.922852, 4218.461426, 4090.769043, 3457.000000, 7981.000000, 8085.000000, 0.000000, 0.000000, 0.000000, -21248.000000, 175.897430, 4.000000, 4.000000, 4.000000, 4.000000, 4.000000, 4.000000, 4.000000, 4.000000, 1.000000, 4.000000, 4.000000, 4.000000, 4.000000, 4.000000, 4.000000, 4.000000
86.000000, 0.000000, 3770.769043, 4229.230469, 4191.794922, 4146.153809, 4244.615234, 4172.307617, 4212.307617, 4213.333008, 4186.153809, 4198.461426, 4181.538574, 4215.897461, 4209.230469, 4078.974365, 3600.000000, 7981.000000, 8085.000000, 0.000000, 0.000000, 0.000000, -21248.000000, 184.102554, 4.000000, 4.000000, 4.000000, 4.000000, 4.000000, 4.000000, 4.000000, 4.000000, 1.000000, 4.000000, 4.000000, 4.000000, 4.000000, 4.000000, 4.000000, 4.000000
87.000000, 0.000000, 3757.435791, 4231.281738, 4187.179199, 4154.358887, 4240.512695, 4169.230469, 4211.794922, 4205.641113, 4186.153809, 4201.538574, 4187.179199, 4208.205078, 4225.641113, 4086.666504, 3606.000000, 7973.000000, 8090.000000, 0.000000, 0.000000, 0.000000, -21248.000000, 191.794861, 4.000000, 4.000000, 4.000000, 4.000000, 4.000000, 4.000000, 4.000000, 4.000000, 1.000000, 4.000000, 4.000000, 4.000000, 4.000000, 4.000000, 4.000000, 4.000000
88.000000, 0.000000, 3756.923096, 4241.025391, 4184.102539, 4155.897461, 4241.025391, 4171.281738, 4205.127930, 4196.410156, 4186.666504, 4199.487305, 4187.692383, 4208.205078, 4238.974121, 4090.256348, 3525.000000, 7973.000000, 8090.000000, 0.000000, 0.000000, 0.000000, -21248.000000, 200.000000, 4.000000, 4.000000, 4.000000, 4.000000, 4.000000, 4.000000, 4.000000, 4.000000, 1.000000, 4.000000, 4.000000, 4.000000, 4.000000, 4.000000, 4.000000, 4.000000
89.000000, 0.000000, 3743.076904, 4226.153809, 4186.153809, 4143.589844, 4232.307617, 4169.743652, 4197.436035, 4190.256348, 4186.153809, 4196.922852, 4180.512695, 4212.820313, 4229.230469, 4084.615234, 3457.000000, 7966.000000, 8097.000000, 0.000000, 0.000000, 0.000000, -21248.000000, 207.692307, 4.000000, 4.000000, 4.000000, 4.000000, 4.000000, 4.000000, 4.000000, 4.000000, 1.000000, 4.000000, 4.000000, 4.000000, 4.000000, 4.000000, 4.000000, 4.000000
90.000000, 0.000000, 3734.358887, 4216.922852, 4187.692383, 4138.461426, 4232.307617, 4166.666504, 4197.948730, 4193.333008, 4186.153809, 4197.948730, 4184.102539, 4208.717773, 4229.230469, 4093.845947, 3600.000000, 7966.000000, 8097.000000, 0.000000, 0.000000, 0.000000, -21248.000000, 215.897430, 4.000000, 4.000000, 4.000000, 4.000000, 4.000000, 4.000000, 4.000000, 4.000000, 1.000000, 4.000000, 4.000000, 4.000000, 4.000000, 4.000000, 4.000000, 4.000000
91.000000, 0.000000, 3722.051270, 4214.358887, 4186.153809, 4143.589844, 4230.256348, 4170.256348, 4201.538574, 4207.179199, 4187.179199, 4202.051270, 4190.256348, 4203.076660, 4241.025391, 4095.384521, 3606.000000, 7949.000000, 8121.000000, 0.000000, 0.000000, 0.000000, -21248.000000, 223.589737, 4.000000, 4.000000, 4.000000, 4.000000, 4.000000, 4.000000, 4.000000, 4.000000, 1.000000, 4.000000, 4.000000, 4.000000, 4.000000, 4.000000, 4.000000, 4.000000
92.000000, 0.000000, 3690.769043, 4200.000000, 4183.076660, 4136.410156, 4211.794922, 4175.384277, 4207.179199, 4219.487305, 4186.666504, 4205.127930, 4182.051270, 4203.589844, 4237.948730, 4077.948730, 3525.000000, 7949.000000, 8121.000000, 0.000000, 0.000000, 0.000000, -21248.000000, 231.794861, 4.000000, 4.000000, 4.000000, 4.000000, 4.000000, 4.000000, 4.000000, 4.000000, 1.000000, 4.000000, 4.000000, 4.000000, 4.000000, 4.000000, 4.000000, 4.000000
93.000000, 0.000000, 3674.358887, 4195.897461, 4170.769043, 4128.205078, 4209.743652, 4172.307617, 4206.153809, 4217.436035, 4185.641113, 4201.538574, 4175.897461, 4202.051270, 4229.230469, 4072.820313, 3457.000000, 7944.000000, 8130.000000, 0.000000, 0.000000, 0.000000, -21248.000000, 239.487167, 4.000000, 4.000000, 4.000000, 4.000000, 4.000000, 4.000000, 4.000000, 4.000000, 1.000000, 4.000000, 4.000000, 4.000000, 4.000000, 4.000000, 4.000000, 4.000000
94.000000, 0.000000, 3677.435791, 4203.076660, 4165.127930, 4134.358887, 4229.743652, 4169.743652, 4200.000000, 4208.717773, 4187.179199, 4201.538574, 4184.615234, 4198.974121, 4233.846191, 4074.871582, 3600.000000, 7944.000000, 8130.000000, 0.000000, 0.000000, 0.000000, -21248.000000, 247.692307, 4.000000, 4.000000, 4.000000, 4.000000, 4.000000, 4.000000, 4.000000, 4.000000, 1.000000, 4.000000, 4.000000, 4.000000, 4.000000, 4.000000, 4.000000, 4.000000
95.000000, 0.000000, 3670.256348, 4205.127930, 4173.846191, 4142.563965, 4237.948730, 4173.846191, 4206.153809, 4208.205078, 4187.692383, 4204.615234, 4187.179199, 4196.922852, 4234.871582, 4074.358887, 3606.000000, 7931.000000, 8145.000000, 0.000000, 0.000000, 0.000000, -21248.000000, 255.384613, 4.000000, 4.000000, 4.000000, 4.000000, 4.000000, 4.000000, 4.000000, 4.000000, 1.000000, 4.000000, 4.000000, 4.000000, 4.000000, 4.000000, 4.000000, 4.000000
96.000000, 0.000000, 3649.743408, 4195.384277, 4171.281738, 4137.948730, 4225.641113, 4173.846191, 4219.487305, 4209.743652, 4186.153809, 4196.922852, 4172.307617, 4188.717773, 4220.512695, 4073.333252, 3525.000000, 7931.000000, 8145.000000, 0.000000, 0.000000, 0.000000, -21248.000000, 263.589752, 4.000000, 4.000000, 4.000000, 4.000000, 4.000000, 4.000000, 4.000000, 4.000000, 1.000000, 4.000000, 4.000000, 4.000000, 4.000000, 4.000000, 4.000000, 4.000000
97.000000, 0.000000, 3644.102539, 4189.743652, 4167.179199, 4135.897461, 4224.102539, 4170.769043, 4215.897461, 4203.076660, 4185.641113, 4192.307617, 4170.256348, 4188.717773, 4216.922852, 4068.205078, 3457.000000, 7919.000000, 8147.000000, 0.000000, 0.000000, 0.000000, -21248.000000, 271.282043, 4.000000, 4.000000, 4.000000, 4.000000, 4.000000, 4.000000, 4.000000, 4.000000, 1.000000, 4.000000, 4.000000, 4.000000, 4.000000, 4.000000, 4.000000, 4.000000
98.000000, 0.000000, 3648.205078, 4193.333008, 4178.461426, 4143.076660, 4232.820313, 4171.281738, 4199.487305, 4199.487305, 4185.127930, 4198.974121, 4183.589844, 4198.974121, 4233.846191, 4071.794678, 3600.000000, 7919.000000, 8147.000000, 0.000000, 0.000000, 0.000000, -21248.000000, 278.974365, 4.000000, 4.000000, 4.000000, 4.000000, 4.000000, 4.000000, 4.000000, 4.000000, 1.000000, 4.000000, 4.000000, 4.000000, 4.000000, 4.000000, 4.000000, 4.000000
99.000000, 0.000000, 3633.845947, 4190.769043, 4183.076660, 4142.563965, 4225.127930, 4168.717773, 4195.897461, 4203.076660, 4184.615234, 4198.974121, 4181.025391, 4200.512695, 4233.333008, 4080.000000, 3606.000000, 7906.000000, 8143.000000, 0.000000, 0.000000, 0.000000, -21248.000000, 287.179474, 4.000000, 4.000000, 4.000000, 4.000000, 4.000000, 4.000000, 4.000000, 4.000000, 1.000000, 4.000000, 4.000000, 4.000000, 4.000000, 4.000000, 4.000000, 4.000000
100.000000, 0.000000, 3612.820313, 4178.974121, 4185.641113, 4140.512695, 4209.743652, 4171.281738, 4203.076660, 4204.615234, 4186.153809, 4195.384277, 4170.769043, 4197.948730, 4217.436035, 4075.897217, 3525.000000, 7906.000000, 8143.000000, 0.000000, 0.000000, 0.000000, -21248.000000, 295.384613, 4.000000, 4.000000, 4.000000, 4.000000, 4.000000, 4.000000, 4.000000, 4.000000, 1.000000, 4.000000, 4.000000, 4.000000, 4.000000, 4.000000, 4.000000, 4.000000
101.000000, 0.000000, 3611.281982, 4175.384277, 4193.333008, 4148.717773, 4217.436035, 4183.589844, 4209.230469, 4204.102539, 4187.692383, 4199.487305, 4174.358887, 4197.436035, 4219.487305, 4074.358887, 3457.000000, 7894.000000, 8132.000000, 0.000000, 0.000000, 0.000000, -21248.000000, 303.076904, 4.000000, 4.000000, 4.000000, 4.000000, 4.000000, 4.000000, 4.000000, 4.000000, 1.000000, 4.000000, 4.000000, 4.000000, 4.000000, 4.000000, 4.000000, 4.000000
102.000000, 0.000000, 3629.230713, 4188.205078, 4192.307617, 4158.461426, 4236.410156, 4188.717773, 4212.307617, 4198.461426, 4186.666504, 4203.589844, 4185.641113, 4202.051270, 4235.897461, 4087.179443, 3600.000000, 7894.000000, 8132.000000, 0.000000, 0.000000, 0.000000, -21248.000000, 311.282043, 4.000000, 4.000000, 4.000000, 4.000000, 4.000000, 4.000000, 4.000000, 4.000000, 1.000000, 4.000000, 4.000000, 4.000000, 4.000000, 4.000000, 4.000000, 4.000000
103.000000, 0.000000, 3634.871826, 4193.333008, 4193.846191, 4154.871582, 4232.820313, 4184.615234, 4216.922852, 4209.743652, 4187.692383, 4202.563965, 4189.743652, 4212.307617, 4244.615234, 4098.461426, 3606.000000, 7881.000000, 8124.000000, 0.000000, 0.000000, 0.000000, -21248.000000, 318.974365, 4.000000, 4.000000, 4.000000, 4.000000, 4.000000, 4.000000, 4.000000, 4.000000, 1.000000, 4.000000, 4.000000, 4.000000, 4.000000, 4.000000, 4.000000, 4.000000
104.000000, 0.000000, 3611.281982, 4177.436035, 4196.410156, 4142.051270, 4213.846191, 4184.102539, 4221.025391, 4232.820313, 4189.230469, 4203.589844, 4186.666504, 4213.333008, 4238.974121, 4095.384521, 3525.000000, 7881.000000, 8124.000000, 0.000000, 0.000000, 0.000000, -21248.000000, 327.179474, 4.000000, 4.000000, 4.000000, 4.000000, 4.000000, 4.000000, 4.000000, 4.000000, 1.000000, 4.000000, 4.000000, 4.000000, 4.000000, 4.000000, 4.000000, 4.000000
105.000000, 0.000000, 3592.820313, 4166.153809, 4188.717773, 4136.410156, 4211.794922, 4184.615234, 4215.897461, 4227.692383, 4188.205078, 4205.127930, 4182.563965, 4203.589844, 4231.281738, 4088.205078, 3457.000000, 7879.000000, 8093.000000, 0.000000, 0.000000, 0.000000, -21248.000000, 334.871796, 4.000000, 4.000000, 4.000000, 4.000000, 4.000000, 4.000000, 4.000000, 4.000000, 1.000000, 4.000000, 4.000000, 4.000000, 4.000000, 4.000000, 4.000000, 4.000000
106.000000, 0.000000, 3598.974365, 4170.256348, 4190.769043, 4138.461426, 4225.127930, 4187.179199, 4213.846191, 4216.410156, 4186.666504, 4205.127930, 4186.666504, 4201.538574, 4233.846191, 4095.897217, 3600.000000, 7879.000000, 8093.000000, 0.000000, 0.000000, 0.000000, -21248.000000, 343.076904, 4.000000, 4.000000, 4.000000, 4.000000, 4.000000, 4.000000, 4.000000, 4.000000, 1.000000, 4.000000, 4.000000, 4.000000, 4.000000, 4.000000, 4.000000, 4.000000
107.000000, 0.000000, 3596.410156, 4167.692383, 4200.512695, 4140.512695, 4221.025391, 4191.281738, 4216.922852, 4228.717773, 4186.153809, 4202.051270, 4190.769043, 4207.179199, 4239.487305, 4108.205078, 3606.000000, 7896.000000, 8070.000000, 0.000000, 0.000000, 0.000000, -21248.000000, 351.282043, 4.000000, 4.000000, 4.000000, 4.000000, 4.000000, 4.000000, 4.000000, 4.000000, 1.000000, 4.000000, 4.000000, 4.000000, 4.000000, 4.000000, 4.000000, 4.000000
108.000000, 0.000000, 3577.948730, 4155.897461, 4192.820313, 4138.974121, 4214.358887, 4187.179199, 4209.743652, 4232.307617, 4186.666504, 4199.487305, 4175.897461, 4201.025391, 4230.256348, 4101.025391, 3525.000000, 7896.000000, 8070.000000, 0.000000, 0.000000, 0.000000, -21248.000000, 358.974365, 4.000000, 4.000000, 4.000000, 4.000000, 4.000000, 4.000000, 4.000000, 4.000000, 1.000000, 4.000000, 4.000000, 4.000000, 4.000000, 4.000000, 4.000000, 4.000000
109.000000, 0.000000, 3569.230713, 4153.846191, 4180.000000, 4134.358887, 4224.102539, 4177.948730, 4201.025391, 4214.358887, 4187.692383, 4199.487305, 4165.641113, 4189.230469, 4220.000000, 4088.717773, 3457.000000, 7972.000000, 7994.000000, 0.000000, 0.000000, 0.000000, -21248.000000, 366.666656, 4.000000, 4.000000, 4.000000, 4.000000, 4.000000, 4.000000, 4.000000, 4.000000, 1.000000, 4.000000, 4.000000, 4.000000, 4.000000, 4.000000, 4.000000, 4.000000
110.000000, 0.000000, 3569.743408, 4156.922852, 4183.589844, 4137.948730, 4223.076660, 4174.358887, 4199.487305, 4202.051270, 4187.179199, 4200.000000, 4175.384277, 4187.692383, 4232.307617, 4090.256348, 3600.000000, 7972.000000, 7994.000000, 0.000000, 0.000000, 0.000000, -21248.000000, 374.871796, 4.000000, 4.000000, 4.000000, 4.000000, 4.000000, 4.000000, 4.000000, 4.000000, 1.000000, 4.000000, 4.000000, 4.000000, 4.000000, 4.000000, 4.000000, 4.000000
111.000000, 0.000000, 3569.230713, 4156.922852, 4186.666504, 4147.692383, 4215.384277, 4176.922852, 4193.846191, 4196.410156, 4186.153809, 4203.076660, 4180.000000, 4186.153809, 4248.717773, 4095.897217, 3606.000000, 8027.000000, 7968.000000, 0.000000, 0.000000, 0.000000, -21248.000000, 383.076904, 4.000000, 4.000000, 4.000000, 4.000000, 4.000000, 4.000000, 4.000000, 4.000000, 1.000000, 4.000000, 4.000000, 4.000000, 4.000000, 4.000000, 4.000000, 4.000000
112.000000, 0.000000, 3572.307617, 4152.307617, 4180.000000, 4144.615234, 4221.025391, 4183.076660, 4193.846191, 4196.922852, 4186.153809, 4202.051270, 4170.769043, 4177.436035, 4249.230469, 4096.922852, 3525.000000, 8027.000000, 7968.000000, 0.000000, 0.000000, 0.000000, -21248.000000, 390.769226, 4.000000, 4.000000, 4.000000, 4.000000, 4.000000, 4.000000, 4.000000, 4.000000, 1.000000, 4.000000, 4.000000, 4.000000, 4.000000, 4.000000, 4.000000, 4.000000
113.000000, 0.000000, 3572.307617, 4142.051270, 4170.769043, 4133.333008, 4215.384277, 4197.436035, 4214.871582, 4205.127930, 4186.666504, 4189.743652, 4156.922852, 4166.666504, 4230.769043, 4089.743408, 3457.000000, 8072.000000, 7957.000000, 0.000000, 0.000000, 0.000000, -21248.000000, 398.974335, 4.000000, 4.000000, 4.000000, 4.000000, 4.000000, 4.000000, 4.000000, 4.000000, 1.000000, 4.000000, 4.000000, 4.000000, 4.000000, 4.000000, 4.000000, 4.000000
114.000000, 0.000000, 3566.153809, 4133.333008, 4168.205078, 4133.333008, 4204.615234, 4202.563965, 4222.051270, 4203.589844, 4186.153809, 4185.641113, 4150.769043, 4165.127930, 4216.410156, 4087.179443, 3600.000000, 8072.000000, 7957.000000, 0.000000, 0.000000, 0.000000, -21248.000000, 406.666656, 4.000000, 4.000000, 4.000000, 4.000000, 4.000000, 4.000000, 4.000000, 4.000000, 1.000000, 4.000000, 4.000000, 4.000000, 4.000000, 4.000000, 4.000000, 4.000000
115.000000, 0.000000, 3572.307617, 4135.897461, 4177.948730, 4138.974121, 4213.846191, 4190.256348, 4206.153809, 4204.615234, 4186.666504, 4198.461426, 4163.076660, 4175.384277, 4234.871582, 4109.743652, 3606.000000, 8070.000000, 7919.000000, 0.000000, 0.000000, 0.000000, -21248.000000, 414.871796, 4.000000, 4.000000, 4.000000, 4.000000, 4.000000, 4.000000, 4.000000, 4.000000, 1.000000, 4.000000, 4.000000, 4.000000, 4.000000, 4.000000, 4.000000, 4.000000
116.000000, 0.000000, 3585.128174, 4137.436035, 4185.127930, 4141.025391, 4221.025391, 4184.615234, 4200.000000, 4215.897461, 4187.179199, 4204.615234, 4176.922852, 4186.153809, 4254.871582, 4128.205078, 3525.000000, 8070.000000, 7919.000000, 0.000000, 0.000000, 0.000000, -21248.000000, 422.564087, 4.000000, 4.000000, 4.000000, 4.000000, 4.000000, 4.000000, 4.000000, 4.000000, 1.000000, 4.000000, 4.000000, 4.000000, 4.000000, 4.000000, 4.000000, 4.000000
117.000000, 0.000000, 3589.743408, 4126.666504, 4187.692383, 4143.076660, 4211.794922, 4190.256348, 4206.153809, 4222.051270, 4186.153809, 4197.436035, 4170.769043, 4189.230469, 4241.025391, 4123.076660, 3457.000000, 8033.000000, 7891.000000, 0.000000, 0.000000, 0.000000, -21248.000000, 430.769226, 4.000000, 4.000000, 4.000000, 4.000000, 4.000000, 4.000000, 4.000000, 4.000000, 1.000000, 4.000000, 4.000000, 4.000000, 4.000000, 4.000000, 4.000000, 4.000000
118.000000, 0.000000, 3597.948730, 4117.948730, 4191.794922, 4142.051270, 4204.615234, 4190.256348, 4206.153809, 4215.897461, 4185.127930, 4191.281738, 4165.127930, 4188.717773, 4227.179199, 4126.666504, 3600.000000, 8033.000000, 7891.000000, 0.000000, 0.000000, 0.000000, -21248.000000, 438.974335, 4.000000, 4.000000, 4.000000, 4.000000, 4.000000, 4.000000, 4.000000, 4.000000, 1.000000, 4.000000, 4.000000, 4.000000, 4.000000, 4.000000, 4.000000, 4.000000
119.000000, 0.000000, 3606.153809, 4117.948730, 4189.230469, 4135.897461, 4204.102539, 4184.615234, 4198.461426, 4206.153809, 4184.615234, 4186.153809, 4169.230469, 4188.205078, 4226.153809, 4135.384277, 3606.000000, 7986.000000, 7878.000000, 0.000000, 0.000000, 0.000000, -21248.000000, 446.666656, 4.000000, 4.000000, 4.000000, 4.000000, 4.000000, 4.000000, 4.000000, 4.000000, 1.000000, 4.000000, 4.000000, 4.000000, 4.000000, 4.000000, 4.000000, 4.000000
120.000000, 0.000000, 3614.871826, 4116.410156, 4183.589844, 4134.358887, 4206.153809, 4186.153809, 4198.461426, 4200.000000, 4186.153809, 4186.666504, 4168.717773, 4185.641113, 4217.948730, 4132.820313, 3525.000000, 7986.000000, 7878.000000, 0.000000, 0.000000, 0.000000, -21248.000000, 454.871796, 4.000000, 4.000000, 4.000000, 4.000000, 4.000000, 4.000000, 4.000000, 4.000000, 1.000000, 4.000000, 4.000000, 4.000000, 4.000000, 4.000000, 4.000000, 4.000000
121.000000, 0.000000, 3627.179443, 4110.256348, 4185.127930, 4136.410156, 4197.948730, 4188.205078, 4197.436035, 4200.000000, 4187.692383, 4190.769043, 4170.256348, 4188.205078, 4221.025391, 4143.076660, 3457.000000, 7977.000000, 7894.000000, 0.000000, 0.000000, 0.000000, -21248.000000, 462.564087, 4.000000, 4.000000, 4.000000, 4.000000, 4.000000, 4.000000, 4.000000, 4.000000, 1.000000, 4.000000, 4.000000, 4.000000, 4.000000, 4.000000, 4.000000, 4.000000
122.000000, 0.000000, 3637.435791, 4107.692383, 4186.666504, 4135.897461, 4191.281738, 4185.641113, 4190.256348, 4200.000000, 4187.179199, 4188.205078, 4172.820313, 4193.333008, 4230.256348, 4156.410156, 3600.000000, 7977.000000, 7894.000000, 0.000000, 0.000000, 0.000000, -21248.000000, 470.769226, 4.000000, 4.000000, 4.000000, 4.000000, 4.000000, 4.000000, 4.000000, 4.000000, 1.000000, 4.000000, 4.000000, 4.000000, 4.000000, 4.000000, 4.000000, 4.000000
123.000000, 0.000000, 3645.128174, 4111.794922, 4185.127930, 4135.384277, 4209.230469, 4185.641113, 4192.307617, 4196.922852, 4186.153809, 4190.769043, 4169.743652, 4190.769043, 4225.127930, 4158.461426, 3606.000000, 7980.000000, 7910.000000, 0.000000, 0.000000, 0.000000, -21248.000000, 478.461517, 4.000000, 4.000000, 4.000000, 4.000000, 4.000000, 4.000000, 4.000000, 4.000000, 1.000000, 4.000000, 4.000000, 4.000000, 4.000000, 4.000000, 4.000000, 4.000000
124.000000, 0.000000, 3652.820313, 4106.666504, 4190.769043, 4138.974121, 4224.102539, 4192.307617, 4201.025391, 4199.487305, 4186.666504, 4196.922852, 4168.717773, 4191.281738, 4219.487305, 4164.615234, 3525.000000, 7980.000000, 7910.000000, 0.000000, 0.000000, 0.000000, -21248.000000, 486.666656, 4.000000, 4.000000, 4.000000, 4.000000, 4.000000, 4.000000, 4.000000, 4.000000, 1.000000, 4.000000, 4.000000, 4.000000, 4.000000, 4.000000, 4.000000, 4.000000
125.000000, 0.000000, 3655.897461, 4094.358887, 4200.000000, 4137.948730, 4209.743652, 4197.948730, 4204.615234, 4205.127930, 4188.205078, 4193.846191, 4167.692383, 4196.410156, 4218.974121, 4171.794922, 3457.000000, 8008.000000, 7931.000000, 0.000000, 0.000000, 0.000000, -21248.000000, 494.871796, 4.000000, 4.000000, 4.000000, 4.000000, 4.000000, 4.000000, 4.000000, 4.000000, 1.000000, 4.000000, 4.000000, 4.000000, 4.000000, 4.000000, 4.000000, 4.000000
126.000000, 0.000000, 3661.538330, 4095.897217, 4201.538574, 4138.461426, 4199.487305, 4193.333008, 4200.512695, 4204.102539, 4188.717773, 4194.358887, 4170.256348, 4200.000000, 4225.127930, 4179.487305, 3600.000000, 8008.000000, 7931.000000, 0.000000, 0.000000, 0.000000, -21248.000000, 502.564087, 4.000000, 4.000000, 4.000000, 4.000000, 4.000000, 4.000000, 4.000000, 4.000000, 1.000000, 4.000000, 4.000000, 4.000000, 4.000000, 4.000000, 4.000000, 4.000000
127.000000, 0.000000, 3683.076904, 4107.179199, 4203.589844, 4149.743652, 4209.230469, 4190.256348, 4190.769043, 4202.051270, 4187.179199, 4204.615234, 4177.948730, 4205.641113, 4237.948730, 4196.922852, 57.000000, 8032.000000, 7935.000000, 0.000000, 0.000000, 0.000000, -21248.000000, 510.769226, 4.000000, 4.000000, 4.000000, 4.000000, 4.000000, 4.000000, 4.000000, 4.000000, 1.000000, 4.000000, 4.000000, 4.000000, 4.000000, 4.000000, 4.000000, 4.000000
0.000000, 0.000000, 3689.230713, 4097.436035, 4202.051270, 4151.281738, 4208.717773, 4196.410156, 4183.076660, 4198.974121, 4186.666504, 4201.538574, 4171.794922, 4197.948730, 4226.153809, 4195.897461, 3094.000000, 8032.000000, 7935.000000, 0.000000, 0.000000, 0.000000, -21248.000000, 518.461548, 4.000000, 4.000000, 4.000000, 4.000000, 4.000000, 4.000000, 4.000000, 4.000000, 1.000000, 4.000000, 4.000000, 4.000000, 4.000000, 4.000000, 4.000000, 4.000000
1.000000, 0.000000, 3672.307617, 4072.820313, 4187.692383, 4133.846191, 4196.922852, 4201.538574, 4189.230469, 4193.846191, 4186.666504, 4188.717773, 4150.256348, 4174.358887, 4198.461426, 4173.333008, 3509.000000, 8076.000000, 7931.000000, 0.000000, 0.000000, 0.000000, -21248.000000, 526.666626, 4.000000, 4.000000, 4.000000, 4.000000, 4.000000, 4.000000, 4.000000, 4.000000, 1.000000, 4.000000, 4.000000, 4.000000, 4.000000, 4.000000, 4.000000, 4.000000
2.000000, 0.000000, 3671.281982, 4064.615234, 4171.794922, 4122.051270, 4196.922852, 4202.051270, 4198.974121, 4196.922852, 4185.641113, 4184.615234, 4135.897461, 4162.563965, 4192.307617, 4164.102539, 3606.000000, 8076.000000, 7931.000000, 0.000000, 0.000000, 0.000000, -21248.000000, 534.358948, 4.000000, 4.000000, 4.000000, 4.000000, 4.000000, 4.000000, 4.000000, 4.000000, 1.000000, 4.000000, 4.000000, 4.000000, 4.000000, 4.000000, 4.000000, 4.000000
3.000000, 0.000000, 3696.923096, 4065.128174, 4170.769043, 4121.538574, 4203.076660, 4204.615234, 4203.076660, 4209.743652, 4184.615234, 4185.127930, 4135.897461, 4165.641113, 4195.384277, 4170.769043, 2449.000000, 8094.000000, 7938.000000, 0.000000, 0.000000, 0.000000, -21248.000000, 542.564087, 4.000000, 4.000000, 4.000000, 4.000000, 4.000000, 4.000000, 4.000000, 4.000000, 1.000000, 4.000000, 4.000000, 4.000000, 4.000000, 4.000000, 4.000000, 4.000000
4.000000, 0.000000, 3727.692139, 4064.615234, 4181.025391, 4123.076660, 4200.512695, 4207.692383, 4205.127930, 4220.512695, 4185.641113, 4194.871582, 4145.641113, 4172.307617, 4200.512695, 4188.205078, 3530.000000, 8094.000000, 7938.000000, 0.000000, 0.000000, 0.000000, -21248.000000, 550.256409, 4.000000, 4.000000, 4.000000, 4.000000, 4.000000, 4.000000, 4.000000, 4.000000, 1.000000, 4.000000, 4.000000, 4.000000, 4.000000, 4.000000, 4.000000, 4.000000
5.000000, 0.000000, 3747.692139, 4071.281982, 4187.179199, 4132.307617, 4198.461426, 4203.589844, 4205.127930, 4213.846191, 4186.153809, 4204.102539, 4155.384277, 4183.076660, 4218.974121, 4207.692383, 3561.000000, 8071.000000, 7959.000000, 0.000000, 0.000000, 0.000000, -21248.000000, 558.461548, 4.000000, 4.000000, 4.000000, 4.000000, 4.000000, 4.000000, 4.000000, 4.000000, 1.000000, 4.000000, 4.000000, 4.000000, 4.000000, 4.000000, 4.000000, 4.000000
6.000000, 0.000000, 3764.615234, 4075.384521, 4186.153809, 4140.000000, 4200.512695, 4202.563965, 4205.127930, 4204.102539, 4186.153809, 4203.076660, 4162.563965, 4191.281738, 4232.307617, 4218.974121, 3360.000000, 8071.000000, 7959.000000, 0.000000, 0.000000, 0.000000, -21248.000000, 566.153809, 4.000000, 4.000000, 4.000000, 4.000000, 4.000000, 4.000000, 4.000000, 4.000000, 1.000000, 4.000000, 4.000000, 4.000000, 4.000000, 4.000000, 4.000000, 4.000000
7.000000, 0.000000, 3785.128174, 4072.820313, 4184.615234, 4135.897461, 4203.589844, 4208.205078, 4205.127930, 4208.717773, 4186.153809, 4202.051270, 4165.127930, 4190.769043, 4233.333008, 4227.692383, 3525.000000, 8064.000000, 7958.000000, 0.000000, 0.000000, 0.000000, -21248.000000, 574.358948, 4.000000, 4.000000, 4.000000, 4.000000, 4.000000, 4.000000, 4.000000, 4.000000, 1.000000, 4.000000, 4.000000, 4.000000, 4.000000, 4.000000, 4.000000, 4.000000
8.000000, 0.000000, 3797.435791, 4067.179443, 4186.666504, 4136.922852, 4204.102539, 4209.230469, 4202.563965, 4208.717773, 4186.153809, 4202.563965, 4162.563965, 4188.717773, 4233.846191, 4230.256348, 86.000000, 8064.000000, 7958.000000, 0.000000, 0.000000, 0.000000, -21248.000000, 582.564087, 4.000000, 4.000000, 4.000000, 4.000000, 4.000000, 4.000000, 4.000000, 4.000000, 1.000000, 4.000000, 4.000000, 4.000000, 4.000000, 4.000000, 4.000000, 4.000000
9.000000, 0.000000, 3789.230713, 4058.461426, 4184.102539, 4135.897461, 4189.230469, 4202.051270, 4200.512695, 4192.307617, 4187.179199, 4191.281738, 4149.743652, 4185.127930, 4222.563965, 4218.461426, 2196.000000, 8061.000000, 7954.000000, 0.000000, 0.000000, 0.000000, -21248.000000, 590.256409, 4.000000, 4.000000, 4.000000, 4.000000, 4.000000, 4.000000, 4.000000, 4.000000, 1.000000, 4.000000, 4.000000, 4.000000, 4.000000, 4.000000, 4.000000, 4.000000
10.000000, 0.000000, 3788.205078, 4055.384521, 4181.025391, 4123.589844, 4181.025391, 4200.512695, 4201.025391, 4185.641113, 4188.205078, 4183.589844, 4136.410156, 4182.051270, 4207.179199, 4210.769043, 3588.000000, 8061.000000, 7954.000000, 0.000000, 0.000000, 0.000000, -21248.000000, 598.461548, 4.000000, 4.000000, 4.000000, 4.000000, 4.000000, 4.000000, 4.000000, 4.000000, 1.000000, 4.000000, 4.000000, 4.000000, 4.000000, 4.000000, 4.000000, 4.000000
11.000000, 0.000000, 3818.974365, 4062.563965, 4182.051270, 4124.615234, 4198.974121, 4202.051270, 4199.487305, 4196.410156, 4187.179199, 4192.820313, 4143.076660, 4182.563965, 4221.538574, 4220.512695, 3568.000000, 8072.000000, 7974.000000, 0.000000, 0.000000, 0.000000, -21248.000000, 606.153809, 4.000000, 4.000000, 4.000000, 4.000000, 4.000000, 4.000000, 4.000000, 4.000000, 1.000000, 4.000000, 4.000000, 4.000000, 4.000000, 4.000000, 4.000000, 4.000000
12.000000, 0.000000, 3844.615234, 4061.538330, 4182.051270, 4137.948730, 4209.230469, 4201.538574, 4200.000000, 4200.512695, 4186.153809, 4194.358887, 4153.333008, 4182.563965, 4236.410156, 4230.769043, 3523.000000, 8072.000000, 7974.000000, 0.000000, 0.000000, 0.000000, -21248.000000, 614.358948, 4.000000, 4.000000, 4.000000, 4.000000, 4.000000, 4.000000, 4.000000, 4.000000, 1.000000, 4.000000, 4.000000, 4.000000, 4.000000, 4.000000, 4.000000, 4.000000
13.000000, 0.000000, 3849.743408, 4050.769043, 4180.512695, 4136.922852, 4198.974121, 4207.179199, 4206.666504, 4199.487305, 4186.666504, 4186.153809, 4147.179199, 4182.051270, 4224.615234, 4231.281738, 3452.000000, 8102.000000, 8011.000000, 0.000000, 0.000000, 0.000000, -21248.000000, 622.051270, 4.000000, 4.000000, 4.000000, 4.000000, 4.000000, 4.000000, 4.000000, 4.000000, 1.000000, 4.000000, 4.000000, 4.000000, 4.000000, 4.000000, 4.000000, 4.000000
14.000000, 0.000000, 3861.025635, 4048.717773, 4181.025391, 4132.307617, 4196.410156, 4211.281738, 4206.153809, 4204.102539, 4186.666504, 4185.641113, 4136.922852, 4182.051270, 4214.871582, 4231.794922, 3588.000000, 8102.000000, 8011.000000, 0.000000, 0.000000, 0.000000, -21248.000000, 630.256409, 4.000000, 4.000000, 4.000000, 4.000000, 4.000000, 4.000000, 4.000000, 4.000000, 1.000000, 4.000000, 4.000000, 4.000000, 4.000000, 4.000000, 4.000000, 4.000000
15.000000, 0.000000, 3874.358887, 4049.743408, 4184.615234, 4137.948730, 4204.615234, 4204.615234, 4194.871582, 4202.563965, 4186.153809, 4189.743652, 4138.974121, 4181.538574, 4217.948730, 4232.820313, 3568.000000, 8186.000000, 8091.000000, 0.000000, 0.000000, 0.000000, -21248.000000, 637.948730, 4.000000, 4.000000, 4.000000, 4.000000, 4.000000, 4.000000, 4.000000, 4.000000, 1.000000, 4.000000, 4.000000, 4.000000, 4.000000, 4.000000, 4.000000, 4.000000
16.000000, 0.000000, 3875.384521, 4043.076904, 4184.615234, 4138.974121, 4202.563965, 4204.102539, 4191.794922, 4200.000000, 4186.666504, 4188.717773, 4139.487305, 4183.076660, 4210.769043, 4235.897461, 0.000000, 8186.000000, 8091.000000, 0.000000, 0.000000, 0.000000, -21248.000000, 646.153809, 4.000000, 4.000000, 4.000000, 4.000000, 4.000000, 4.000000, 4.000000, 4.000000, 1.000000, 4.000000, 4.000000, 4.000000, 4.000000, 4.000000, 4.000000, 4.000000
17.000000, 0.000000, 3875.897461, 4041.025635, 4182.563965, 4138.461426, 4186.666504, 4206.666504, 4195.897461, 4203.589844, 4186.153809, 4185.641113, 4131.794922, 4186.153809, 4190.256348, 4238.974121, 0.000000, 8228.000000, 8120.000000, 0.000000, 0.000000, 0.000000, -21248.000000, 653.846130, 4.000000, 4.000000, 4.000000, 4.000000, 4.000000, 4.000000, 4.000000, 4.000000, 1.000000, 4.000000, 4.000000, 4.000000, 4.000000, 4.000000, 4.000000, 4.000000
18.000000, 0.000000, 3880.000000, 4041.538330, 4186.153809, 4139.487305, 4179.487305, 4202.563965, 4192.820313, 4196.410156, 4185.641113, 4183.589844, 4123.589844, 4182.051270, 4168.717773, 4237.948730, 0.000000, 8228.000000, 8120.000000, 0.000000, 0.000000, 0.000000, -21248.000000, 662.051270, 4.000000, 4.000000, 4.000000, 4.000000, 4.000000, 4.000000, 4.000000, 4.000000, 1.000000, 4.000000, 4.000000, 4.000000, 4.000000, 4.000000, 4.000000, 4.000000
19.000000, 0.000000, 3878.461426, 4035.384521, 4183.589844, 4130.769043, 4189.230469, 4201.538574, 4191.281738, 4181.538574, 4187.179199, 4182.563965, 4117.436035, 4175.897461, 4148.717773, 4230.256348, 0.000000, 8275.000000, 8150.000000, 0.000000, 0.000000, 0.000000, -21248.000000, 670.256409, 4.000000, 4.000000, 4.000000, 4.000000, 4.000000, 4.000000, 4.000000, 4.000000, 1.000000, 4.000000, 4.000000, 4.000000, 4.000000, 4.000000, 4.000000, 4.000000
20.000000, 0.000000, 3876.410156, 4035.897217, 4173.846191, 4123.076660, 4194.358887, 4204.102539, 4197.436035, 4188.205078, 4188.717773, 4184.615234, 4120.512695, 4180.000000, 4138.461426, 4232.307617, 0.000000, 8275.000000, 8150.000000, 0.000000, 0.000000, 0.000000, -21248.000000, 677.948730, 4.000000, 4.000000, 4.000000, 4.000000, 4.000000, 4.000000, 4.000000, 4.000000, 1.000000, 4.000000, 4.000000, 4.000000, 4.000000, 4.000000, 4.000000, 4.000000
21.000000, 0.000000, 3878.974365, 4045.128174, 4173.333008, 4130.256348, 4186.666504, 4202.563965, 4200.000000, 4206.153809, 4186.666504, 4186.153809, 4124.102539, 4185.641113, 4138.461426, 4241.538574, 0.000000, 8341.000000, 8186.000000, 0.000000, 0.000000, 0.000000, -21248.000000, 686.153809, 4.000000, 4.000000, 4.000000, 4.000000, 4.000000, 4.000000, 4.000000, 4.000000, 1.000000, 4.000000, 4.000000, 4.000000, 4.000000, 4.000000, 4.000000, 4.000000
22.000000, 0.000000, 3887.692139, 4050.256348, 4183.589844, 4140.512695, 4184.102539, 4203.076660, 4201.025391, 4207.179199, 4184.615234, 4187.179199, 4122.051270, 4187.179199, 4141.025391, 4245.127930, 0.000000, 8341.000000, 8186.000000, 0.000000, 0.000000, 0.000000, -21248.000000, 693.846130, 4.000000, 4.000000, 4.000000, 4.000000, 4.000000, 4.000000, 4.000000, 4.000000, 1.000000, 4.000000, 4.000000, 4.000000, 4.000000, 4.000000, 4.000000, 4.000000
23.000000, 0.000000, 3895.384521, 4051.794678, 4188.205078, 4140.000000, 4187.692383, 4204.102539, 4205.641113, 4199.487305, 4185.641113, 4186.153809, 4124.102539, 4193.846191, 4141.538574, 4246.153809, 0.000000, 8360.000000, 8197.000000, 0.000000, 0.000000, 0.000000, -21248.000000, 702.051270, 4.000000, 4.000000, 4.000000, 4.000000, 4.000000, 4.000000, 4.000000, 4.000000, 1.000000, 4.000000, 4.000000, 4.000000, 4.000000, 4.000000, 4.000000, 4.000000
24.000000, 0.000000, 3895.384521, 4052.307617, 4184.615234, 4138.461426, 4185.641113, 4202.051270, 4202.563965, 4197.948730, 4186.666504, 4185.127930, 4123.589844, 4199.487305, 4140.512695, 4248.717773, 0.000000, 8360.000000, 8197.000000, 0.000000, 0.000000, 0.000000, -21248.000000, 709.743591, 4.000000, 4.000000, 4.000000, 4.000000, 4.000000, 4.000000, 4.000000, 4.000000, 1.000000, 4.000000, 4.000000, 4.000000, 4.000000, 4.000000, 4.000000, 4.000000
25.000000, 0.000000, 3894.358887, 4047.692139, 4186.153809, 4140.512695, 4178.974121, 4200.512695, 4197.436035, 4200.512695, 4187.179199, 4187.179199, 4126.153809, 4198.974121, 4146.666504, 4255.384277, 0.000000, 8379.000000, 8201.000000, 0.000000, 0.000000, 0.000000, -21248.000000, 717.948730, 4.000000, 4.000000, 4.000000, 4.000000, 4.000000, 4.000000, 4.000000, 4.000000, 1.000000, 4.000000, 4.000000, 4.000000, 4.000000, 4.000000, 4.000000, 4.000000
26.000000, 0.000000, 3894.358887, 4044.102539, 4190.256348, 4139.487305, 4179.487305, 4202.051270, 4203.589844, 4204.102539, 4187.179199, 4188.205078, 4136.410156, 4202.563965, 4154.871582, 4262.563965, 0.000000, 8379.000000, 8201.000000, 0.000000, 0.000000, 0.000000, -21248.000000, 726.153809, 4.000000, 4.000000, 4.000000, 4.000000, 4.000000, 4.000000, 4.000000, 4.000000, 1.000000, 4.000000, 4.000000, 4.000000, 4.000000, 4.000000, 4.000000, 4.000000
27.000000, 0.000000, 3894.871582, 4048.717773, 4188.717773, 4142.051270, 4186.666504, 4202.051270, 4202.563965, 4199.487305, 4186.666504, 4186.153809, 4136.410156, 4201.538574, 4153.846191, 4261.025391, 0.000000, 8382.000000, 8196.000000, 0.000000, 0.000000, 0.000000, -21248.000000, 733.846130, 4.000000, 4.000000, 4.000000, 4.000000, 4.000000, 4.000000, 4.000000, 4.000000, 1.000000, 4.000000, 4.000000, 4.000000, 4.000000, 4.000000, 4.000000, 4.000000
28.000000, 0.000000, 3895.384521, 4050.769043, 4185.127930, 4148.205078, 4187.179199, 4204.102539, 4190.769043, 4187.692383, 4186.153809, 4184.615234, 4124.102539, 4188.717773, 4152.307617, 4257.948730, 0.000000, 8382.000000, 8196.000000, 0.000000, 0.000000, 0.000000, -21248.000000, 742.051270, 4.000000, 4.000000, 4.000000, 4.000000, 4.000000, 4.000000, 4.000000, 4.000000, 1.000000, 4.000000, 4.000000, 4.000000, 4.000000, 4.000000, 4.000000, 4.000000
29.000000, 0.000000, 3890.256348, 4041.025635, 4183.076660, 4144.615234, 4187.692383, 4207.179199, 4186.153809, 4183.076660, 4186.153809, 4181.025391, 4120.512695, 4182.051270, 4151.794922, 4255.384277, 0.000000, 8377.000000, 8181.000000, 0.000000, 0.000000, 0.000000, -21248.000000, 749.743591, 4.000000, 4.000000, 4.000000, 4.000000, 4.000000, 4.000000, 4.000000, 4.000000, 1.000000, 4.000000, 4.000000, 4.000000, 4.000000, 4.000000, 4.000000, 4.000000
30.000000, 0.000000, 3883.076904, 4028.717773, 4182.563965, 4138.461426, 4182.563965, 4203.589844, 4186.153809, 4183.076660, 4185.127930, 4172.307617, 4123.076660, 4181.538574, 4146.666504, 4252.307617, 0.000000, 8377.000000, 8181.000000, 0.000000, 0.000000, 0.000000, -21248.000000, 757.948669, 4.000000, 4.000000, 4.000000, 4.000000, 4.000000, 4.000000, 4.000000, 4.000000, 1.000000, 4.000000, 4.000000, 4.000000, 4.000000, 4.000000, 4.000000, 4.000000
31.000000, 0.000000, 3882.051270, 4027.179443, 4184.615234, 4137.436035, 4173.333008, 4197.948730, 4186.153809, 4181.538574, 4184.615234, 4166.666504, 4117.948730, 4178.974121, 4144.615234, 4252.820313, 0.000000, 8365.000000, 8173.000000, 0.000000, 0.000000, 0.000000, -21248.000000, 765.640991, 4.000000, 4.000000, 4.000000, 4.000000, 4.000000, 4.000000, 4.000000, 4.000000, 1.000000, 4.000000, 4.000000, 4.000000, 4.000000, 4.000000, 4.000000, 4.000000
32.000000, 0.000000, 3880.000000, 4026.666504, 4182.563965, 4132.820313, 4169.743652, 4198.461426, 4189.743652, 4177.436035, 4186.153809, 4170.256348, 4117.948730, 4178.974121, 4152.307617, 4258.461426, 0.000000, 8365.000000, 8173.000000, 0.000000, 0.000000, 0.000000, -21248.000000, 773.846130, 4.000000, 4.000000, 4.000000, 4.000000, 4.000000, 4.000000, 4.000000, 4.000000, 1.000000, 4.000000, 4.000000, 4.000000, 4.000000, 4.000000, 4.000000, 4.000000
33.000000, 0.000000, 3881.538330, 4022.051270, 4176.410156, 4129.743652, 4170.256348, 4198.974121, 4189.230469, 4168.717773, 4186.666504, 4176.922852, 4127.179199, 4183.589844, 4160.512695, 4263.589844, 0.000000, 8349.000000, 8166.000000, 0.000000, 0.000000, 0.000000, -21248.000000, 781.538452, 4.000000, 4.000000, 4.000000, 4.000000, 4.000000, 4.000000, 4.000000, 4.000000, 1.000000, 4.000000, 4.000000, 4.000000, 4.000000, 4.000000, 4.000000, 4.000000
34.000000, 0.000000, 3893.333252, 4022.563965, 4179.487305, 4135.384277, 4174.358887, 4197.948730, 4188.205078, 4171.794922, 4186.153809, 4182.051270, 4136.410156, 4195.897461, 4169.230469, 4272.820313, 0.000000, 8349.000000, 8166.000000, 0.000000, 0.000000, 0.000000, -21248.000000, 789.743591, 4.000000, 4.000000, 4.000000, 4.000000, 4.000000, 4.000000, 4.000000, 4.000000, 1.000000, 4.000000, 4.000000, 4.000000, 4.000000, 4.000000, 4.000000, 4.000000
35.000000, 0.000000, 3898.974365, 4024.102539, 4187.179199, 4136.922852, 4185.127930, 4202.563965, 4197.948730, 4190.256348, 4186.153809, 4186.666504, 4148.205078, 4207.692383, 4181.538574, 4285.641113, 0.000000, 8330.000000, 8159.000000, 0.000000, 0.000000, 0.000000, -21248.000000, 797.435852, 4.000000, 4.000000, 4.000000, 4.000000, 4.000000, 4.000000, 4.000000, 4.000000, 1.000000, 4.000000, 4.000000, 4.000000, 4.000000, 4.000000, 4.000000, 4.000000
36.000000, 0.000000, 3893.845947, 4022.051270, 4188.205078, 4133.333008, 4190.769043, 4205.127930, 4204.102539, 4202.051270, 4186.666504, 4191.794922, 4157.436035, 4208.205078, 4187.179199, 4292.820313, 0.000000, 8330.000000, 8159.000000, 0.000000, 0.000000, 0.000000, -21248.000000, 805.640991, 4.000000, 4.000000, 4.000000, 4.000000, 4.000000, 4.000000, 4.000000, 4.000000, 1.000000, 4.000000, 4.000000, 4.000000, 4.000000, 4.000000, 4.000000, 4.000000
37.000000, 0.000000, 3901.538330, 4023.076904, 4191.281738, 4137.948730, 4186.153809, 4204.102539, 4197.948730, 4202.563965, 4186.153809, 4198.974121, 4158.974121, 4208.717773, 4189.743652, 4294.871582, 0.000000, 8333.000000, 8150.000000, 0.000000, 0.000000, 0.000000, -21248.000000, 813.846130, 4.000000, 4.000000, 4.000000, 4.000000, 4.000000, 4.000000, 4.000000, 4.000000, 1.000000, 4.000000, 4.000000, 4.000000, 4.000000, 4.000000, 4.000000, 4.000000
38.000000, 0.000000, 3911.794678, 4026.153809, 4193.333008, 4140.512695, 4187.179199, 4208.205078, 4198.974121, 4203.589844, 4186.153809, 4203.076660, 4160.000000, 4212.820313, 4195.897461, 4296.410156, 0.000000, 8333.000000, 8150.000000, 0.000000, 0.000000, 0.000000, -21248.000000, 821.538452, 4.000000, 4.000000, 4.000000, 4.000000, 4.000000, 4.000000, 4.000000, 4.000000, 1.000000, 4.000000, 4.000000, 4.000000, 4.000000, 4.000000, 4.000000, 4.000000
39.000000, 0.000000, 3900.512695, 4018.461426, 4185.641113, 4136.410156, 4188.205078, 4211.281738, 4206.153809, 4203.589844, 4186.153809, 4198.461426, 4158.974121, 4206.666504, 4193.333008, 4293.333008, 0.000000, 8338.000000, 8149.000000, 0.000000, 0.000000, 0.000000, -21248.000000, 829.743591, 4.000000, 4.000000, 4.000000, 4.000000, 4.000000, 4.000000, 4.000000, 4.000000, 1.000000, 4.000000, 4.000000, 4.000000, 4.000000, 4.000000, 4.000000, 4.000000
40.000000, 0.000000, 3894.358887, 4018.461426, 4178.461426, 4135.897461, 4181.025391, 4200.000000, 4201.025391, 4200.512695, 4186.153809, 4194.358887, 4154.871582, 4196.410156, 4190.256348, 4291.281738, 0.000000, 8338.000000, 8149.000000, 0.000000, 0.000000, 0.000000, -21248.000000, 837.435852, 4.000000, 4.000000, 4.000000, 4.000000, 4.000000, 4.000000, 4.000000, 4.000000, 1.000000, 4.000000, 4.000000, 4.000000, 4.000000, 4.000000, 4.000000, 4.000000
41.000000, 0.000000, 3909.230713, 4024.102539, 4186.153809, 4135.897461, 4170.769043, 4189.743652, 4197.948730, 4203.589844, 4186.153809, 4197.436035, 4161.025391, 4203.076660, 4196.922852, 4295.384277, 0.000000, 8349.000000, 8151.000000, 0.000000, 0.000000, 0.000000, -21248.000000, 845.640991, 4.000000, 4.000000, 4.000000, 4.000000, 4.000000, 4.000000, 4.000000, 4.000000, 1.000000, 4.000000, 4.000000, 4.000000, 4.000000, 4.000000, 4.000000, 4.000000
42.000000, 0.000000, 3912.820313, 4011.794678, 4192.820313, 4135.897461, 4165.127930, 4195.384277, 4201.538574, 4211.281738, 4186.153809, 4203.076660, 4171.281738, 4212.307617, 4203.076660, 4298.974121, 0.000000, 8349.000000, 8151.000000, 0.000000, 0.000000, 0.000000, -21248.000000, 853.333313, 4.000000, 4.000000, 4.000000, 4.000000, 4.000000, 4.000000, 4.000000, 4.000000, 1.000000, 4.000000, 4.000000, 4.000000, 4.000000, 4.000000, 4.000000, 4.000000
