title:winkLeft6, recorded:16.05.18 20.13.27, timestamp started:2018-05-12T20:28:52.032863+02:00            , sampling:128, subject:Noé, labels:COUNTER INTERPOLATED AF3 F7 F3 FC5 T7 P7 O1 O2 P8 T8 FC6 F4 F8 AF4 RAW_CQ GYROX GYROY MARKER MARKER_HARDWARE SYNC TIME_STAMP_s TIME_STAMP_ms CQ_AF3 CQ_F7 CQ_F3 CQ_FC5 CQ_T7 CQ_P7 CQ_O1 CQ_O2 CQ_P8 CQ_T8 CQ_FC6 CQ_F4 CQ_F8 CQ_AF4 CQ_CMS CQ_DRL, chan:40, samples:7273, units:emotiv
71.000000, 0.000000, 4270.769043, 4250.256348, 4193.333008, 4204.615234, 4202.051270, 4214.358887, 4217.948730, 4226.153809, 4230.256348, 4218.461426, 4211.794922, 4207.179199, 4223.076660, 4207.179199, 3197.000000, 8377.000000, 7947.000000, 0.000000, 0.000000, 0.000000, 16995.000000, 829.743591, 4.000000, 4.000000, 4.000000, 4.000000, 4.000000, 4.000000, 4.000000, 4.000000, 4.000000, 4.000000, 4.000000, 4.000000, 4.000000, 4.000000, 4.000000, 4.000000
72.000000, 0.000000, 4271.281738, 4245.641113, 4191.794922, 4213.846191, 4204.615234, 4213.846191, 4226.153809, 4234.871582, 4244.615234, 4238.974121, 4222.563965, 4216.922852, 4231.281738, 4213.846191, 3533.000000, 8377.000000, 7947.000000, 0.000000, 0.000000, 0.000000, 16995.000000, 837.948669, 4.000000, 4.000000, 4.000000, 4.000000, 4.000000, 4.000000, 4.000000, 4.000000, 4.000000, 4.000000, 4.000000, 4.000000, 4.000000, 4.000000, 4.000000, 4.000000
73.000000, 0.000000, 4264.615234, 4249.743652, 4196.410156, 4221.025391, 4210.769043, 4217.436035, 4223.076660, 4209.743652, 4227.692383, 4241.025391, 4221.025391, 4214.871582, 4232.820313, 4208.717773, 3534.000000, 8319.000000, 8026.000000, 0.000000, 0.000000, 0.000000, 16995.000000, 845.640991, 4.000000, 4.000000, 4.000000, 4.000000, 4.000000, 4.000000, 4.000000, 4.000000, 4.000000, 4.000000, 4.000000, 4.000000, 4.000000, 4.000000, 4.000000, 4.000000
74.000000, 0.000000, 4259.487305, 4253.846191, 4198.974121, 4217.436035, 4196.922852, 4212.820313, 4213.846191, 4205.641113, 4216.410156, 4233.333008, 4219.487305, 4212.820313, 4227.179199, 4204.615234, 3177.000000, 8319.000000, 8026.000000, 0.000000, 0.000000, 0.000000, 16995.000000, 853.846130, 4.000000, 4.000000, 4.000000, 4.000000, 4.000000, 4.000000, 4.000000, 4.000000, 4.000000, 4.000000, 4.000000, 4.000000, 4.000000, 4.000000, 4.000000, 4.000000
75.000000, 0.000000, 4259.487305, 4254.871582, 4198.461426, 4212.820313, 4200.512695, 4210.256348, 4212.307617, 4216.922852, 4209.743652, 4216.922852, 4218.974121, 4212.307617, 4220.000000, 4208.717773, 1903.000000, 8282.000000, 8068.000000, 0.000000, 0.000000, 0.000000, 16995.000000, 861.538452, 4.000000, 4.000000, 4.000000, 4.000000, 4.000000, 4.000000, 4.000000, 4.000000, 4.000000, 4.000000, 4.000000, 4.000000, 4.000000, 4.000000, 4.000000, 4.000000
76.000000, 0.000000, 4260.000000, 4253.846191, 4186.666504, 4213.846191, 4222.051270, 4208.717773, 4214.358887, 4210.769043, 4201.025391, 4200.512695, 4219.487305, 4208.205078, 4216.922852, 4208.717773, 3488.000000, 8282.000000, 8068.000000, 0.000000, 0.000000, 0.000000, 16995.000000, 869.743591, 4.000000, 4.000000, 4.000000, 4.000000, 4.000000, 4.000000, 4.000000, 4.000000, 4.000000, 4.000000, 4.000000, 4.000000, 4.000000, 4.000000, 4.000000, 4.000000
77.000000, 0.000000, 4257.948730, 4250.769043, 4165.641113, 4211.281738, 4216.410156, 4207.692383, 4216.922852, 4202.051270, 4195.384277, 4195.384277, 4217.948730, 4212.307617, 4211.794922, 4211.281738, 2333.000000, 8261.000000, 8097.000000, 0.000000, 0.000000, 0.000000, 16995.000000, 877.435852, 4.000000, 4.000000, 4.000000, 4.000000, 4.000000, 4.000000, 4.000000, 4.000000, 4.000000, 4.000000, 4.000000, 4.000000, 4.000000, 4.000000, 4.000000, 4.000000
78.000000, 0.000000, 4256.410156, 4242.051270, 4157.948730, 4204.615234, 4197.948730, 4206.666504, 4217.436035, 4195.897461, 4181.025391, 4185.641113, 4207.179199, 4207.179199, 4201.538574, 4203.589844, 3177.000000, 8261.000000, 8097.000000, 0.000000, 0.000000, 0.000000, 16995.000000, 885.640991, 4.000000, 4.000000, 4.000000, 4.000000, 4.000000, 4.000000, 4.000000, 4.000000, 4.000000, 4.000000, 4.000000, 4.000000, 4.000000, 4.000000, 4.000000, 4.000000
79.000000, 0.000000, 4261.025391, 4233.333008, 4164.615234, 4203.076660, 4197.948730, 4202.051270, 4209.743652, 4187.179199, 4162.051270, 4170.256348, 4198.461426, 4206.153809, 4196.410156, 4203.589844, 1903.000000, 8252.000000, 8111.000000, 0.000000, 0.000000, 0.000000, 16995.000000, 893.333313, 4.000000, 4.000000, 4.000000, 4.000000, 4.000000, 4.000000, 4.000000, 4.000000, 4.000000, 4.000000, 4.000000, 4.000000, 4.000000, 4.000000, 4.000000, 4.000000
80.000000, 0.000000, 4265.127930, 4240.512695, 4158.974121, 4211.794922, 4205.127930, 4205.127930, 4207.179199, 4190.256348, 4163.076660, 4175.384277, 4205.127930, 4208.717773, 4206.666504, 4210.769043, 3488.000000, 8252.000000, 8111.000000, 0.000000, 0.000000, 0.000000, 16995.000000, 901.025635, 4.000000, 4.000000, 4.000000, 4.000000, 4.000000, 4.000000, 4.000000, 4.000000, 4.000000, 4.000000, 4.000000, 4.000000, 4.000000, 4.000000, 4.000000, 4.000000
81.000000, 0.000000, 4267.692383, 4248.205078, 4157.436035, 4217.948730, 4209.743652, 4215.897461, 4219.487305, 4211.794922, 4183.589844, 4200.000000, 4219.487305, 4207.692383, 4220.512695, 4206.153809, 2333.000000, 8268.000000, 8093.000000, 0.000000, 0.000000, 0.000000, 16995.000000, 909.230774, 4.000000, 4.000000, 4.000000, 4.000000, 4.000000, 4.000000, 4.000000, 4.000000, 4.000000, 4.000000, 4.000000, 4.000000, 4.000000, 4.000000, 4.000000, 4.000000
82.000000, 0.000000, 4271.794922, 4246.153809, 4178.461426, 4217.436035, 4211.794922, 4217.436035, 4221.538574, 4228.717773, 4207.179199, 4217.436035, 4229.230469, 4215.384277, 4230.256348, 4210.256348, 3177.000000, 8268.000000, 8093.000000, 0.000000, 0.000000, 0.000000, 16995.000000, 917.435852, 4.000000, 4.000000, 4.000000, 4.000000, 4.000000, 4.000000, 4.000000, 4.000000, 4.000000, 4.000000, 4.000000, 4.000000, 4.000000, 4.000000, 4.000000, 4.000000
83.000000, 0.000000, 4268.717773, 4248.717773, 4183.076660, 4215.897461, 4218.461426, 4214.358887, 4208.717773, 4233.846191, 4222.051270, 4224.102539, 4230.769043, 4211.281738, 4233.333008, 4208.205078, 1903.000000, 8294.000000, 8076.000000, 0.000000, 0.000000, 0.000000, 16995.000000, 925.128174, 4.000000, 4.000000, 4.000000, 4.000000, 4.000000, 4.000000, 4.000000, 4.000000, 4.000000, 4.000000, 4.000000, 4.000000, 4.000000, 4.000000, 4.000000, 4.000000
84.000000, 0.000000, 4263.589844, 4240.000000, 4167.179199, 4207.179199, 4217.948730, 4215.897461, 4213.846191, 4233.846191, 4220.512695, 4220.000000, 4221.025391, 4205.641113, 4220.512695, 4200.000000, 3488.000000, 8294.000000, 8076.000000, 0.000000, 0.000000, 0.000000, 16995.000000, 932.820496, 4.000000, 4.000000, 4.000000, 4.000000, 4.000000, 4.000000, 4.000000, 4.000000, 4.000000, 4.000000, 4.000000, 4.000000, 4.000000, 4.000000, 4.000000, 4.000000
85.000000, 0.000000, 4261.025391, 4221.025391, 4157.948730, 4197.948730, 4195.897461, 4211.794922, 4222.051270, 4223.076660, 4211.794922, 4207.692383, 4203.076660, 4202.563965, 4207.179199, 4201.538574, 2333.000000, 8295.000000, 8101.000000, 0.000000, 0.000000, 0.000000, 16995.000000, 941.025635, 4.000000, 4.000000, 4.000000, 4.000000, 4.000000, 4.000000, 4.000000, 4.000000, 4.000000, 4.000000, 4.000000, 4.000000, 4.000000, 4.000000, 4.000000, 4.000000
86.000000, 0.000000, 4259.487305, 4215.897461, 4156.922852, 4197.436035, 4190.256348, 4200.512695, 4204.102539, 4222.563965, 4214.358887, 4205.127930, 4200.000000, 4197.436035, 4211.281738, 4199.487305, 3177.000000, 8295.000000, 8101.000000, 0.000000, 0.000000, 0.000000, 16995.000000, 949.230774, 4.000000, 4.000000, 4.000000, 4.000000, 4.000000, 4.000000, 4.000000, 4.000000, 4.000000, 4.000000, 4.000000, 4.000000, 4.000000, 4.000000, 4.000000, 4.000000
87.000000, 0.000000, 4267.179199, 4218.974121, 4172.820313, 4201.025391, 4213.846191, 4200.512695, 4196.410156, 4233.333008, 4224.102539, 4215.384277, 4214.871582, 4207.179199, 4222.563965, 4206.666504, 1903.000000, 8270.000000, 8175.000000, 0.000000, 0.000000, 0.000000, 16995.000000, 956.923035, 4.000000, 4.000000, 4.000000, 4.000000, 4.000000, 4.000000, 4.000000, 4.000000, 4.000000, 4.000000, 4.000000, 4.000000, 4.000000, 4.000000, 4.000000, 4.000000
88.000000, 0.000000, 4273.846191, 4220.512695, 4192.307617, 4203.076660, 4223.589844, 4209.743652, 4213.846191, 4227.179199, 4224.615234, 4218.461426, 4219.487305, 4207.179199, 4220.000000, 4205.127930, 3488.000000, 8270.000000, 8175.000000, 0.000000, 0.000000, 0.000000, 16995.000000, 965.128174, 4.000000, 4.000000, 4.000000, 4.000000, 4.000000, 4.000000, 4.000000, 4.000000, 4.000000, 4.000000, 4.000000, 4.000000, 4.000000, 4.000000, 4.000000, 4.000000
89.000000, 0.000000, 4268.205078, 4216.922852, 4183.589844, 4197.436035, 4214.871582, 4209.230469, 4215.384277, 4212.307617, 4213.333008, 4208.717773, 4206.666504, 4198.461426, 4208.205078, 4196.922852, 2333.000000, 8252.000000, 8211.000000, 0.000000, 0.000000, 0.000000, 16995.000000, 972.820496, 4.000000, 4.000000, 4.000000, 4.000000, 4.000000, 4.000000, 4.000000, 4.000000, 4.000000, 4.000000, 4.000000, 4.000000, 4.000000, 4.000000, 4.000000, 4.000000
90.000000, 0.000000, 4260.000000, 4201.025391, 4164.102539, 4185.641113, 4210.256348, 4198.974121, 4207.692383, 4201.538574, 4197.436035, 4194.871582, 4192.307617, 4191.794922, 4199.487305, 4195.384277, 3177.000000, 8252.000000, 8211.000000, 0.000000, 0.000000, 0.000000, 16995.000000, 981.025635, 4.000000, 4.000000, 4.000000, 4.000000, 4.000000, 4.000000, 4.000000, 4.000000, 4.000000, 4.000000, 4.000000, 4.000000, 4.000000, 4.000000, 4.000000, 4.000000
91.000000, 0.000000, 4258.461426, 4188.717773, 4162.563965, 4180.000000, 4207.692383, 4195.897461, 4214.358887, 4190.256348, 4183.076660, 4184.102539, 4188.205078, 4187.179199, 4195.897461, 4190.256348, 1903.000000, 8233.000000, 8232.000000, 0.000000, 0.000000, 0.000000, 16995.000000, 988.717896, 4.000000, 4.000000, 4.000000, 4.000000, 4.000000, 4.000000, 4.000000, 4.000000, 4.000000, 4.000000, 4.000000, 4.000000, 4.000000, 4.000000, 4.000000, 4.000000
92.000000, 0.000000, 4268.205078, 4195.897461, 4168.205078, 4190.256348, 4213.333008, 4207.692383, 4210.769043, 4189.743652, 4184.615234, 4188.205078, 4202.563965, 4203.589844, 4206.666504, 4203.076660, 3488.000000, 8233.000000, 8232.000000, 0.000000, 0.000000, 0.000000, 16995.000000, 996.410217, 4.000000, 4.000000, 4.000000, 4.000000, 4.000000, 4.000000, 4.000000, 4.000000, 4.000000, 4.000000, 4.000000, 4.000000, 4.000000, 4.000000, 4.000000, 4.000000
93.000000, 0.000000, 4278.461426, 4206.153809, 4165.641113, 4202.051270, 4222.051270, 4219.487305, 4205.641113, 4202.051270, 4196.922852, 4199.487305, 4222.051270, 4216.410156, 4220.000000, 4208.717773, 2333.000000, 8197.000000, 8243.000000, 0.000000, 0.000000, 0.000000, 16996.000000, 4.615385, 4.000000, 4.000000, 4.000000, 4.000000, 4.000000, 4.000000, 4.000000, 4.000000, 4.000000, 4.000000, 4.000000, 4.000000, 4.000000, 4.000000, 4.000000, 4.000000
94.000000, 0.000000, 4280.000000, 4204.102539, 4167.179199, 4202.051270, 4220.000000, 4215.897461, 4219.487305, 4206.666504, 4196.922852, 4192.307617, 4220.000000, 4216.410156, 4210.769043, 4197.436035, 3177.000000, 8197.000000, 8243.000000, 0.000000, 0.000000, 0.000000, 16996.000000, 12.307692, 4.000000, 4.000000, 4.000000, 4.000000, 4.000000, 4.000000, 4.000000, 4.000000, 4.000000, 4.000000, 4.000000, 4.000000, 4.000000, 4.000000, 4.000000, 4.000000
95.000000, 0.000000, 4270.769043, 4201.538574, 4167.692383, 4198.974121, 4215.897461, 4204.615234, 4220.512695, 4211.281738, 4201.025391, 4181.538574, 4209.230469, 4213.333008, 4198.461426, 4197.948730, 1903.000000, 8172.000000, 8239.000000, 0.000000, 0.000000, 0.000000, 16996.000000, 20.512819, 4.000000, 4.000000, 4.000000, 4.000000, 4.000000, 4.000000, 4.000000, 4.000000, 4.000000, 4.000000, 4.000000, 4.000000, 4.000000, 4.000000, 4.000000, 4.000000
96.000000, 0.000000, 4263.076660, 4207.692383, 4158.461426, 4198.974121, 4213.333008, 4199.487305, 4200.512695, 4226.153809, 4222.051270, 4189.743652, 4211.794922, 4203.589844, 4206.666504, 4195.384277, 3488.000000, 8172.000000, 8239.000000, 0.000000, 0.000000, 0.000000, 16996.000000, 28.205128, 4.000000, 4.000000, 4.000000, 4.000000, 4.000000, 4.000000, 4.000000, 4.000000, 4.000000, 4.000000, 4.000000, 4.000000, 4.000000, 4.000000, 4.000000, 4.000000
97.000000, 0.000000, 4260.512695, 4211.794922, 4186.153809, 4197.436035, 4217.948730, 4201.538574, 4196.922852, 4233.846191, 4234.358887, 4196.410156, 4215.384277, 4201.538574, 4213.846191, 4195.384277, 2333.000000, 8143.000000, 8190.000000, 0.000000, 0.000000, 0.000000, 16996.000000, 36.410255, 4.000000, 4.000000, 4.000000, 4.000000, 4.000000, 4.000000, 4.000000, 4.000000, 4.000000, 4.000000, 4.000000, 4.000000, 4.000000, 4.000000, 4.000000, 4.000000
98.000000, 0.000000, 4251.794922, 4213.846191, 4251.281738, 4196.410156, 4235.897461, 4208.717773, 4215.384277, 4231.281738, 4236.922852, 4200.000000, 4214.871582, 4198.461426, 4209.743652, 4194.871582, 3177.000000, 8143.000000, 8190.000000, 0.000000, 0.000000, 0.000000, 16996.000000, 44.102562, 4.000000, 4.000000, 4.000000, 4.000000, 4.000000, 4.000000, 4.000000, 4.000000, 4.000000, 4.000000, 4.000000, 4.000000, 4.000000, 4.000000, 4.000000, 4.000000
99.000000, 0.000000, 4249.230469, 4220.000000, 4294.871582, 4201.538574, 4244.615234, 4217.948730, 4221.025391, 4233.846191, 4246.666504, 4211.281738, 4220.000000, 4202.051270, 4215.897461, 4195.384277, 1903.000000, 8131.000000, 8166.000000, 0.000000, 0.000000, 0.000000, 16996.000000, 51.794872, 4.000000, 4.000000, 4.000000, 4.000000, 4.000000, 4.000000, 4.000000, 4.000000, 4.000000, 4.000000, 4.000000, 4.000000, 4.000000, 4.000000, 4.000000, 4.000000
100.000000, 0.000000, 4246.666504, 4217.436035, 4296.922852, 4198.461426, 4233.846191, 4219.487305, 4215.897461, 4233.333008, 4245.641113, 4208.717773, 4220.512695, 4206.666504, 4216.410156, 4201.025391, 3488.000000, 8131.000000, 8166.000000, 0.000000, 0.000000, 0.000000, 16996.000000, 59.487179, 4.000000, 4.000000, 4.000000, 4.000000, 4.000000, 4.000000, 4.000000, 4.000000, 4.000000, 4.000000, 4.000000, 4.000000, 4.000000, 4.000000, 4.000000, 4.000000
101.000000, 0.000000, 4237.948730, 4215.384277, 4288.205078, 4192.307617, 4229.230469, 4219.487305, 4227.179199, 4221.538574, 4229.743652, 4195.897461, 4213.333008, 4200.000000, 4202.563965, 4196.922852, 2333.000000, 8130.000000, 8136.000000, 0.000000, 0.000000, 0.000000, 16996.000000, 67.692307, 4.000000, 4.000000, 4.000000, 4.000000, 4.000000, 4.000000, 4.000000, 4.000000, 4.000000, 4.000000, 4.000000, 4.000000, 4.000000, 4.000000, 4.000000, 4.000000
102.000000, 0.000000, 4237.948730, 4227.179199, 4291.281738, 4197.436035, 4232.307617, 4218.974121, 4235.897461, 4217.436035, 4220.512695, 4194.358887, 4212.820313, 4206.666504, 4203.589844, 4200.512695, 3177.000000, 8130.000000, 8136.000000, 0.000000, 0.000000, 0.000000, 16996.000000, 75.897430, 4.000000, 4.000000, 4.000000, 4.000000, 4.000000, 4.000000, 4.000000, 4.000000, 4.000000, 4.000000, 4.000000, 4.000000, 4.000000, 4.000000, 4.000000, 4.000000
103.000000, 0.000000, 4239.487305, 4228.205078, 4292.820313, 4202.051270, 4232.307617, 4207.179199, 4217.436035, 4214.871582, 4214.358887, 4193.846191, 4215.897461, 4207.692383, 4212.820313, 4203.076660, 1903.000000, 8135.000000, 8089.000000, 0.000000, 0.000000, 0.000000, 16996.000000, 83.589745, 4.000000, 4.000000, 4.000000, 4.000000, 4.000000, 4.000000, 4.000000, 4.000000, 4.000000, 4.000000, 4.000000, 4.000000, 4.000000, 4.000000, 4.000000, 4.000000
104.000000, 0.000000, 4237.436035, 4217.948730, 4287.179199, 4200.512695, 4230.256348, 4198.974121, 4204.615234, 4202.563965, 4199.487305, 4185.641113, 4209.230469, 4203.589844, 4205.641113, 4196.410156, 3488.000000, 8135.000000, 8089.000000, 0.000000, 0.000000, 0.000000, 16996.000000, 91.282051, 4.000000, 4.000000, 4.000000, 4.000000, 4.000000, 4.000000, 4.000000, 4.000000, 4.000000, 4.000000, 4.000000, 4.000000, 4.000000, 4.000000, 4.000000, 4.000000
105.000000, 0.000000, 4233.333008, 4220.000000, 4285.641113, 4200.512695, 4225.641113, 4206.153809, 4209.230469, 4199.487305, 4184.615234, 4176.922852, 4202.051270, 4212.307617, 4199.487305, 4202.051270, 2333.000000, 8142.000000, 8072.000000, 0.000000, 0.000000, 0.000000, 16996.000000, 99.487175, 4.000000, 4.000000, 4.000000, 4.000000, 4.000000, 4.000000, 4.000000, 4.000000, 4.000000, 4.000000, 4.000000, 4.000000, 4.000000, 4.000000, 4.000000, 4.000000
106.000000, 0.000000, 4226.666504, 4223.076660, 4284.102539, 4201.538574, 4218.461426, 4202.051270, 4202.051270, 4201.538574, 4181.025391, 4175.384277, 4203.076660, 4209.230469, 4203.076660, 4198.974121, 3177.000000, 8142.000000, 8072.000000, 0.000000, 0.000000, 0.000000, 16996.000000, 107.179482, 4.000000, 4.000000, 4.000000, 4.000000, 4.000000, 4.000000, 4.000000, 4.000000, 4.000000, 4.000000, 4.000000, 4.000000, 4.000000, 4.000000, 4.000000, 4.000000
107.000000, 0.000000, 4223.589844, 4214.358887, 4285.641113, 4198.974121, 4213.846191, 4196.922852, 4201.025391, 4203.589844, 4193.846191, 4185.127930, 4208.717773, 4211.794922, 4204.615234, 4200.000000, 1903.000000, 8164.000000, 8069.000000, 0.000000, 0.000000, 0.000000, 16996.000000, 115.384613, 4.000000, 4.000000, 4.000000, 4.000000, 4.000000, 4.000000, 4.000000, 4.000000, 4.000000, 4.000000, 4.000000, 4.000000, 4.000000, 4.000000, 4.000000, 4.000000
108.000000, 0.000000, 4224.102539, 4211.794922, 4286.666504, 4199.487305, 4222.051270, 4212.307617, 4221.025391, 4217.436035, 4216.410156, 4202.563965, 4217.948730, 4222.051270, 4205.127930, 4205.641113, 3488.000000, 8164.000000, 8069.000000, 0.000000, 0.000000, 0.000000, 16996.000000, 123.076920, 4.000000, 4.000000, 4.000000, 4.000000, 4.000000, 4.000000, 4.000000, 4.000000, 4.000000, 4.000000, 4.000000, 4.000000, 4.000000, 4.000000, 4.000000, 4.000000
109.000000, 0.000000, 4225.641113, 4216.410156, 4276.410156, 4200.512695, 4220.512695, 4217.436035, 4224.102539, 4227.692383, 4222.563965, 4204.615234, 4217.948730, 4218.974121, 4204.102539, 4198.974121, 2333.000000, 8174.000000, 8072.000000, 0.000000, 0.000000, 0.000000, 16996.000000, 131.282043, 4.000000, 4.000000, 4.000000, 4.000000, 4.000000, 4.000000, 4.000000, 4.000000, 4.000000, 4.000000, 4.000000, 4.000000, 4.000000, 4.000000, 4.000000, 4.000000
110.000000, 0.000000, 4217.436035, 4216.922852, 4261.538574, 4194.358887, 4199.487305, 4195.897461, 4205.127930, 4211.281738, 4204.615234, 4188.205078, 4201.025391, 4211.281738, 4196.922852, 4197.436035, 3177.000000, 8174.000000, 8072.000000, 0.000000, 0.000000, 0.000000, 16996.000000, 138.974350, 4.000000, 4.000000, 4.000000, 4.000000, 4.000000, 4.000000, 4.000000, 4.000000, 4.000000, 4.000000, 4.000000, 4.000000, 4.000000, 4.000000, 4.000000, 4.000000
111.000000, 0.000000, 4210.769043, 4216.922852, 4252.820313, 4190.769043, 4198.974121, 4188.205078, 4197.436035, 4200.512695, 4200.512695, 4184.615234, 4192.307617, 4203.589844, 4195.384277, 4196.410156, 1903.000000, 8181.000000, 8083.000000, 0.000000, 0.000000, 0.000000, 16996.000000, 146.666656, 4.000000, 4.000000, 4.000000, 4.000000, 4.000000, 4.000000, 4.000000, 4.000000, 4.000000, 4.000000, 4.000000, 4.000000, 4.000000, 4.000000, 4.000000, 4.000000
112.000000, 0.000000, 4214.358887, 4217.436035, 4255.897461, 4191.281738, 4216.410156, 4202.051270, 4205.127930, 4212.820313, 4213.333008, 4197.436035, 4198.974121, 4208.717773, 4196.922852, 4198.974121, 3488.000000, 8181.000000, 8083.000000, 0.000000, 0.000000, 0.000000, 16996.000000, 154.358963, 4.000000, 4.000000, 4.000000, 4.000000, 4.000000, 4.000000, 4.000000, 4.000000, 4.000000, 4.000000, 4.000000, 4.000000, 4.000000, 4.000000, 4.000000, 4.000000
113.000000, 0.000000, 4210.769043, 4209.743652, 4261.538574, 4190.769043, 4212.307617, 4203.589844, 4203.076660, 4218.974121, 4210.256348, 4203.076660, 4200.000000, 4213.333008, 4194.871582, 4204.615234, 2333.000000, 8200.000000, 8100.000000, 0.000000, 0.000000, 0.000000, 16996.000000, 162.564102, 4.000000, 4.000000, 4.000000, 4.000000, 4.000000, 4.000000, 4.000000, 4.000000, 4.000000, 4.000000, 4.000000, 4.000000, 4.000000, 4.000000, 4.000000, 4.000000
114.000000, 0.000000, 4207.692383, 4208.717773, 4260.000000, 4189.230469, 4197.948730, 4194.871582, 4194.871582, 4211.794922, 4204.102539, 4199.487305, 4196.410156, 4210.769043, 4195.897461, 4199.487305, 3177.000000, 8200.000000, 8100.000000, 0.000000, 0.000000, 0.000000, 16996.000000, 170.769226, 4.000000, 4.000000, 4.000000, 4.000000, 4.000000, 4.000000, 4.000000, 4.000000, 4.000000, 4.000000, 4.000000, 4.000000, 4.000000, 4.000000, 4.000000, 4.000000
115.000000, 0.000000, 4212.307617, 4218.461426, 4261.025391, 4191.794922, 4197.436035, 4196.922852, 4197.436035, 4209.230469, 4210.256348, 4198.974121, 4199.487305, 4218.461426, 4200.512695, 4206.153809, 1903.000000, 8206.000000, 8109.000000, 0.000000, 0.000000, 0.000000, 16996.000000, 178.461533, 4.000000, 4.000000, 4.000000, 4.000000, 4.000000, 4.000000, 4.000000, 4.000000, 4.000000, 4.000000, 4.000000, 4.000000, 4.000000, 4.000000, 4.000000, 4.000000
116.000000, 0.000000, 4213.846191, 4230.256348, 4266.153809, 4196.922852, 4204.615234, 4203.076660, 4202.051270, 4214.871582, 4212.820313, 4202.051270, 4200.512695, 4220.512695, 4201.538574, 4206.153809, 3488.000000, 8206.000000, 8109.000000, 0.000000, 0.000000, 0.000000, 16996.000000, 186.153839, 4.000000, 4.000000, 4.000000, 4.000000, 4.000000, 4.000000, 4.000000, 4.000000, 4.000000, 4.000000, 4.000000, 4.000000, 4.000000, 4.000000, 4.000000, 4.000000
117.000000, 0.000000, 4215.384277, 4237.436035, 4269.230469, 4200.000000, 4212.307617, 4201.025391, 4200.000000, 4215.897461, 4202.051270, 4194.871582, 4196.922852, 4221.538574, 4199.487305, 4202.051270, 2333.000000, 8212.000000, 8140.000000, 0.000000, 0.000000, 0.000000, 16996.000000, 194.358963, 4.000000, 4.000000, 4.000000, 4.000000, 4.000000, 4.000000, 4.000000, 4.000000, 4.000000, 4.000000, 4.000000, 4.000000, 4.000000, 4.000000, 4.000000, 4.000000
118.000000, 0.000000, 4217.948730, 4240.000000, 4268.717773, 4202.051270, 4211.281738, 4197.948730, 4200.000000, 4212.307617, 4194.358887, 4185.127930, 4198.974121, 4216.922852, 4197.436035, 4206.153809, 3177.000000, 8212.000000, 8140.000000, 0.000000, 0.000000, 0.000000, 16996.000000, 202.051270, 4.000000, 4.000000, 4.000000, 4.000000, 4.000000, 4.000000, 4.000000, 4.000000, 4.000000, 4.000000, 4.000000, 4.000000, 4.000000, 4.000000, 4.000000, 4.000000
119.000000, 0.000000, 4215.384277, 4243.589844, 4264.102539, 4203.589844, 4205.641113, 4201.025391, 4209.743652, 4216.410156, 4204.102539, 4189.743652, 4203.076660, 4208.717773, 4196.922852, 4202.051270, 1903.000000, 8210.000000, 8160.000000, 0.000000, 0.000000, 0.000000, 16996.000000, 210.256409, 4.000000, 4.000000, 4.000000, 4.000000, 4.000000, 4.000000, 4.000000, 4.000000, 4.000000, 4.000000, 4.000000, 4.000000, 4.000000, 4.000000, 4.000000, 4.000000
120.000000, 0.000000, 4212.307617, 4247.179199, 4262.563965, 4203.076660, 4212.307617, 4203.589844, 4212.820313, 4221.025391, 4214.358887, 4200.512695, 4203.589844, 4216.410156, 4196.922852, 4204.615234, 3488.000000, 8210.000000, 8160.000000, 0.000000, 0.000000, 0.000000, 16996.000000, 217.948715, 4.000000, 4.000000, 4.000000, 4.000000, 4.000000, 4.000000, 4.000000, 4.000000, 4.000000, 4.000000, 4.000000, 4.000000, 4.000000, 4.000000, 4.000000, 4.000000
121.000000, 0.000000, 4204.102539, 4241.025391, 4260.000000, 4196.922852, 4212.820313, 4202.563965, 4206.153809, 4221.025391, 4209.743652, 4195.384277, 4195.384277, 4211.281738, 4190.769043, 4198.974121, 2333.000000, 8217.000000, 8198.000000, 0.000000, 0.000000, 0.000000, 16996.000000, 225.641022, 4.000000, 4.000000, 4.000000, 4.000000, 4.000000, 4.000000, 4.000000, 4.000000, 4.000000, 4.000000, 4.000000, 4.000000, 4.000000, 4.000000, 4.000000, 4.000000
122.000000, 0.000000, 4197.948730, 4231.794922, 4265.641113, 4193.333008, 4194.871582, 4201.538574, 4206.153809, 4218.974121, 4201.538574, 4184.102539, 4187.692383, 4202.563965, 4183.589844, 4195.384277, 3177.000000, 8217.000000, 8198.000000, 0.000000, 0.000000, 0.000000, 16996.000000, 233.846146, 4.000000, 4.000000, 4.000000, 4.000000, 4.000000, 4.000000, 4.000000, 4.000000, 4.000000, 4.000000, 4.000000, 4.000000, 4.000000, 4.000000, 4.000000, 4.000000
123.000000, 0.000000, 4202.051270, 4232.307617, 4274.358887, 4197.948730, 4193.846191, 4202.563965, 4214.871582, 4215.897461, 4205.127930, 4187.692383, 4188.205078, 4205.641113, 4188.717773, 4206.666504, 1903.000000, 8232.000000, 8200.000000, 0.000000, 0.000000, 0.000000, 16996.000000, 241.538452, 4.000000, 4.000000, 4.000000, 4.000000, 4.000000, 4.000000, 4.000000, 4.000000, 4.000000, 4.000000, 4.000000, 4.000000, 4.000000, 4.000000, 4.000000, 4.000000
124.000000, 0.000000, 4205.127930, 4235.897461, 4269.743652, 4199.487305, 4210.769043, 4204.102539, 4223.076660, 4210.256348, 4205.641113, 4191.794922, 4189.743652, 4203.076660, 4195.384277, 4202.051270, 3488.000000, 8232.000000, 8200.000000, 0.000000, 0.000000, 0.000000, 16996.000000, 249.230759, 4.000000, 4.000000, 4.000000, 4.000000, 4.000000, 4.000000, 4.000000, 4.000000, 4.000000, 4.000000, 4.000000, 4.000000, 4.000000, 4.000000, 4.000000, 4.000000
125.000000, 0.000000, 4204.615234, 4235.897461, 4276.410156, 4196.410156, 4212.820313, 4201.538574, 4212.307617, 4205.127930, 4198.974121, 4184.615234, 4188.205078, 4207.692383, 4196.410156, 4201.538574, 2333.000000, 8236.000000, 8199.000000, 0.000000, 0.000000, 0.000000, 16996.000000, 257.435883, 4.000000, 4.000000, 4.000000, 4.000000, 4.000000, 4.000000, 4.000000, 4.000000, 4.000000, 4.000000, 4.000000, 4.000000, 4.000000, 4.000000, 4.000000, 4.000000
126.000000, 0.000000, 4207.179199, 4240.000000, 4298.461426, 4200.512695, 4210.256348, 4201.538574, 4189.743652, 4198.974121, 4200.000000, 4184.615234, 4190.256348, 4209.230469, 4197.436035, 4205.127930, 3177.000000, 8236.000000, 8199.000000, 0.000000, 0.000000, 0.000000, 16996.000000, 265.128204, 4.000000, 4.000000, 4.000000, 4.000000, 4.000000, 4.000000, 4.000000, 4.000000, 4.000000, 4.000000, 4.000000, 4.000000, 4.000000, 4.000000, 4.000000, 4.000000
127.000000, 0.000000, 4212.820313, 4234.871582, 4321.538574, 4205.127930, 4216.922852, 4207.692383, 4188.717773, 4198.461426, 4200.512695, 4188.205078, 4191.794922, 4210.256348, 4201.538574, 4205.127930, 55.000000, 8255.000000, 8173.000000, 0.000000, 0.000000, 0.000000, 16996.000000, 273.333313, 4.000000, 4.000000, 4.000000, 4.000000, 4.000000, 4.000000, 4.000000, 4.000000, 4.000000, 4.000000, 4.000000, 4.000000, 4.000000, 4.000000, 4.000000, 4.000000
0.000000, 0.000000, 4207.179199, 4222.563965, 4332.307617, 4200.000000, 4212.307617, 4207.692383, 4206.153809, 4201.025391, 4191.281738, 4177.436035, 4187.692383, 4210.256348, 4197.948730, 4204.615234, 3311.000000, 8255.000000, 8173.000000, 0.000000, 0.000000, 0.000000, 16996.000000, 281.025635, 4.000000, 4.000000, 4.000000, 4.000000, 4.000000, 4.000000, 4.000000, 4.000000, 4.000000, 4.000000, 4.000000, 4.000000, 4.000000, 4.000000, 4.000000, 4.000000
1.000000, 0.000000, 4198.974121, 4223.076660, 4317.436035, 4195.897461, 4196.410156, 4202.051270, 4202.563965, 4199.487305, 4186.153809, 4171.281738, 4182.051270, 4198.461426, 4192.307617, 4195.384277, 3533.000000, 8257.000000, 8157.000000, 0.000000, 0.000000, 0.000000, 16996.000000, 288.717957, 4.000000, 4.000000, 4.000000, 4.000000, 4.000000, 4.000000, 4.000000, 4.000000, 4.000000, 4.000000, 4.000000, 4.000000, 4.000000, 4.000000, 4.000000, 4.000000
2.000000, 0.000000, 4204.102539, 4231.281738, 4302.051270, 4198.461426, 4204.615234, 4200.000000, 4193.333008, 4205.127930, 4193.333008, 4180.512695, 4181.025391, 4203.589844, 4196.922852, 4203.589844, 2792.000000, 8257.000000, 8157.000000, 0.000000, 0.000000, 0.000000, 16996.000000, 296.923065, 4.000000, 4.000000, 4.000000, 4.000000, 4.000000, 4.000000, 4.000000, 4.000000, 4.000000, 4.000000, 4.000000, 4.000000, 4.000000, 4.000000, 4.000000, 4.000000
3.000000, 0.000000, 4210.256348, 4235.897461, 4304.615234, 4203.076660, 4221.025391, 4203.589844, 4204.102539, 4215.384277, 4204.102539, 4190.769043, 4191.794922, 4210.256348, 4205.127930, 4210.256348, 3554.000000, 8250.000000, 8137.000000, 0.000000, 0.000000, 0.000000, 16996.000000, 304.615387, 4.000000, 4.000000, 4.000000, 4.000000, 4.000000, 4.000000, 4.000000, 4.000000, 4.000000, 4.000000, 4.000000, 4.000000, 4.000000, 4.000000, 4.000000, 4.000000
4.000000, 0.000000, 4211.794922, 4233.846191, 4309.230469, 4206.153809, 4209.230469, 4210.256348, 4207.692383, 4220.000000, 4215.897461, 4196.922852, 4201.538574, 4210.256348, 4203.076660, 4203.076660, 3534.000000, 8250.000000, 8137.000000, 0.000000, 0.000000, 0.000000, 16996.000000, 312.820496, 4.000000, 4.000000, 4.000000, 4.000000, 4.000000, 4.000000, 4.000000, 4.000000, 4.000000, 4.000000, 4.000000, 4.000000, 4.000000, 4.000000, 4.000000, 4.000000
5.000000, 0.000000, 4207.692383, 4229.230469, 4308.205078, 4202.563965, 4200.512695, 4214.358887, 4200.512695, 4219.487305, 4218.974121, 4194.871582, 4196.410156, 4210.256348, 4195.897461, 4204.102539, 3536.000000, 8237.000000, 8130.000000, 0.000000, 0.000000, 0.000000, 16996.000000, 320.512817, 4.000000, 4.000000, 4.000000, 4.000000, 4.000000, 4.000000, 4.000000, 4.000000, 4.000000, 4.000000, 4.000000, 4.000000, 4.000000, 4.000000, 4.000000, 4.000000
6.000000, 0.000000, 4203.589844, 4229.230469, 4308.205078, 4197.948730, 4216.922852, 4209.743652, 4200.512695, 4212.820313, 4208.717773, 4188.717773, 4192.307617, 4204.615234, 4195.384277, 4203.589844, 3458.000000, 8237.000000, 8130.000000, 0.000000, 0.000000, 0.000000, 16996.000000, 328.717926, 4.000000, 4.000000, 4.000000, 4.000000, 4.000000, 4.000000, 4.000000, 4.000000, 4.000000, 4.000000, 4.000000, 4.000000, 4.000000, 4.000000, 4.000000, 4.000000
7.000000, 0.000000, 4205.641113, 4230.769043, 4306.153809, 4197.436035, 4224.615234, 4201.025391, 4204.102539, 4207.692383, 4208.717773, 4188.717773, 4195.897461, 4208.717773, 4196.922852, 4207.179199, 3199.000000, 8226.000000, 8127.000000, 0.000000, 0.000000, 0.000000, 16996.000000, 336.410248, 4.000000, 4.000000, 4.000000, 4.000000, 4.000000, 4.000000, 4.000000, 4.000000, 4.000000, 4.000000, 4.000000, 4.000000, 4.000000, 4.000000, 4.000000, 4.000000
8.000000, 0.000000, 4204.102539, 4231.281738, 4306.153809, 4201.538574, 4216.922852, 4203.076660, 4203.589844, 4211.281738, 4216.922852, 4192.307617, 4197.436035, 4210.256348, 4196.410156, 4208.717773, 3537.000000, 8226.000000, 8127.000000, 0.000000, 0.000000, 0.000000, 16996.000000, 344.102570, 4.000000, 4.000000, 4.000000, 4.000000, 4.000000, 4.000000, 4.000000, 4.000000, 4.000000, 4.000000, 4.000000, 4.000000, 4.000000, 4.000000, 4.000000, 4.000000
9.000000, 0.000000, 4207.692383, 4233.333008, 4316.922852, 4209.230469, 4217.948730, 4208.717773, 4202.563965, 4211.281738, 4212.307617, 4194.358887, 4201.025391, 4211.794922, 4197.948730, 4205.127930, 3535.000000, 8207.000000, 8116.000000, 0.000000, 0.000000, 0.000000, 16996.000000, 352.307678, 4.000000, 4.000000, 4.000000, 4.000000, 4.000000, 4.000000, 4.000000, 4.000000, 4.000000, 4.000000, 4.000000, 4.000000, 4.000000, 4.000000, 4.000000, 4.000000
10.000000, 0.000000, 4214.871582, 4234.358887, 4324.102539, 4211.794922, 4224.615234, 4207.179199, 4203.589844, 4211.794922, 4207.692383, 4195.897461, 4204.615234, 4217.948730, 4200.000000, 4208.205078, 3179.000000, 8207.000000, 8116.000000, 0.000000, 0.000000, 0.000000, 16996.000000, 360.000000, 4.000000, 4.000000, 4.000000, 4.000000, 4.000000, 4.000000, 4.000000, 4.000000, 4.000000, 4.000000, 4.000000, 4.000000, 4.000000, 4.000000, 4.000000, 4.000000
11.000000, 0.000000, 4212.307617, 4234.358887, 4323.076660, 4209.743652, 4229.743652, 4199.487305, 4197.948730, 4220.512695, 4216.922852, 4197.948730, 4203.076660, 4214.871582, 4198.974121, 4202.563965, 1904.000000, 8192.000000, 8114.000000, 0.000000, 0.000000, 0.000000, 16996.000000, 368.205109, 4.000000, 4.000000, 4.000000, 4.000000, 4.000000, 4.000000, 4.000000, 4.000000, 4.000000, 4.000000, 4.000000, 4.000000, 4.000000, 4.000000, 4.000000, 4.000000
12.000000, 0.000000, 4212.820313, 4240.512695, 4326.666504, 4210.769043, 4231.281738, 4195.897461, 4195.384277, 4226.153809, 4218.461426, 4198.461426, 4209.230469, 4223.076660, 4199.487305, 4207.179199, 3488.000000, 8192.000000, 8114.000000, 0.000000, 0.000000, 0.000000, 16996.000000, 375.897430, 4.000000, 4.000000, 4.000000, 4.000000, 4.000000, 4.000000, 4.000000, 4.000000, 4.000000, 4.000000, 4.000000, 4.000000, 4.000000, 4.000000, 4.000000, 4.000000
13.000000, 0.000000, 4218.974121, 4249.743652, 4321.538574, 4213.846191, 4222.563965, 4200.000000, 4200.000000, 4222.051270, 4215.384277, 4201.538574, 4218.461426, 4228.205078, 4203.589844, 4212.307617, 2332.000000, 8184.000000, 8108.000000, 0.000000, 0.000000, 0.000000, 16996.000000, 383.589722, 4.000000, 4.000000, 4.000000, 4.000000, 4.000000, 4.000000, 4.000000, 4.000000, 4.000000, 4.000000, 4.000000, 4.000000, 4.000000, 4.000000, 4.000000, 4.000000
14.000000, 0.000000, 4217.436035, 4251.281738, 4312.307617, 4212.820313, 4221.025391, 4202.563965, 4201.538574, 4223.076660, 4225.127930, 4208.717773, 4217.948730, 4222.563965, 4202.051270, 4202.051270, 3179.000000, 8184.000000, 8108.000000, 0.000000, 0.000000, 0.000000, 16996.000000, 391.282043, 4.000000, 4.000000, 4.000000, 4.000000, 4.000000, 4.000000, 4.000000, 4.000000, 4.000000, 4.000000, 4.000000, 4.000000, 4.000000, 4.000000, 4.000000, 4.000000
15.000000, 0.000000, 4212.820313, 4243.589844, 4316.922852, 4208.717773, 4226.153809, 4201.025391, 4199.487305, 4231.281738, 4233.846191, 4210.256348, 4216.922852, 4226.666504, 4196.922852, 4205.641113, 1904.000000, 8201.000000, 8104.000000, 0.000000, 0.000000, 0.000000, 16996.000000, 399.487183, 4.000000, 4.000000, 4.000000, 4.000000, 4.000000, 4.000000, 4.000000, 4.000000, 4.000000, 4.000000, 4.000000, 4.000000, 4.000000, 4.000000, 4.000000, 4.000000
16.000000, 0.000000, 4211.281738, 4240.000000, 4301.025391, 4207.179199, 4217.436035, 4201.025391, 4200.000000, 4225.641113, 4229.743652, 4205.641113, 4214.871582, 4223.076660, 4196.922852, 4203.589844, 0.000000, 8201.000000, 8104.000000, 0.000000, 0.000000, 0.000000, 16996.000000, 407.179474, 4.000000, 4.000000, 4.000000, 4.000000, 4.000000, 4.000000, 4.000000, 4.000000, 4.000000, 4.000000, 4.000000, 4.000000, 4.000000, 4.000000, 4.000000, 4.000000
17.000000, 0.000000, 4209.743652, 4238.461426, 4263.589844, 4203.076660, 4210.256348, 4201.025391, 4198.461426, 4207.179199, 4215.897461, 4199.487305, 4205.127930, 4219.487305, 4194.871582, 4197.436035, 0.000000, 8236.000000, 8111.000000, 0.000000, 0.000000, 0.000000, 16996.000000, 415.384613, 4.000000, 4.000000, 4.000000, 4.000000, 4.000000, 4.000000, 4.000000, 4.000000, 4.000000, 4.000000, 4.000000, 4.000000, 4.000000, 4.000000, 4.000000, 4.000000
18.000000, 0.000000, 4200.000000, 4234.871582, 4256.922852, 4198.461426, 4222.563965, 4203.076660, 4200.000000, 4198.461426, 4202.051270, 4191.794922, 4198.974121, 4216.410156, 4188.717773, 4198.974121, 0.000000, 8236.000000, 8111.000000, 0.000000, 0.000000, 0.000000, 16996.000000, 423.076904, 4.000000, 4.000000, 4.000000, 4.000000, 4.000000, 4.000000, 4.000000, 4.000000, 4.000000, 4.000000, 4.000000, 4.000000, 4.000000, 4.000000, 4.000000, 4.000000
19.000000, 0.000000, 4195.384277, 4232.820313, 4281.025391, 4199.487305, 4233.333008, 4203.076660, 4203.589844, 4203.589844, 4201.025391, 4189.743652, 4201.025391, 4212.307617, 4190.256348, 4197.436035, 0.000000, 8252.000000, 8114.000000, 0.000000, 0.000000, 0.000000, 16996.000000, 430.769226, 4.000000, 4.000000, 4.000000, 4.000000, 4.000000, 4.000000, 4.000000, 4.000000, 4.000000, 4.000000, 4.000000, 4.000000, 4.000000, 4.000000, 4.000000, 4.000000
20.000000, 0.000000, 4200.000000, 4224.102539, 4294.871582, 4199.487305, 4223.076660, 4200.512695, 4200.512695, 4206.153809, 4208.717773, 4196.410156, 4202.563965, 4221.538574, 4195.384277, 4204.615234, 0.000000, 8252.000000, 8114.000000, 0.000000, 0.000000, 0.000000, 16996.000000, 438.461517, 4.000000, 4.000000, 4.000000, 4.000000, 4.000000, 4.000000, 4.000000, 4.000000, 4.000000, 4.000000, 4.000000, 4.000000, 4.000000, 4.000000, 4.000000, 4.000000
21.000000, 0.000000, 4196.410156, 4221.538574, 4294.358887, 4200.000000, 4214.358887, 4198.461426, 4198.974121, 4202.563965, 4206.666504, 4196.922852, 4201.025391, 4220.512695, 4190.256348, 4202.051270, 0.000000, 8269.000000, 8119.000000, 0.000000, 0.000000, 0.000000, 16996.000000, 446.666656, 4.000000, 4.000000, 4.000000, 4.000000, 4.000000, 4.000000, 4.000000, 4.000000, 4.000000, 4.000000, 4.000000, 4.000000, 4.000000, 4.000000, 4.000000, 4.000000
22.000000, 0.000000, 4198.461426, 4237.948730, 4297.436035, 4206.666504, 4220.000000, 4198.461426, 4196.922852, 4200.000000, 4196.410156, 4190.769043, 4198.974121, 4216.410156, 4186.153809, 4200.000000, 0.000000, 8269.000000, 8119.000000, 0.000000, 0.000000, 0.000000, 16996.000000, 454.358978, 4.000000, 4.000000, 4.000000, 4.000000, 4.000000, 4.000000, 4.000000, 4.000000, 4.000000, 4.000000, 4.000000, 4.000000, 4.000000, 4.000000, 4.000000, 4.000000
23.000000, 0.000000, 4204.102539, 4251.794922, 4301.025391, 4213.333008, 4226.153809, 4202.563965, 4185.641113, 4198.461426, 4196.922852, 4195.897461, 4198.974121, 4214.871582, 4190.769043, 4207.692383, 0.000000, 8301.000000, 8131.000000, 0.000000, 0.000000, 0.000000, 16996.000000, 462.564087, 4.000000, 4.000000, 4.000000, 4.000000, 4.000000, 4.000000, 4.000000, 4.000000, 4.000000, 4.000000, 4.000000, 4.000000, 4.000000, 4.000000, 4.000000, 4.000000
24.000000, 0.000000, 4202.051270, 4249.743652, 4299.487305, 4216.410156, 4226.666504, 4204.615234, 4181.538574, 4201.538574, 4203.076660, 4201.538574, 4198.974121, 4211.794922, 4189.743652, 4204.102539, 0.000000, 8301.000000, 8131.000000, 0.000000, 0.000000, 0.000000, 16996.000000, 470.256409, 4.000000, 4.000000, 4.000000, 4.000000, 4.000000, 4.000000, 4.000000, 4.000000, 4.000000, 4.000000, 4.000000, 4.000000, 4.000000, 4.000000, 4.000000, 4.000000
25.000000, 0.000000, 4199.487305, 4242.563965, 4299.487305, 4212.820313, 4224.615234, 4203.589844, 4194.871582, 4203.589844, 4198.974121, 4197.436035, 4195.897461, 4216.922852, 4185.127930, 4204.615234, 0.000000, 8318.000000, 8139.000000, 0.000000, 0.000000, 0.000000, 16996.000000, 477.948700, 4.000000, 4.000000, 4.000000, 4.000000, 4.000000, 4.000000, 4.000000, 4.000000, 4.000000, 4.000000, 4.000000, 4.000000, 4.000000, 4.000000, 4.000000, 4.000000
26.000000, 0.000000, 4198.974121, 4241.025391, 4293.846191, 4206.666504, 4221.538574, 4207.692383, 4202.563965, 4207.692383, 4202.051270, 4199.487305, 4197.948730, 4214.358887, 4189.743652, 4201.538574, 0.000000, 8318.000000, 8139.000000, 0.000000, 0.000000, 0.000000, 16996.000000, 486.153839, 4.000000, 4.000000, 4.000000, 4.000000, 4.000000, 4.000000, 4.000000, 4.000000, 4.000000, 4.000000, 4.000000, 4.000000, 4.000000, 4.000000, 4.000000, 4.000000
27.000000, 0.000000, 4199.487305, 4240.512695, 4289.743652, 4208.205078, 4215.897461, 4207.179199, 4200.512695, 4210.256348, 4208.205078, 4202.051270, 4201.025391, 4212.307617, 4189.743652, 4200.000000, 0.000000, 8350.000000, 8150.000000, 0.000000, 0.000000, 0.000000, 16996.000000, 493.846130, 4.000000, 4.000000, 4.000000, 4.000000, 4.000000, 4.000000, 4.000000, 4.000000, 4.000000, 4.000000, 4.000000, 4.000000, 4.000000, 4.000000, 4.000000, 4.000000
28.000000, 0.000000, 4196.410156, 4239.487305, 4292.307617, 4211.281738, 4216.922852, 4198.461426, 4198.974121, 4208.717773, 4204.615234, 4196.410156, 4195.384277, 4213.333008, 4186.666504, 4207.179199, 0.000000, 8350.000000, 8150.000000, 0.000000, 0.000000, 0.000000, 16996.000000, 501.538452, 4.000000, 4.000000, 4.000000, 4.000000, 4.000000, 4.000000, 4.000000, 4.000000, 4.000000, 4.000000, 4.000000, 4.000000, 4.000000, 4.000000, 4.000000, 4.000000
29.000000, 0.000000, 4194.871582, 4234.358887, 4295.384277, 4207.179199, 4223.589844, 4200.000000, 4199.487305, 4211.281738, 4205.127930, 4195.897461, 4193.846191, 4210.769043, 4189.743652, 4200.512695, 0.000000, 8369.000000, 8153.000000, 0.000000, 0.000000, 0.000000, 16996.000000, 509.743591, 4.000000, 4.000000, 4.000000, 4.000000, 4.000000, 4.000000, 4.000000, 4.000000, 4.000000, 4.000000, 4.000000, 4.000000, 4.000000, 4.000000, 4.000000, 4.000000
30.000000, 0.000000, 4197.436035, 4232.307617, 4295.897461, 4202.051270, 4211.281738, 4205.127930, 4200.000000, 4208.717773, 4205.641113, 4194.871582, 4196.922852, 4216.410156, 4190.256348, 4200.000000, 0.000000, 8369.000000, 8153.000000, 0.000000, 0.000000, 0.000000, 16996.000000, 517.435913, 4.000000, 4.000000, 4.000000, 4.000000, 4.000000, 4.000000, 4.000000, 4.000000, 4.000000, 4.000000, 4.000000, 4.000000, 4.000000, 4.000000, 4.000000, 4.000000
31.000000, 0.000000, 4196.410156, 4233.333008, 4293.846191, 4202.051270, 4198.974121, 4200.512695, 4199.487305, 4198.974121, 4198.974121, 4192.307617, 4194.871582, 4211.281738, 4186.153809, 4203.076660, 0.000000, 8377.000000, 8152.000000, 0.000000, 0.000000, 0.000000, 16996.000000, 525.640991, 4.000000, 4.000000, 4.000000, 4.000000, 4.000000, 4.000000, 4.000000, 4.000000, 4.000000, 4.000000, 4.000000, 4.000000, 4.000000, 4.000000, 4.000000, 4.000000
32.000000, 0.000000, 4199.487305, 4234.871582, 4308.717773, 4206.153809, 4219.487305, 4205.641113, 4205.127930, 4205.127930, 4205.641113, 4198.461426, 4195.897461, 4210.256348, 4189.230469, 4204.102539, 0.000000, 8377.000000, 8152.000000, 0.000000, 0.000000, 0.000000, 16996.000000, 533.333313, 4.000000, 4.000000, 4.000000, 4.000000, 4.000000, 4.000000, 4.000000, 4.000000, 4.000000, 4.000000, 4.000000, 4.000000, 4.000000, 4.000000, 4.000000, 4.000000
33.000000, 0.000000, 4201.025391, 4232.307617, 4338.974121, 4209.230469, 4236.410156, 4217.436035, 4217.948730, 4220.512695, 4220.000000, 4204.102539, 4203.076660, 4219.487305, 4194.358887, 4205.641113, 0.000000, 8407.000000, 8165.000000, 0.000000, 0.000000, 0.000000, 16996.000000, 541.025635, 4.000000, 4.000000, 4.000000, 4.000000, 4.000000, 4.000000, 4.000000, 4.000000, 4.000000, 4.000000, 4.000000, 4.000000, 4.000000, 4.000000, 4.000000, 4.000000
34.000000, 0.000000, 4196.410156, 4221.538574, 4350.256348, 4205.127930, 4223.076660, 4213.846191, 4217.948730, 4221.025391, 4224.102539, 4204.615234, 4205.641113, 4215.384277, 4190.256348, 4198.974121, 0.000000, 8407.000000, 8165.000000, 0.000000, 0.000000, 0.000000, 16996.000000, 549.230774, 4.000000, 4.000000, 4.000000, 4.000000, 4.000000, 4.000000, 4.000000, 4.000000, 4.000000, 4.000000, 4.000000, 4.000000, 4.000000, 4.000000, 4.000000, 4.000000
35.000000, 0.000000, 4192.820313, 4217.948730, 4342.051270, 4200.512695, 4214.871582, 4202.563965, 4203.589844, 4218.974121, 4223.589844, 4206.666504, 4202.563965, 4216.922852, 4185.127930, 4204.102539, 0.000000, 8414.000000, 8169.000000, 0.000000, 0.000000, 0.000000, 16996.000000, 556.923035, 4.000000, 4.000000, 4.000000, 4.000000, 4.000000, 4.000000, 4.000000, 4.000000, 4.000000, 4.000000, 4.000000, 4.000000, 4.000000, 4.000000, 4.000000, 4.000000
36.000000, 0.000000, 4190.256348, 4230.256348, 4334.871582, 4203.589844, 4223.589844, 4203.076660, 4199.487305, 4224.615234, 4227.179199, 4210.256348, 4201.538574, 4215.384277, 4188.717773, 4205.127930, 0.000000, 8414.000000, 8169.000000, 0.000000, 0.000000, 0.000000, 16996.000000, 565.128174, 4.000000, 4.000000, 4.000000, 4.000000, 4.000000, 4.000000, 4.000000, 4.000000, 4.000000, 4.000000, 4.000000, 4.000000, 4.000000, 4.000000, 4.000000, 4.000000
37.000000, 0.000000, 4192.307617, 4234.358887, 4334.358887, 4204.102539, 4221.538574, 4210.769043, 4207.692383, 4224.102539, 4224.615234, 4211.794922, 4203.076660, 4211.794922, 4196.410156, 4203.076660, 0.000000, 8430.000000, 8170.000000, 0.000000, 0.000000, 0.000000, 16996.000000, 572.820496, 4.000000, 4.000000, 4.000000, 4.000000, 4.000000, 4.000000, 4.000000, 4.000000, 4.000000, 4.000000, 4.000000, 4.000000, 4.000000, 4.000000, 4.000000, 4.000000
38.000000, 0.000000, 4192.820313, 4223.589844, 4327.692383, 4201.025391, 4213.333008, 4208.717773, 4206.666504, 4217.436035, 4215.897461, 4209.230469, 4202.563965, 4214.871582, 4194.358887, 4208.205078, 0.000000, 8430.000000, 8170.000000, 0.000000, 0.000000, 0.000000, 16996.000000, 580.512817, 4.000000, 4.000000, 4.000000, 4.000000, 4.000000, 4.000000, 4.000000, 4.000000, 4.000000, 4.000000, 4.000000, 4.000000, 4.000000, 4.000000, 4.000000, 4.000000
39.000000, 0.000000, 4190.769043, 4225.127930, 4312.307617, 4204.102539, 4216.410156, 4198.461426, 4198.461426, 4217.948730, 4212.307617, 4203.589844, 4201.538574, 4212.307617, 4190.256348, 4200.512695, 0.000000, 8435.000000, 8174.000000, 0.000000, 0.000000, 0.000000, 16996.000000, 588.717957, 4.000000, 4.000000, 4.000000, 4.000000, 4.000000, 4.000000, 4.000000, 4.000000, 4.000000, 4.000000, 4.000000, 4.000000, 4.000000, 4.000000, 4.000000, 4.000000
40.000000, 0.000000, 4196.922852, 4234.871582, 4305.127930, 4208.717773, 4217.948730, 4204.102539, 4197.948730, 4218.461426, 4213.846191, 4201.025391, 4204.102539, 4214.871582, 4195.384277, 4203.076660, 0.000000, 8435.000000, 8174.000000, 0.000000, 0.000000, 0.000000, 16996.000000, 596.410217, 4.000000, 4.000000, 4.000000, 4.000000, 4.000000, 4.000000, 4.000000, 4.000000, 4.000000, 4.000000, 4.000000, 4.000000, 4.000000, 4.000000, 4.000000, 4.000000
41.000000, 0.000000, 4195.897461, 4228.205078, 4307.179199, 4207.179199, 4215.384277, 4218.974121, 4200.512695, 4206.153809, 4207.692383, 4195.384277, 4200.512695, 4206.666504, 4192.307617, 4204.615234, 0.000000, 8430.000000, 8180.000000, 0.000000, 0.000000, 0.000000, 16996.000000, 604.615356, 4.000000, 4.000000, 4.000000, 4.000000, 4.000000, 4.000000, 4.000000, 4.000000, 4.000000, 4.000000, 4.000000, 4.000000, 4.000000, 4.000000, 4.000000, 4.000000
42.000000, 0.000000, 4186.666504, 4214.871582, 4306.153809, 4203.076660, 4216.410156, 4219.487305, 4198.974121, 4197.948730, 4196.922852, 4183.589844, 4187.692383, 4197.436035, 4178.461426, 4194.871582, 0.000000, 8430.000000, 8180.000000, 0.000000, 0.000000, 0.000000, 16996.000000, 612.307678, 4.000000, 4.000000, 4.000000, 4.000000, 4.000000, 4.000000, 4.000000, 4.000000, 4.000000, 4.000000, 4.000000, 4.000000, 4.000000, 4.000000, 4.000000, 4.000000
43.000000, 0.000000, 4181.025391, 4203.589844, 4297.436035, 4195.897461, 4214.358887, 4213.333008, 4203.589844, 4202.563965, 4199.487305, 4183.076660, 4183.589844, 4203.589844, 4177.436035, 4198.461426, 0.000000, 8413.000000, 8177.000000, 0.000000, 0.000000, 0.000000, 16996.000000, 620.000000, 4.000000, 4.000000, 4.000000, 4.000000, 4.000000, 4.000000, 4.000000, 4.000000, 4.000000, 4.000000, 4.000000, 4.000000, 4.000000, 4.000000, 4.000000, 4.000000
44.000000, 0.000000, 4177.436035, 4191.281738, 4284.615234, 4183.076660, 4195.897461, 4206.153809, 4206.666504, 4202.051270, 4204.615234, 4190.256348, 4185.641113, 4201.025391, 4183.076660, 4200.000000, 0.000000, 8413.000000, 8177.000000, 0.000000, 0.000000, 0.000000, 16996.000000, 627.692322, 4.000000, 4.000000, 4.000000, 4.000000, 4.000000, 4.000000, 4.000000, 4.000000, 4.000000, 4.000000, 4.000000, 4.000000, 4.000000, 4.000000, 4.000000, 4.000000
45.000000, 0.000000, 4184.102539, 4193.333008, 4288.717773, 4182.563965, 4181.538574, 4201.538574, 4202.563965, 4196.922852, 4197.948730, 4190.256348, 4190.256348, 4206.666504, 4188.205078, 4206.153809, 0.000000, 8404.000000, 8174.000000, 0.000000, 0.000000, 0.000000, 16996.000000, 635.897400, 4.000000, 4.000000, 4.000000, 4.000000, 4.000000, 4.000000, 4.000000, 4.000000, 4.000000, 4.000000, 4.000000, 4.000000, 4.000000, 4.000000, 4.000000, 4.000000
46.000000, 0.000000, 4195.897461, 4213.846191, 4306.153809, 4199.487305, 4202.051270, 4206.666504, 4201.025391, 4200.000000, 4199.487305, 4195.384277, 4201.538574, 4214.871582, 4200.512695, 4210.769043, 0.000000, 8404.000000, 8174.000000, 0.000000, 0.000000, 0.000000, 16996.000000, 643.589722, 4.000000, 4.000000, 4.000000, 4.000000, 4.000000, 4.000000, 4.000000, 4.000000, 4.000000, 4.000000, 4.000000, 4.000000, 4.000000, 4.000000, 4.000000, 4.000000
47.000000, 0.000000, 4201.538574, 4223.589844, 4310.256348, 4208.717773, 4223.076660, 4211.281738, 4206.153809, 4204.102539, 4206.153809, 4202.563965, 4206.666504, 4210.256348, 4205.127930, 4202.051270, 0.000000, 8370.000000, 8175.000000, 0.000000, 0.000000, 0.000000, 16996.000000, 651.794861, 4.000000, 4.000000, 4.000000, 4.000000, 4.000000, 4.000000, 4.000000, 4.000000, 4.000000, 4.000000, 4.000000, 4.000000, 4.000000, 4.000000, 4.000000, 4.000000
48.000000, 0.000000, 4200.000000, 4219.487305, 4304.615234, 4203.589844, 4213.333008, 4208.717773, 4204.615234, 4200.512695, 4201.538574, 4199.487305, 4200.000000, 4208.717773, 4195.897461, 4205.641113, 0.000000, 8370.000000, 8175.000000, 0.000000, 0.000000, 0.000000, 16996.000000, 659.487183, 4.000000, 4.000000, 4.000000, 4.000000, 4.000000, 4.000000, 4.000000, 4.000000, 4.000000, 4.000000, 4.000000, 4.000000, 4.000000, 4.000000, 4.000000, 4.000000
49.000000, 0.000000, 4196.410156, 4216.922852, 4301.538574, 4204.102539, 4207.692383, 4204.615234, 4196.410156, 4201.025391, 4197.948730, 4196.922852, 4197.948730, 4207.179199, 4190.769043, 4201.538574, 0.000000, 8357.000000, 8173.000000, 0.000000, 0.000000, 0.000000, 16996.000000, 667.692322, 4.000000, 4.000000, 4.000000, 4.000000, 4.000000, 4.000000, 4.000000, 4.000000, 4.000000, 4.000000, 4.000000, 4.000000, 4.000000, 4.000000, 4.000000, 4.000000
50.000000, 0.000000, 4196.922852, 4212.307617, 4303.076660, 4208.205078, 4215.897461, 4203.076660, 4196.410156, 4205.127930, 4207.179199, 4198.974121, 4200.000000, 4211.281738, 4195.384277, 4198.461426, 0.000000, 8357.000000, 8173.000000, 0.000000, 0.000000, 0.000000, 16996.000000, 675.384583, 4.000000, 4.000000, 4.000000, 4.000000, 4.000000, 4.000000, 4.000000, 4.000000, 4.000000, 4.000000, 4.000000, 4.000000, 4.000000, 4.000000, 4.000000, 4.000000
51.000000, 0.000000, 4199.487305, 4215.384277, 4305.127930, 4206.153809, 4210.256348, 4202.051270, 4201.025391, 4202.051270, 4216.410156, 4203.076660, 4201.025391, 4214.358887, 4201.025391, 4205.641113, 0.000000, 8320.000000, 8178.000000, 0.000000, 0.000000, 0.000000, 16996.000000, 683.589722, 4.000000, 4.000000, 4.000000, 4.000000, 4.000000, 4.000000, 4.000000, 4.000000, 4.000000, 4.000000, 4.000000, 4.000000, 4.000000, 4.000000, 4.000000, 4.000000
52.000000, 0.000000, 4206.153809, 4229.230469, 4304.615234, 4206.666504, 4202.563965, 4198.974121, 4200.000000, 4208.205078, 4218.461426, 4209.743652, 4204.102539, 4215.384277, 4202.051270, 4206.666504, 0.000000, 8320.000000, 8178.000000, 0.000000, 0.000000, 0.000000, 16996.000000, 691.282043, 4.000000, 4.000000, 4.000000, 4.000000, 4.000000, 4.000000, 4.000000, 4.000000, 4.000000, 4.000000, 4.000000, 4.000000, 4.000000, 4.000000, 4.000000, 4.000000
53.000000, 0.000000, 4208.717773, 4233.333008, 4307.692383, 4210.769043, 4205.641113, 4199.487305, 4196.922852, 4217.948730, 4214.871582, 4209.743652, 4204.102539, 4219.487305, 4200.000000, 4209.230469, 0.000000, 8303.000000, 8180.000000, 0.000000, 0.000000, 0.000000, 16996.000000, 698.974365, 4.000000, 4.000000, 4.000000, 4.000000, 4.000000, 4.000000, 4.000000, 4.000000, 4.000000, 4.000000, 4.000000, 4.000000, 4.000000, 4.000000, 4.000000, 4.000000
54.000000, 0.000000, 4204.615234, 4225.127930, 4307.179199, 4209.743652, 4206.666504, 4201.025391, 4193.333008, 4208.205078, 4210.256348, 4204.615234, 4201.025391, 4209.230469, 4200.512695, 4202.051270, 0.000000, 8303.000000, 8180.000000, 0.000000, 0.000000, 0.000000, 16996.000000, 706.666626, 4.000000, 4.000000, 4.000000, 4.000000, 4.000000, 4.000000, 4.000000, 4.000000, 4.000000, 4.000000, 4.000000, 4.000000, 4.000000, 4.000000, 4.000000, 4.000000
55.000000, 0.000000, 4202.051270, 4216.922852, 4294.871582, 4202.563965, 4204.102539, 4190.256348, 4188.717773, 4194.871582, 4195.897461, 4194.871582, 4191.794922, 4203.589844, 4193.333008, 4194.871582, 0.000000, 8289.000000, 8182.000000, 0.000000, 0.000000, 0.000000, 16996.000000, 714.871765, 4.000000, 4.000000, 4.000000, 4.000000, 4.000000, 4.000000, 4.000000, 4.000000, 4.000000, 4.000000, 4.000000, 4.000000, 4.000000, 4.000000, 4.000000, 4.000000
56.000000, 0.000000, 4193.846191, 4213.846191, 4283.076660, 4198.461426, 4203.589844, 4186.153809, 4195.384277, 4195.897461, 4180.000000, 4185.127930, 4183.589844, 4203.076660, 4184.102539, 4197.436035, 0.000000, 8289.000000, 8182.000000, 0.000000, 0.000000, 0.000000, 16996.000000, 722.564087, 4.000000, 4.000000, 4.000000, 4.000000, 4.000000, 4.000000, 4.000000, 4.000000, 4.000000, 4.000000, 4.000000, 4.000000, 4.000000, 4.000000, 4.000000, 4.000000
57.000000, 0.000000, 4190.256348, 4212.307617, 4285.127930, 4197.948730, 4198.974121, 4205.641113, 4208.717773, 4203.076660, 4194.871582, 4187.179199, 4190.256348, 4199.487305, 4189.743652, 4197.948730, 0.000000, 8268.000000, 8165.000000, 0.000000, 0.000000, 0.000000, 16996.000000, 730.769226, 4.000000, 4.000000, 4.000000, 4.000000, 4.000000, 4.000000, 4.000000, 4.000000, 4.000000, 4.000000, 4.000000, 4.000000, 4.000000, 4.000000, 4.000000, 4.000000
58.000000, 0.000000, 4200.000000, 4212.307617, 4295.897461, 4199.487305, 4195.897461, 4211.794922, 4209.230469, 4209.743652, 4214.871582, 4197.436035, 4199.487305, 4210.256348, 4200.000000, 4206.153809, 0.000000, 8268.000000, 8165.000000, 0.000000, 0.000000, 0.000000, 16996.000000, 738.461548, 4.000000, 4.000000, 4.000000, 4.000000, 4.000000, 4.000000, 4.000000, 4.000000, 4.000000, 4.000000, 4.000000, 4.000000, 4.000000, 4.000000, 4.000000, 4.000000
59.000000, 0.000000, 4205.127930, 4219.487305, 4302.051270, 4205.127930, 4206.153809, 4201.025391, 4203.589844, 4217.436035, 4214.358887, 4203.589844, 4202.051270, 4213.333008, 4203.076660, 4206.153809, 0.000000, 8265.000000, 8150.000000, 0.000000, 0.000000, 0.000000, 16996.000000, 746.666626, 4.000000, 4.000000, 4.000000, 4.000000, 4.000000, 4.000000, 4.000000, 4.000000, 4.000000, 4.000000, 4.000000, 4.000000, 4.000000, 4.000000, 4.000000, 4.000000
60.000000, 0.000000, 4206.666504, 4217.436035, 4302.051270, 4206.153809, 4205.127930, 4198.974121, 4204.102539, 4215.384277, 4209.743652, 4203.076660, 4198.461426, 4209.743652, 4197.948730, 4204.615234, 0.000000, 8265.000000, 8150.000000, 0.000000, 0.000000, 0.000000, 16996.000000, 754.358948, 4.000000, 4.000000, 4.000000, 4.000000, 4.000000, 4.000000, 4.000000, 4.000000, 4.000000, 4.000000, 4.000000, 4.000000, 4.000000, 4.000000, 4.000000, 4.000000
61.000000, 0.000000, 4203.589844, 4203.076660, 4294.871582, 4201.025391, 4183.589844, 4201.025391, 4203.076660, 4203.589844, 4203.076660, 4195.384277, 4190.769043, 4206.666504, 4191.281738, 4206.153809, 0.000000, 8273.000000, 8086.000000, 0.000000, 0.000000, 0.000000, 16996.000000, 762.051270, 4.000000, 4.000000, 4.000000, 4.000000, 4.000000, 4.000000, 4.000000, 4.000000, 4.000000, 4.000000, 4.000000, 4.000000, 4.000000, 4.000000, 4.000000, 4.000000
62.000000, 0.000000, 4202.051270, 4206.666504, 4296.922852, 4199.487305, 4187.179199, 4207.692383, 4198.461426, 4196.922852, 4195.384277, 4191.794922, 4187.179199, 4202.051270, 4191.281738, 4202.563965, 0.000000, 8273.000000, 8086.000000, 0.000000, 0.000000, 0.000000, 16996.000000, 769.743591, 4.000000, 4.000000, 4.000000, 4.000000, 4.000000, 4.000000, 4.000000, 4.000000, 4.000000, 4.000000, 4.000000, 4.000000, 4.000000, 4.000000, 4.000000, 4.000000
63.000000, 0.000000, 4208.717773, 4220.512695, 4314.358887, 4203.076660, 4210.769043, 4216.922852, 4197.436035, 4198.974121, 4196.922852, 4195.384277, 4188.717773, 4207.179199, 4194.871582, 4209.230469, 0.000000, 8278.000000, 8052.000000, 0.000000, 0.000000, 0.000000, 16996.000000, 777.948669, 4.000000, 4.000000, 4.000000, 4.000000, 4.000000, 4.000000, 4.000000, 4.000000, 4.000000, 4.000000, 4.000000, 4.000000, 4.000000, 4.000000, 4.000000, 4.000000
64.000000, 0.000000, 4209.230469, 4218.974121, 4308.717773, 4204.102539, 4206.666504, 4209.230469, 4201.025391, 4198.461426, 4196.410156, 4192.307617, 4188.717773, 4202.051270, 4192.307617, 4204.102539, 3315.000000, 8278.000000, 8052.000000, 0.000000, 0.000000, 0.000000, 16996.000000, 785.640991, 4.000000, 4.000000, 4.000000, 4.000000, 4.000000, 4.000000, 4.000000, 4.000000, 4.000000, 4.000000, 4.000000, 4.000000, 4.000000, 4.000000, 4.000000, 4.000000
65.000000, 0.000000, 4208.205078, 4213.846191, 4287.179199, 4196.410156, 4185.641113, 4198.461426, 4197.948730, 4187.179199, 4182.051270, 4183.076660, 4183.589844, 4198.974121, 4184.615234, 4196.410156, 3534.000000, 8297.000000, 8034.000000, 0.000000, 0.000000, 0.000000, 16996.000000, 793.846130, 4.000000, 4.000000, 4.000000, 4.000000, 4.000000, 4.000000, 4.000000, 4.000000, 4.000000, 4.000000, 4.000000, 4.000000, 4.000000, 4.000000, 4.000000, 4.000000
66.000000, 0.000000, 4209.743652, 4213.846191, 4283.076660, 4189.230469, 4182.051270, 4201.538574, 4188.717773, 4184.102539, 4177.948730, 4178.461426, 4177.948730, 4201.538574, 4184.615234, 4205.127930, 2796.000000, 8297.000000, 8034.000000, 0.000000, 0.000000, 0.000000, 16996.000000, 801.538452, 4.000000, 4.000000, 4.000000, 4.000000, 4.000000, 4.000000, 4.000000, 4.000000, 4.000000, 4.000000, 4.000000, 4.000000, 4.000000, 4.000000, 4.000000, 4.000000
67.000000, 0.000000, 4213.846191, 4211.794922, 4289.743652, 4193.333008, 4190.769043, 4201.538574, 4185.127930, 4190.769043, 4190.256348, 4184.102539, 4179.487305, 4196.922852, 4195.384277, 4203.076660, 3369.000000, 8328.000000, 8024.000000, 0.000000, 0.000000, 0.000000, 16996.000000, 809.743591, 4.000000, 4.000000, 4.000000, 4.000000, 4.000000, 4.000000, 4.000000, 4.000000, 4.000000, 4.000000, 4.000000, 4.000000, 4.000000, 4.000000, 4.000000, 4.000000
68.000000, 0.000000, 4218.974121, 4207.692383, 4290.769043, 4198.974121, 4196.410156, 4197.948730, 4186.666504, 4190.769043, 4195.897461, 4193.846191, 4181.538574, 4201.538574, 4198.461426, 4198.974121, 3531.000000, 8328.000000, 8024.000000, 0.000000, 0.000000, 0.000000, 16996.000000, 817.435852, 4.000000, 4.000000, 4.000000, 4.000000, 4.000000, 4.000000, 4.000000, 4.000000, 4.000000, 4.000000, 4.000000, 4.000000, 4.000000, 4.000000, 4.000000, 4.000000
69.000000, 0.000000, 4218.974121, 4207.179199, 4282.563965, 4197.436035, 4200.000000, 4204.102539, 4190.256348, 4190.769043, 4190.769043, 4194.871582, 4175.897461, 4202.051270, 4188.717773, 4198.461426, 3537.000000, 8349.000000, 8025.000000, 0.000000, 0.000000, 0.000000, 16996.000000, 825.128174, 4.000000, 4.000000, 4.000000, 4.000000, 4.000000, 4.000000, 4.000000, 4.000000, 4.000000, 4.000000, 4.000000, 4.000000, 4.000000, 4.000000, 4.000000, 4.000000
70.000000, 0.000000, 4220.512695, 4208.717773, 4272.820313, 4198.461426, 4200.512695, 4210.256348, 4196.922852, 4197.436035, 4184.615234, 4189.743652, 4174.358887, 4203.076660, 4185.641113, 4200.000000, 3459.000000, 8349.000000, 8025.000000, 0.000000, 0.000000, 0.000000, 16996.000000, 832.820496, 4.000000, 4.000000, 4.000000, 4.000000, 4.000000, 4.000000, 4.000000, 4.000000, 4.000000, 4.000000, 4.000000, 4.000000, 4.000000, 4.000000, 4.000000, 4.000000
71.000000, 0.000000, 4225.641113, 4205.127930, 4270.256348, 4199.487305, 4198.461426, 4205.127930, 4202.051270, 4200.512695, 4183.076660, 4190.769043, 4180.512695, 4211.281738, 4196.410156, 4209.743652, 3208.000000, 8375.000000, 8054.000000, 0.000000, 0.000000, 0.000000, 16996.000000, 841.025635, 4.000000, 4.000000, 4.000000, 4.000000, 4.000000, 4.000000, 4.000000, 4.000000, 4.000000, 4.000000, 4.000000, 4.000000, 4.000000, 4.000000, 4.000000, 4.000000
72.000000, 0.000000, 4232.307617, 4200.000000, 4269.743652, 4199.487305, 4200.000000, 4201.538574, 4201.538574, 4197.948730, 4187.179199, 4195.897461, 4184.615234, 4209.743652, 4202.563965, 4204.102539, 3537.000000, 8375.000000, 8054.000000, 0.000000, 0.000000, 0.000000, 16996.000000, 848.717957, 4.000000, 4.000000, 4.000000, 4.000000, 4.000000, 4.000000, 4.000000, 4.000000, 4.000000, 4.000000, 4.000000, 4.000000, 4.000000, 4.000000, 4.000000, 4.000000
73.000000, 0.000000, 4236.410156, 4201.025391, 4271.281738, 4202.051270, 4199.487305, 4210.769043, 4204.102539, 4198.974121, 4192.820313, 4194.871582, 4181.538574, 4212.307617, 4196.410156, 4203.589844, 3540.000000, 8371.000000, 8076.000000, 0.000000, 0.000000, 0.000000, 16996.000000, 856.923035, 4.000000, 4.000000, 4.000000, 4.000000, 4.000000, 4.000000, 4.000000, 4.000000, 4.000000, 4.000000, 4.000000, 4.000000, 4.000000, 4.000000, 4.000000, 4.000000
74.000000, 0.000000, 4229.230469, 4200.512695, 4270.769043, 4196.410156, 4191.794922, 4213.333008, 4199.487305, 4194.358887, 4188.205078, 4190.769043, 4175.384277, 4209.230469, 4189.743652, 4205.641113, 3181.000000, 8371.000000, 8076.000000, 0.000000, 0.000000, 0.000000, 16996.000000, 864.615356, 4.000000, 4.000000, 4.000000, 4.000000, 4.000000, 4.000000, 4.000000, 4.000000, 4.000000, 4.000000, 4.000000, 4.000000, 4.000000, 4.000000, 4.000000, 4.000000
75.000000, 0.000000, 4222.563965, 4186.153809, 4260.512695, 4185.127930, 4189.230469, 4198.461426, 4185.127930, 4184.615234, 4179.487305, 4182.563965, 4166.666504, 4199.487305, 4183.076660, 4194.358887, 1907.000000, 8382.000000, 8090.000000, 0.000000, 0.000000, 0.000000, 16996.000000, 872.307678, 4.000000, 4.000000, 4.000000, 4.000000, 4.000000, 4.000000, 4.000000, 4.000000, 4.000000, 4.000000, 4.000000, 4.000000, 4.000000, 4.000000, 4.000000, 4.000000
76.000000, 0.000000, 4226.153809, 4180.512695, 4258.974121, 4187.179199, 4199.487305, 4192.820313, 4180.000000, 4182.563965, 4181.025391, 4176.922852, 4166.666504, 4202.051270, 4184.615234, 4198.461426, 3489.000000, 8382.000000, 8090.000000, 0.000000, 0.000000, 0.000000, 16996.000000, 880.000000, 4.000000, 4.000000, 4.000000, 4.000000, 4.000000, 4.000000, 4.000000, 4.000000, 4.000000, 4.000000, 4.000000, 4.000000, 4.000000, 4.000000, 4.000000, 4.000000
77.000000, 0.000000, 4236.922852, 4202.563965, 4269.743652, 4202.563965, 4203.076660, 4204.102539, 4184.102539, 4193.333008, 4190.769043, 4189.743652, 4181.025391, 4206.153809, 4197.948730, 4206.153809, 2332.000000, 8381.000000, 8087.000000, 0.000000, 0.000000, 0.000000, 16996.000000, 888.205078, 4.000000, 4.000000, 4.000000, 4.000000, 4.000000, 4.000000, 4.000000, 4.000000, 4.000000, 4.000000, 4.000000, 4.000000, 4.000000, 4.000000, 4.000000, 4.000000
78.000000, 0.000000, 4246.153809, 4218.974121, 4274.358887, 4207.692383, 4201.538574, 4204.615234, 4191.281738, 4202.051270, 4194.358887, 4202.051270, 4188.717773, 4213.333008, 4204.615234, 4208.205078, 3181.000000, 8381.000000, 8087.000000, 0.000000, 0.000000, 0.000000, 16996.000000, 895.897400, 4.000000, 4.000000, 4.000000, 4.000000, 4.000000, 4.000000, 4.000000, 4.000000, 4.000000, 4.000000, 4.000000, 4.000000, 4.000000, 4.000000, 4.000000, 4.000000
79.000000, 0.000000, 4240.000000, 4208.205078, 4267.179199, 4202.051270, 4200.512695, 4196.410156, 4197.948730, 4196.922852, 4191.794922, 4200.512695, 4183.589844, 4208.717773, 4200.512695, 4202.563965, 1907.000000, 8381.000000, 8087.000000, 0.000000, 0.000000, 0.000000, 16996.000000, 904.102539, 4.000000, 4.000000, 4.000000, 4.000000, 4.000000, 4.000000, 4.000000, 4.000000, 4.000000, 4.000000, 4.000000, 4.000000, 4.000000, 4.000000, 4.000000, 4.000000
80.000000, 0.000000, 4238.974121, 4200.000000, 4246.666504, 4200.512695, 4187.179199, 4198.974121, 4195.897461, 4191.794922, 4195.384277, 4200.512695, 4183.076660, 4204.102539, 4208.717773, 4200.000000, 3489.000000, 8381.000000, 8087.000000, 0.000000, 0.000000, 0.000000, 16996.000000, 911.794861, 4.000000, 4.000000, 4.000000, 4.000000, 4.000000, 4.000000, 4.000000, 4.000000, 4.000000, 4.000000, 4.000000, 4.000000, 4.000000, 4.000000, 4.000000, 4.000000
81.000000, 0.000000, 4248.205078, 4204.102539, 4238.461426, 4200.512695, 4176.410156, 4196.410156, 4191.794922, 4191.281738, 4196.410156, 4204.615234, 4187.692383, 4214.358887, 4212.820313, 4209.230469, 2332.000000, 8383.000000, 8075.000000, 0.000000, 0.000000, 0.000000, 16996.000000, 919.487183, 4.000000, 4.000000, 4.000000, 4.000000, 4.000000, 4.000000, 4.000000, 4.000000, 4.000000, 4.000000, 4.000000, 4.000000, 4.000000, 4.000000, 4.000000, 4.000000
82.000000, 0.000000, 4245.127930, 4202.051270, 4277.436035, 4198.461426, 4190.256348, 4190.769043, 4191.794922, 4190.769043, 4192.307617, 4203.076660, 4186.153809, 4211.281738, 4202.051270, 4204.615234, 3181.000000, 8383.000000, 8075.000000, 0.000000, 0.000000, 0.000000, 16996.000000, 927.692261, 4.000000, 4.000000, 4.000000, 4.000000, 4.000000, 4.000000, 4.000000, 4.000000, 4.000000, 4.000000, 4.000000, 4.000000, 4.000000, 4.000000, 4.000000, 4.000000
83.000000, 0.000000, 4251.794922, 4209.743652, 4343.589844, 4209.230469, 4212.820313, 4201.025391, 4189.230469, 4195.384277, 4198.461426, 4211.794922, 4198.974121, 4216.410156, 4216.410156, 4210.256348, 1907.000000, 8383.000000, 8063.000000, 0.000000, 0.000000, 0.000000, 16996.000000, 935.897400, 4.000000, 4.000000, 4.000000, 4.000000, 4.000000, 4.000000, 4.000000, 4.000000, 4.000000, 4.000000, 4.000000, 4.000000, 4.000000, 4.000000, 4.000000, 4.000000
84.000000, 0.000000, 4266.153809, 4226.153809, 4370.769043, 4224.102539, 4216.922852, 4215.384277, 4191.794922, 4205.127930, 4207.692383, 4233.333008, 4216.410156, 4225.641113, 4243.076660, 4219.487305, 3489.000000, 8383.000000, 8063.000000, 0.000000, 0.000000, 0.000000, 16996.000000, 943.589722, 4.000000, 4.000000, 4.000000, 4.000000, 4.000000, 4.000000, 4.000000, 4.000000, 4.000000, 4.000000, 4.000000, 4.000000, 4.000000, 4.000000, 4.000000, 4.000000
85.000000, 0.000000, 4260.512695, 4224.102539, 4346.666504, 4216.410156, 4205.641113, 4216.410156, 4202.051270, 4202.563965, 4206.666504, 4238.974121, 4210.769043, 4221.025391, 4233.846191, 4207.692383, 2332.000000, 8378.000000, 8053.000000, 0.000000, 0.000000, 0.000000, 16996.000000, 951.282043, 4.000000, 4.000000, 4.000000, 4.000000, 4.000000, 4.000000, 4.000000, 4.000000, 4.000000, 4.000000, 4.000000, 4.000000, 4.000000, 4.000000, 4.000000, 4.000000
86.000000, 0.000000, 4248.205078, 4207.692383, 4313.333008, 4199.487305, 4200.512695, 4207.692383, 4204.102539, 4197.948730, 4204.102539, 4226.153809, 4195.897461, 4218.974121, 4215.384277, 4204.102539, 3181.000000, 8378.000000, 8053.000000, 0.000000, 0.000000, 0.000000, 16996.000000, 958.974365, 4.000000, 4.000000, 4.000000, 4.000000, 4.000000, 4.000000, 4.000000, 4.000000, 4.000000, 4.000000, 4.000000, 4.000000, 4.000000, 4.000000, 4.000000, 4.000000
87.000000, 0.000000, 4244.615234, 4196.922852, 4287.179199, 4198.461426, 4202.051270, 4201.025391, 4201.538574, 4205.641113, 4208.717773, 4218.461426, 4193.333008, 4211.281738, 4217.948730, 4202.051270, 1907.000000, 8364.000000, 8059.000000, 0.000000, 0.000000, 0.000000, 16996.000000, 967.179443, 4.000000, 4.000000, 4.000000, 4.000000, 4.000000, 4.000000, 4.000000, 4.000000, 4.000000, 4.000000, 4.000000, 4.000000, 4.000000, 4.000000, 4.000000, 4.000000
88.000000, 0.000000, 4245.641113, 4196.410156, 4277.948730, 4202.563965, 4194.358887, 4202.051270, 4203.589844, 4211.794922, 4210.256348, 4217.436035, 4194.358887, 4211.794922, 4220.000000, 4200.512695, 3489.000000, 8364.000000, 8059.000000, 0.000000, 0.000000, 0.000000, 16996.000000, 974.871765, 4.000000, 4.000000, 4.000000, 4.000000, 4.000000, 4.000000, 4.000000, 4.000000, 4.000000, 4.000000, 4.000000, 4.000000, 4.000000, 4.000000, 4.000000, 4.000000
89.000000, 0.000000, 4240.000000, 4197.948730, 4290.769043, 4202.051270, 4187.179199, 4206.666504, 4200.000000, 4211.281738, 4208.717773, 4215.897461, 4190.256348, 4214.358887, 4216.922852, 4202.563965, 2332.000000, 8348.000000, 8078.000000, 0.000000, 0.000000, 0.000000, 16996.000000, 983.076904, 4.000000, 4.000000, 4.000000, 4.000000, 4.000000, 4.000000, 4.000000, 4.000000, 4.000000, 4.000000, 4.000000, 4.000000, 4.000000, 4.000000, 4.000000, 4.000000
90.000000, 0.000000, 4234.871582, 4194.358887, 4307.692383, 4199.487305, 4190.769043, 4208.205078, 4198.461426, 4213.846191, 4206.153809, 4214.871582, 4185.641113, 4206.153809, 4214.358887, 4194.871582, 3181.000000, 8348.000000, 8078.000000, 0.000000, 0.000000, 0.000000, 16996.000000, 990.769226, 4.000000, 4.000000, 4.000000, 4.000000, 4.000000, 4.000000, 4.000000, 4.000000, 4.000000, 4.000000, 4.000000, 4.000000, 4.000000, 4.000000, 4.000000, 4.000000
91.000000, 0.000000, 4237.436035, 4194.871582, 4313.846191, 4196.410156, 4200.000000, 4212.820313, 4213.846191, 4218.461426, 4207.179199, 4214.358887, 4182.051270, 4208.717773, 4212.307617, 4200.000000, 1907.000000, 8299.000000, 8127.000000, 0.000000, 0.000000, 0.000000, 16996.000000, 998.974304, 4.000000, 4.000000, 4.000000, 4.000000, 4.000000, 4.000000, 4.000000, 4.000000, 4.000000, 4.000000, 4.000000, 4.000000, 4.000000, 4.000000, 4.000000, 4.000000
92.000000, 0.000000, 4242.051270, 4205.127930, 4306.666504, 4204.102539, 4200.512695, 4218.974121, 4218.974121, 4220.000000, 4215.897461, 4217.436035, 4189.743652, 4213.333008, 4215.897461, 4206.666504, 3489.000000, 8299.000000, 8127.000000, 0.000000, 0.000000, 0.000000, 16997.000000, 6.666667, 4.000000, 4.000000, 4.000000, 4.000000, 4.000000, 4.000000, 4.000000, 4.000000, 4.000000, 4.000000, 4.000000, 4.000000, 4.000000, 4.000000, 4.000000, 4.000000
93.000000, 0.000000, 4246.666504, 4205.127930, 4301.025391, 4216.410156, 4188.205078, 4217.436035, 4206.666504, 4217.436035, 4220.512695, 4220.000000, 4196.922852, 4217.436035, 4218.461426, 4205.641113, 2332.000000, 8272.000000, 8153.000000, 0.000000, 0.000000, 0.000000, 16997.000000, 14.358974, 4.000000, 4.000000, 4.000000, 4.000000, 4.000000, 4.000000, 4.000000, 4.000000, 4.000000, 4.000000, 4.000000, 4.000000, 4.000000, 4.000000, 4.000000, 4.000000
94.000000, 0.000000, 4242.563965, 4198.974121, 4304.615234, 4210.769043, 4186.666504, 4213.846191, 4194.358887, 4206.666504, 4208.205078, 4213.333008, 4191.281738, 4216.922852, 4214.871582, 4208.717773, 3181.000000, 8272.000000, 8153.000000, 0.000000, 0.000000, 0.000000, 16997.000000, 22.564102, 4.000000, 4.000000, 4.000000, 4.000000, 4.000000, 4.000000, 4.000000, 4.000000, 4.000000, 4.000000, 4.000000, 4.000000, 4.000000, 4.000000, 4.000000, 4.000000
95.000000, 0.000000, 4237.948730, 4204.615234, 4305.127930, 4202.051270, 4203.589844, 4208.717773, 4189.743652, 4192.820313, 4189.230469, 4205.641113, 4187.692383, 4208.717773, 4214.358887, 4204.102539, 1907.000000, 8218.000000, 8212.000000, 0.000000, 0.000000, 0.000000, 16997.000000, 30.256409, 4.000000, 4.000000, 4.000000, 4.000000, 4.000000, 4.000000, 4.000000, 4.000000, 4.000000, 4.000000, 4.000000, 4.000000, 4.000000, 4.000000, 4.000000, 4.000000
96.000000, 0.000000, 4239.487305, 4205.127930, 4295.384277, 4209.230469, 4205.641113, 4201.538574, 4186.153809, 4189.743652, 4183.589844, 4200.512695, 4185.641113, 4207.179199, 4214.871582, 4205.641113, 3489.000000, 8218.000000, 8212.000000, 0.000000, 0.000000, 0.000000, 16997.000000, 37.948715, 4.000000, 4.000000, 4.000000, 4.000000, 4.000000, 4.000000, 4.000000, 4.000000, 4.000000, 4.000000, 4.000000, 4.000000, 4.000000, 4.000000, 4.000000, 4.000000
97.000000, 0.000000, 4236.410156, 4199.487305, 4277.436035, 4216.922852, 4192.820313, 4192.307617, 4173.846191, 4183.589844, 4182.563965, 4192.307617, 4175.897461, 4203.076660, 4206.153809, 4203.076660, 2332.000000, 8195.000000, 8242.000000, 0.000000, 0.000000, 0.000000, 16997.000000, 46.153847, 4.000000, 4.000000, 4.000000, 4.000000, 4.000000, 4.000000, 4.000000, 4.000000, 4.000000, 4.000000, 4.000000, 4.000000, 4.000000, 4.000000, 4.000000, 4.000000
98.000000, 0.000000, 4234.871582, 4198.974121, 4269.230469, 4214.358887, 4194.871582, 4180.000000, 4164.615234, 4170.256348, 4174.871582, 4186.153809, 4166.153809, 4201.538574, 4198.461426, 4196.922852, 3181.000000, 8195.000000, 8242.000000, 0.000000, 0.000000, 0.000000, 16997.000000, 53.846153, 4.000000, 4.000000, 4.000000, 4.000000, 4.000000, 4.000000, 4.000000, 4.000000, 4.000000, 4.000000, 4.000000, 4.000000, 4.000000, 4.000000, 4.000000, 4.000000
99.000000, 0.000000, 4231.794922, 4198.974121, 4278.461426, 4212.307617, 4202.563965, 4183.589844, 4181.538574, 4174.358887, 4175.897461, 4188.717773, 4172.307617, 4205.127930, 4205.641113, 4200.000000, 1907.000000, 8186.000000, 8289.000000, 0.000000, 0.000000, 0.000000, 16997.000000, 62.051281, 4.000000, 4.000000, 4.000000, 4.000000, 4.000000, 4.000000, 4.000000, 4.000000, 4.000000, 4.000000, 4.000000, 4.000000, 4.000000, 4.000000, 4.000000, 4.000000
100.000000, 0.000000, 4233.846191, 4205.641113, 4275.897461, 4217.436035, 4201.538574, 4201.538574, 4207.179199, 4186.666504, 4185.641113, 4195.897461, 4186.153809, 4204.615234, 4220.512695, 4197.436035, 3489.000000, 8186.000000, 8289.000000, 0.000000, 0.000000, 0.000000, 16997.000000, 69.743591, 4.000000, 4.000000, 4.000000, 4.000000, 4.000000, 4.000000, 4.000000, 4.000000, 4.000000, 4.000000, 4.000000, 4.000000, 4.000000, 4.000000, 4.000000, 4.000000
101.000000, 0.000000, 4242.563965, 4209.230469, 4276.922852, 4219.487305, 4205.127930, 4209.743652, 4204.615234, 4191.281738, 4187.692383, 4204.102539, 4195.384277, 4214.871582, 4231.281738, 4204.615234, 2332.000000, 8177.000000, 8312.000000, 0.000000, 0.000000, 0.000000, 16997.000000, 77.435898, 4.000000, 4.000000, 4.000000, 4.000000, 4.000000, 4.000000, 4.000000, 4.000000, 4.000000, 4.000000, 4.000000, 4.000000, 4.000000, 4.000000, 4.000000, 4.000000
102.000000, 0.000000, 4244.615234, 4207.179199, 4327.179199, 4218.974121, 4214.871582, 4208.717773, 4194.358887, 4196.922852, 4195.384277, 4214.871582, 4203.076660, 4218.974121, 4234.358887, 4208.717773, 3181.000000, 8177.000000, 8312.000000, 0.000000, 0.000000, 0.000000, 16997.000000, 85.641022, 4.000000, 4.000000, 4.000000, 4.000000, 4.000000, 4.000000, 4.000000, 4.000000, 4.000000, 4.000000, 4.000000, 4.000000, 4.000000, 4.000000, 4.000000, 4.000000
103.000000, 0.000000, 4247.692383, 4210.256348, 4387.179199, 4218.974121, 4210.769043, 4214.358887, 4207.179199, 4203.589844, 4208.717773, 4221.025391, 4206.153809, 4222.051270, 4232.307617, 4205.641113, 1907.000000, 8178.000000, 8336.000000, 0.000000, 0.000000, 0.000000, 16997.000000, 93.333328, 4.000000, 4.000000, 4.000000, 4.000000, 4.000000, 4.000000, 4.000000, 4.000000, 4.000000, 4.000000, 4.000000, 4.000000, 4.000000, 4.000000, 4.000000, 4.000000
104.000000, 0.000000, 4246.153809, 4202.051270, 4394.358887, 4215.384277, 4191.794922, 4213.846191, 4220.000000, 4203.589844, 4208.205078, 4218.461426, 4201.025391, 4229.230469, 4230.769043, 4208.717773, 3489.000000, 8178.000000, 8336.000000, 0.000000, 0.000000, 0.000000, 16997.000000, 101.025635, 4.000000, 4.000000, 4.000000, 4.000000, 4.000000, 4.000000, 4.000000, 4.000000, 4.000000, 4.000000, 4.000000, 4.000000, 4.000000, 4.000000, 4.000000, 4.000000
105.000000, 0.000000, 4241.538574, 4190.769043, 4381.025391, 4214.871582, 4195.897461, 4205.641113, 4216.410156, 4202.051270, 4203.589844, 4216.922852, 4197.948730, 4225.127930, 4231.794922, 4203.589844, 2332.000000, 8190.000000, 8372.000000, 0.000000, 0.000000, 0.000000, 16997.000000, 108.717949, 4.000000, 4.000000, 4.000000, 4.000000, 4.000000, 4.000000, 4.000000, 4.000000, 4.000000, 4.000000, 4.000000, 4.000000, 4.000000, 4.000000, 4.000000, 4.000000
106.000000, 0.000000, 4251.281738, 4208.205078, 4402.563965, 4222.563965, 4217.436035, 4206.666504, 4218.461426, 4209.230469, 4209.743652, 4217.948730, 4209.230469, 4231.281738, 4234.358887, 4206.666504, 3181.000000, 8190.000000, 8372.000000, 0.000000, 0.000000, 0.000000, 16997.000000, 116.923073, 4.000000, 4.000000, 4.000000, 4.000000, 4.000000, 4.000000, 4.000000, 4.000000, 4.000000, 4.000000, 4.000000, 4.000000, 4.000000, 4.000000, 4.000000, 4.000000
107.000000, 0.000000, 4253.333008, 4221.538574, 4422.051270, 4224.102539, 4214.871582, 4207.692383, 4220.000000, 4220.000000, 4220.512695, 4218.974121, 4215.384277, 4233.846191, 4233.846191, 4207.179199, 1907.000000, 8200.000000, 8379.000000, 0.000000, 0.000000, 0.000000, 16997.000000, 124.615379, 4.000000, 4.000000, 4.000000, 4.000000, 4.000000, 4.000000, 4.000000, 4.000000, 4.000000, 4.000000, 4.000000, 4.000000, 4.000000, 4.000000, 4.000000, 4.000000
108.000000, 0.000000, 4243.589844, 4202.051270, 4415.384277, 4213.846191, 4200.000000, 4201.025391, 4204.102539, 4218.461426, 4220.512695, 4215.384277, 4207.179199, 4231.281738, 4228.717773, 4201.538574, 3489.000000, 8200.000000, 8379.000000, 0.000000, 0.000000, 0.000000, 16997.000000, 132.307693, 4.000000, 4.000000, 4.000000, 4.000000, 4.000000, 4.000000, 4.000000, 4.000000, 4.000000, 4.000000, 4.000000, 4.000000, 4.000000, 4.000000, 4.000000, 4.000000
109.000000, 0.000000, 4242.051270, 4190.256348, 4410.769043, 4209.743652, 4197.436035, 4200.000000, 4203.589844, 4209.743652, 4210.769043, 4212.820313, 4204.615234, 4236.922852, 4228.717773, 4208.205078, 2332.000000, 8222.000000, 8403.000000, 0.000000, 0.000000, 0.000000, 16997.000000, 140.512817, 4.000000, 4.000000, 4.000000, 4.000000, 4.000000, 4.000000, 4.000000, 4.000000, 4.000000, 4.000000, 4.000000, 4.000000, 4.000000, 4.000000, 4.000000, 4.000000
110.000000, 0.000000, 4254.358887, 4205.641113, 4417.948730, 4221.538574, 4206.153809, 4204.615234, 4217.436035, 4211.794922, 4210.769043, 4215.384277, 4214.871582, 4236.410156, 4233.333008, 4208.717773, 3181.000000, 8222.000000, 8403.000000, 0.000000, 0.000000, 0.000000, 16997.000000, 148.205124, 4.000000, 4.000000, 4.000000, 4.000000, 4.000000, 4.000000, 4.000000, 4.000000, 4.000000, 4.000000, 4.000000, 4.000000, 4.000000, 4.000000, 4.000000, 4.000000
111.000000, 0.000000, 4272.307617, 4216.410156, 4435.384277, 4231.281738, 4213.846191, 4201.538574, 4204.102539, 4215.384277, 4214.871582, 4220.512695, 4222.051270, 4243.076660, 4235.384277, 4211.281738, 1907.000000, 8238.000000, 8410.000000, 0.000000, 0.000000, 0.000000, 16997.000000, 156.410248, 4.000000, 4.000000, 4.000000, 4.000000, 4.000000, 4.000000, 4.000000, 4.000000, 4.000000, 4.000000, 4.000000, 4.000000, 4.000000, 4.000000, 4.000000, 4.000000
112.000000, 0.000000, 4281.025391, 4215.384277, 4438.461426, 4233.846191, 4209.230469, 4198.974121, 4186.666504, 4213.333008, 4221.538574, 4228.717773, 4226.666504, 4248.717773, 4236.922852, 4211.794922, 3489.000000, 8238.000000, 8410.000000, 0.000000, 0.000000, 0.000000, 16997.000000, 164.102554, 4.000000, 4.000000, 4.000000, 4.000000, 4.000000, 4.000000, 4.000000, 4.000000, 4.000000, 4.000000, 4.000000, 4.000000, 4.000000, 4.000000, 4.000000, 4.000000
113.000000, 0.000000, 4286.153809, 4208.717773, 4428.717773, 4235.897461, 4200.512695, 4201.538574, 4198.461426, 4216.410156, 4224.615234, 4234.358887, 4231.281738, 4248.205078, 4236.922852, 4206.666504, 2332.000000, 8260.000000, 8412.000000, 0.000000, 0.000000, 0.000000, 16997.000000, 171.794861, 4.000000, 4.000000, 4.000000, 4.000000, 4.000000, 4.000000, 4.000000, 4.000000, 4.000000, 4.000000, 4.000000, 4.000000, 4.000000, 4.000000, 4.000000, 4.000000
114.000000, 0.000000, 4280.000000, 4203.076660, 4417.435547, 4232.307617, 4210.769043, 4203.076660, 4205.641113, 4215.384277, 4219.487305, 4227.179199, 4226.153809, 4247.692383, 4232.307617, 4209.230469, 3181.000000, 8260.000000, 8412.000000, 0.000000, 0.000000, 0.000000, 16997.000000, 180.000000, 4.000000, 4.000000, 4.000000, 4.000000, 4.000000, 4.000000, 4.000000, 4.000000, 4.000000, 4.000000, 4.000000, 4.000000, 4.000000, 4.000000, 4.000000, 4.000000
115.000000, 0.000000, 4272.307617, 4210.256348, 4396.410156, 4225.641113, 4225.641113, 4204.102539, 4196.410156, 4205.641113, 4218.461426, 4217.436035, 4217.948730, 4238.974121, 4229.743652, 4205.641113, 1907.000000, 8305.000000, 8421.000000, 0.000000, 0.000000, 0.000000, 16997.000000, 187.692307, 4.000000, 4.000000, 4.000000, 4.000000, 4.000000, 4.000000, 4.000000, 4.000000, 4.000000, 4.000000, 4.000000, 4.000000, 4.000000, 4.000000, 4.000000, 4.000000
116.000000, 0.000000, 4276.922852, 4213.333008, 4386.666504, 4226.666504, 4220.512695, 4197.948730, 4197.436035, 4203.076660, 4218.461426, 4213.846191, 4217.436035, 4237.436035, 4231.281738, 4207.179199, 3489.000000, 8305.000000, 8421.000000, 0.000000, 0.000000, 0.000000, 16997.000000, 195.384613, 4.000000, 4.000000, 4.000000, 4.000000, 4.000000, 4.000000, 4.000000, 4.000000, 4.000000, 4.000000, 4.000000, 4.000000, 4.000000, 4.000000, 4.000000, 4.000000
117.000000, 0.000000, 4271.794922, 4204.102539, 4390.256348, 4230.256348, 4214.358887, 4189.230469, 4202.563965, 4208.205078, 4214.871582, 4215.384277, 4216.922852, 4234.871582, 4231.794922, 4207.179199, 2332.000000, 8328.000000, 8413.000000, 0.000000, 0.000000, 0.000000, 16997.000000, 203.589737, 4.000000, 4.000000, 4.000000, 4.000000, 4.000000, 4.000000, 4.000000, 4.000000, 4.000000, 4.000000, 4.000000, 4.000000, 4.000000, 4.000000, 4.000000, 4.000000
118.000000, 0.000000, 4271.794922, 4207.179199, 4394.871582, 4230.256348, 4218.461426, 4192.820313, 4198.974121, 4213.846191, 4220.000000, 4224.102539, 4220.512695, 4231.794922, 4233.333008, 4202.563965, 3181.000000, 8328.000000, 8413.000000, 0.000000, 0.000000, 0.000000, 16997.000000, 211.282043, 4.000000, 4.000000, 4.000000, 4.000000, 4.000000, 4.000000, 4.000000, 4.000000, 4.000000, 4.000000, 4.000000, 4.000000, 4.000000, 4.000000, 4.000000, 4.000000
119.000000, 0.000000, 4282.563965, 4215.897461, 4404.102539, 4234.358887, 4218.461426, 4205.127930, 4206.153809, 4217.948730, 4230.256348, 4227.179199, 4228.205078, 4242.563965, 4235.384277, 4211.794922, 1907.000000, 8357.000000, 8386.000000, 0.000000, 0.000000, 0.000000, 16997.000000, 218.974350, 4.000000, 4.000000, 4.000000, 4.000000, 4.000000, 4.000000, 4.000000, 4.000000, 4.000000, 4.000000, 4.000000, 4.000000, 4.000000, 4.000000, 4.000000, 4.000000
120.000000, 0.000000, 4284.615234, 4211.281738, 4407.179199, 4236.922852, 4221.538574, 4207.179199, 4218.974121, 4215.897461, 4226.153809, 4221.025391, 4232.820313, 4242.051270, 4234.871582, 4209.230469, 3489.000000, 8357.000000, 8386.000000, 0.000000, 0.000000, 0.000000, 16997.000000, 226.666656, 4.000000, 4.000000, 4.000000, 4.000000, 4.000000, 4.000000, 4.000000, 4.000000, 4.000000, 4.000000, 4.000000, 4.000000, 4.000000, 4.000000, 4.000000, 4.000000
121.000000, 0.000000, 4285.127930, 4204.615234, 4400.512695, 4232.820313, 4223.589844, 4200.512695, 4213.846191, 4205.127930, 4214.871582, 4216.922852, 4227.692383, 4240.000000, 4232.307617, 4204.615234, 2332.000000, 8362.000000, 8367.000000, 0.000000, 0.000000, 0.000000, 16997.000000, 234.871796, 4.000000, 4.000000, 4.000000, 4.000000, 4.000000, 4.000000, 4.000000, 4.000000, 4.000000, 4.000000, 4.000000, 4.000000, 4.000000, 4.000000, 4.000000, 4.000000
122.000000, 0.000000, 4283.076660, 4207.179199, 4392.307617, 4227.692383, 4218.974121, 4204.102539, 4204.615234, 4196.922852, 4208.717773, 4211.281738, 4219.487305, 4235.384277, 4225.641113, 4205.641113, 3181.000000, 8362.000000, 8367.000000, 0.000000, 0.000000, 0.000000, 16997.000000, 242.564102, 4.000000, 4.000000, 4.000000, 4.000000, 4.000000, 4.000000, 4.000000, 4.000000, 4.000000, 4.000000, 4.000000, 4.000000, 4.000000, 4.000000, 4.000000, 4.000000
123.000000, 0.000000, 4279.487305, 4202.563965, 4386.666504, 4221.025391, 4216.410156, 4217.436035, 4214.871582, 4199.487305, 4208.717773, 4203.589844, 4217.948730, 4228.205078, 4218.461426, 4202.563965, 1907.000000, 8367.000000, 8347.000000, 0.000000, 0.000000, 0.000000, 16997.000000, 250.256409, 4.000000, 4.000000, 4.000000, 4.000000, 4.000000, 4.000000, 4.000000, 4.000000, 4.000000, 4.000000, 4.000000, 4.000000, 4.000000, 4.000000, 4.000000, 4.000000
124.000000, 0.000000, 4275.384277, 4194.871582, 4380.512695, 4215.384277, 4210.256348, 4224.615234, 4223.589844, 4206.153809, 4215.897461, 4206.666504, 4217.436035, 4231.281738, 4215.897461, 4206.666504, 3489.000000, 8367.000000, 8347.000000, 0.000000, 0.000000, 0.000000, 16997.000000, 257.948700, 4.000000, 4.000000, 4.000000, 4.000000, 4.000000, 4.000000, 4.000000, 4.000000, 4.000000, 4.000000, 4.000000, 4.000000, 4.000000, 4.000000, 4.000000, 4.000000
125.000000, 0.000000, 4271.281738, 4197.948730, 4372.820313, 4213.333008, 4200.000000, 4211.794922, 4206.153809, 4205.127930, 4221.025391, 4215.897461, 4215.384277, 4223.589844, 4221.538574, 4203.589844, 2332.000000, 8360.000000, 8305.000000, 0.000000, 0.000000, 0.000000, 16997.000000, 266.153839, 4.000000, 4.000000, 4.000000, 4.000000, 4.000000, 4.000000, 4.000000, 4.000000, 4.000000, 4.000000, 4.000000, 4.000000, 4.000000, 4.000000, 4.000000, 4.000000
126.000000, 0.000000, 4277.948730, 4200.512695, 4367.179199, 4217.948730, 4205.641113, 4197.948730, 4190.769043, 4201.025391, 4216.922852, 4215.897461, 4221.025391, 4218.974121, 4230.769043, 4206.666504, 3181.000000, 8360.000000, 8305.000000, 0.000000, 0.000000, 0.000000, 16997.000000, 273.846161, 4.000000, 4.000000, 4.000000, 4.000000, 4.000000, 4.000000, 4.000000, 4.000000, 4.000000, 4.000000, 4.000000, 4.000000, 4.000000, 4.000000, 4.000000, 4.000000
127.000000, 0.000000, 4284.615234, 4202.051270, 4360.512695, 4222.563965, 4221.538574, 4208.205078, 4204.615234, 4204.102539, 4216.922852, 4212.820313, 4230.256348, 4224.102539, 4230.256348, 4213.333008, 55.000000, 8341.000000, 8287.000000, 0.000000, 0.000000, 0.000000, 16997.000000, 282.051270, 4.000000, 4.000000, 4.000000, 4.000000, 4.000000, 4.000000, 4.000000, 4.000000, 4.000000, 4.000000, 4.000000, 4.000000, 4.000000, 4.000000, 4.000000, 4.000000
0.000000, 0.000000, 4285.127930, 4201.025391, 4348.717773, 4221.025391, 4218.974121, 4217.436035, 4217.436035, 4212.820313, 4224.615234, 4215.384277, 4229.743652, 4223.589844, 4225.641113, 4205.127930, 3319.000000, 8341.000000, 8287.000000, 0.000000, 0.000000, 0.000000, 16997.000000, 289.743591, 4.000000, 4.000000, 4.000000, 4.000000, 4.000000, 4.000000, 4.000000, 4.000000, 4.000000, 4.000000, 4.000000, 4.000000, 4.000000, 4.000000, 4.000000, 4.000000
1.000000, 0.000000, 4284.102539, 4198.974121, 4341.025391, 4222.051270, 4210.256348, 4214.871582, 4205.641113, 4217.948730, 4231.794922, 4223.076660, 4229.743652, 4231.281738, 4230.256348, 4207.179199, 3535.000000, 8311.000000, 8255.000000, 0.000000, 0.000000, 0.000000, 16997.000000, 297.435883, 4.000000, 4.000000, 4.000000, 4.000000, 4.000000, 4.000000, 4.000000, 4.000000, 4.000000, 4.000000, 4.000000, 4.000000, 4.000000, 4.000000, 4.000000, 4.000000
2.000000, 0.000000, 4286.153809, 4203.076660, 4339.487305, 4228.205078, 4212.307617, 4215.384277, 4199.487305, 4219.487305, 4236.410156, 4230.256348, 4236.922852, 4231.281738, 4232.820313, 4208.205078, 2789.000000, 8311.000000, 8255.000000, 0.000000, 0.000000, 0.000000, 16997.000000, 305.128204, 4.000000, 4.000000, 4.000000, 4.000000, 4.000000, 4.000000, 4.000000, 4.000000, 4.000000, 4.000000, 4.000000, 4.000000, 4.000000, 4.000000, 4.000000, 4.000000
3.000000, 0.000000, 4290.256348, 4204.615234, 4337.436035, 4224.615234, 4207.692383, 4214.871582, 4212.820313, 4220.000000, 4231.794922, 4221.025391, 4232.820313, 4226.153809, 4222.563965, 4203.589844, 3528.000000, 8283.000000, 8238.000000, 0.000000, 0.000000, 0.000000, 16997.000000, 313.333313, 4.000000, 4.000000, 4.000000, 4.000000, 4.000000, 4.000000, 4.000000, 4.000000, 4.000000, 4.000000, 4.000000, 4.000000, 4.000000, 4.000000, 4.000000, 4.000000
4.000000, 0.000000, 4280.512695, 4192.307617, 4330.256348, 4209.743652, 4201.025391, 4200.000000, 4216.922852, 4216.410156, 4220.000000, 4202.563965, 4218.461426, 4219.487305, 4211.281738, 4202.051270, 3532.000000, 8283.000000, 8238.000000, 0.000000, 0.000000, 0.000000, 16997.000000, 321.025635, 4.000000, 4.000000, 4.000000, 4.000000, 4.000000, 4.000000, 4.000000, 4.000000, 4.000000, 4.000000, 4.000000, 4.000000, 4.000000, 4.000000, 4.000000, 4.000000
5.000000, 0.000000, 4271.281738, 4180.000000, 4321.025391, 4207.692383, 4203.076660, 4196.922852, 4210.769043, 4214.358887, 4214.871582, 4204.615234, 4212.820313, 4207.692383, 4211.281738, 4199.487305, 3541.000000, 8250.000000, 8209.000000, 0.000000, 0.000000, 0.000000, 16997.000000, 329.230774, 4.000000, 4.000000, 4.000000, 4.000000, 4.000000, 4.000000, 4.000000, 4.000000, 4.000000, 4.000000, 4.000000, 4.000000, 4.000000, 4.000000, 4.000000, 4.000000
6.000000, 0.000000, 4276.410156, 4187.179199, 4318.461426, 4213.333008, 4205.127930, 4212.307617, 4214.358887, 4215.384277, 4218.974121, 4215.897461, 4216.410156, 4210.769043, 4216.410156, 4207.179199, 3619.000000, 8250.000000, 8209.000000, 0.000000, 0.000000, 0.000000, 16997.000000, 336.923065, 4.000000, 4.000000, 4.000000, 4.000000, 4.000000, 4.000000, 4.000000, 4.000000, 4.000000, 4.000000, 4.000000, 4.000000, 4.000000, 4.000000, 4.000000, 4.000000
7.000000, 0.000000, 4280.512695, 4195.897461, 4320.512695, 4208.717773, 4207.692383, 4215.897461, 4219.487305, 4216.922852, 4231.281738, 4220.000000, 4221.538574, 4215.384277, 4218.461426, 4205.127930, 3198.000000, 8237.000000, 8208.000000, 0.000000, 0.000000, 0.000000, 16997.000000, 345.128204, 4.000000, 4.000000, 4.000000, 4.000000, 4.000000, 4.000000, 4.000000, 4.000000, 4.000000, 4.000000, 4.000000, 4.000000, 4.000000, 4.000000, 4.000000, 4.000000
8.000000, 0.000000, 4279.487305, 4189.743652, 4316.922852, 4199.487305, 4196.922852, 4201.025391, 4213.846191, 4213.333008, 4234.871582, 4217.436035, 4222.051270, 4213.846191, 4218.461426, 4198.974121, 3536.000000, 8237.000000, 8208.000000, 0.000000, 0.000000, 0.000000, 16997.000000, 352.820496, 4.000000, 4.000000, 4.000000, 4.000000, 4.000000, 4.000000, 4.000000, 4.000000, 4.000000, 4.000000, 4.000000, 4.000000, 4.000000, 4.000000, 4.000000, 4.000000
9.000000, 0.000000, 4276.410156, 4183.589844, 4308.717773, 4198.974121, 4183.076660, 4193.846191, 4204.102539, 4205.641113, 4220.000000, 4211.794922, 4216.922852, 4211.794922, 4214.358887, 4206.666504, 3673.000000, 8231.000000, 8210.000000, 0.000000, 0.000000, 0.000000, 16997.000000, 360.512817, 4.000000, 4.000000, 4.000000, 4.000000, 4.000000, 4.000000, 4.000000, 4.000000, 4.000000, 4.000000, 4.000000, 4.000000, 4.000000, 4.000000, 4.000000, 4.000000
10.000000, 0.000000, 4276.410156, 4189.743652, 4308.717773, 4205.127930, 4193.846191, 4203.589844, 4200.512695, 4198.461426, 4205.127930, 4207.179199, 4211.794922, 4206.666504, 4206.153809, 4205.641113, 3181.000000, 8231.000000, 8210.000000, 0.000000, 0.000000, 0.000000, 16997.000000, 368.205109, 4.000000, 4.000000, 4.000000, 4.000000, 4.000000, 4.000000, 4.000000, 4.000000, 4.000000, 4.000000, 4.000000, 4.000000, 4.000000, 4.000000, 4.000000, 4.000000
11.000000, 0.000000, 4274.871582, 4188.205078, 4307.179199, 4202.051270, 4204.615234, 4205.127930, 4197.436035, 4187.692383, 4195.384277, 4196.922852, 4203.589844, 4208.205078, 4198.461426, 4204.615234, 1905.000000, 8217.000000, 8196.000000, 0.000000, 0.000000, 0.000000, 16997.000000, 376.410248, 4.000000, 4.000000, 4.000000, 4.000000, 4.000000, 4.000000, 4.000000, 4.000000, 4.000000, 4.000000, 4.000000, 4.000000, 4.000000, 4.000000, 4.000000, 4.000000
12.000000, 0.000000, 4267.692383, 4175.897461, 4292.820313, 4198.974121, 4195.897461, 4196.410156, 4188.717773, 4178.461426, 4185.641113, 4185.127930, 4198.461426, 4203.589844, 4201.538574, 4204.102539, 3489.000000, 8217.000000, 8196.000000, 0.000000, 0.000000, 0.000000, 16997.000000, 384.102570, 4.000000, 4.000000, 4.000000, 4.000000, 4.000000, 4.000000, 4.000000, 4.000000, 4.000000, 4.000000, 4.000000, 4.000000, 4.000000, 4.000000, 4.000000, 4.000000
13.000000, 0.000000, 4270.769043, 4183.589844, 4287.179199, 4207.179199, 4201.025391, 4198.461426, 4184.102539, 4183.589844, 4187.179199, 4191.281738, 4204.102539, 4202.563965, 4209.230469, 4203.589844, 2328.000000, 8210.000000, 8184.000000, 0.000000, 0.000000, 0.000000, 16997.000000, 392.307678, 4.000000, 4.000000, 4.000000, 4.000000, 4.000000, 4.000000, 4.000000, 4.000000, 4.000000, 4.000000, 4.000000, 4.000000, 4.000000, 4.000000, 4.000000, 4.000000
14.000000, 0.000000, 4271.281738, 4196.410156, 4292.820313, 4206.666504, 4214.871582, 4204.615234, 4184.615234, 4188.205078, 4189.230469, 4200.512695, 4207.179199, 4209.743652, 4206.666504, 4207.692383, 3181.000000, 8210.000000, 8184.000000, 0.000000, 0.000000, 0.000000, 16997.000000, 400.000000, 4.000000, 4.000000, 4.000000, 4.000000, 4.000000, 4.000000, 4.000000, 4.000000, 4.000000, 4.000000, 4.000000, 4.000000, 4.000000, 4.000000, 4.000000, 4.000000
15.000000, 0.000000, 4255.897461, 4184.102539, 4278.461426, 4191.794922, 4205.127930, 4207.692383, 4192.307617, 4183.589844, 4183.589844, 4188.717773, 4196.922852, 4198.974121, 4196.410156, 4200.000000, 1905.000000, 8201.000000, 8156.000000, 0.000000, 0.000000, 0.000000, 16997.000000, 407.692291, 4.000000, 4.000000, 4.000000, 4.000000, 4.000000, 4.000000, 4.000000, 4.000000, 4.000000, 4.000000, 4.000000, 4.000000, 4.000000, 4.000000, 4.000000, 4.000000
16.000000, 0.000000, 4249.230469, 4173.846191, 4266.666504, 4190.256348, 4199.487305, 4216.410156, 4212.307617, 4193.333008, 4198.461426, 4188.205078, 4195.897461, 4200.000000, 4195.384277, 4201.025391, 0.000000, 8201.000000, 8156.000000, 0.000000, 0.000000, 0.000000, 16997.000000, 415.384613, 4.000000, 4.000000, 4.000000, 4.000000, 4.000000, 4.000000, 4.000000, 4.000000, 4.000000, 4.000000, 4.000000, 4.000000, 4.000000, 4.000000, 4.000000, 4.000000
17.000000, 0.000000, 4256.410156, 4186.666504, 4284.102539, 4203.076660, 4209.230469, 4218.974121, 4221.025391, 4209.230469, 4222.051270, 4208.205078, 4210.769043, 4211.794922, 4205.641113, 4209.743652, 0.000000, 8198.000000, 8140.000000, 0.000000, 0.000000, 0.000000, 16997.000000, 423.589722, 4.000000, 4.000000, 4.000000, 4.000000, 4.000000, 4.000000, 4.000000, 4.000000, 4.000000, 4.000000, 4.000000, 4.000000, 4.000000, 4.000000, 4.000000, 4.000000
18.000000, 0.000000, 4261.025391, 4188.717773, 4300.512695, 4202.051270, 4191.281738, 4204.102539, 4205.641113, 4201.538574, 4211.794922, 4207.692383, 4214.358887, 4212.820313, 4208.205078, 4209.743652, 0.000000, 8198.000000, 8140.000000, 0.000000, 0.000000, 0.000000, 16997.000000, 431.794861, 4.000000, 4.000000, 4.000000, 4.000000, 4.000000, 4.000000, 4.000000, 4.000000, 4.000000, 4.000000, 4.000000, 4.000000, 4.000000, 4.000000, 4.000000, 4.000000
19.000000, 0.000000, 4262.051270, 4182.563965, 4298.461426, 4203.589844, 4174.871582, 4194.871582, 4197.436035, 4190.769043, 4194.871582, 4203.589844, 4213.846191, 4217.948730, 4211.794922, 4213.333008, 0.000000, 8200.000000, 8130.000000, 0.000000, 0.000000, 0.000000, 16997.000000, 439.487183, 4.000000, 4.000000, 4.000000, 4.000000, 4.000000, 4.000000, 4.000000, 4.000000, 4.000000, 4.000000, 4.000000, 4.000000, 4.000000, 4.000000, 4.000000, 4.000000
20.000000, 0.000000, 4263.076660, 4189.230469, 4281.538574, 4214.358887, 4196.410156, 4201.025391, 4200.000000, 4200.512695, 4209.743652, 4220.512695, 4221.025391, 4221.538574, 4217.948730, 4209.230469, 0.000000, 8200.000000, 8130.000000, 0.000000, 0.000000, 0.000000, 16997.000000, 447.179474, 4.000000, 4.000000, 4.000000, 4.000000, 4.000000, 4.000000, 4.000000, 4.000000, 4.000000, 4.000000, 4.000000, 4.000000, 4.000000, 4.000000, 4.000000, 4.000000
21.000000, 0.000000, 4254.871582, 4188.205078, 4261.025391, 4207.692383, 4203.589844, 4201.025391, 4196.922852, 4209.230469, 4222.051270, 4224.615234, 4213.333008, 4218.974121, 4208.205078, 4204.102539, 0.000000, 8237.000000, 8130.000000, 0.000000, 0.000000, 0.000000, 16997.000000, 455.384613, 4.000000, 4.000000, 4.000000, 4.000000, 4.000000, 4.000000, 4.000000, 4.000000, 4.000000, 4.000000, 4.000000, 4.000000, 4.000000, 4.000000, 4.000000, 4.000000
22.000000, 0.000000, 4244.615234, 4181.025391, 4250.256348, 4196.922852, 4186.666504, 4194.871582, 4197.436035, 4201.538574, 4207.179199, 4209.230469, 4196.410156, 4204.615234, 4197.436035, 4204.102539, 0.000000, 8237.000000, 8130.000000, 0.000000, 0.000000, 0.000000, 16997.000000, 463.076904, 4.000000, 4.000000, 4.000000, 4.000000, 4.000000, 4.000000, 4.000000, 4.000000, 4.000000, 4.000000, 4.000000, 4.000000, 4.000000, 4.000000, 4.000000, 4.000000
23.000000, 0.000000, 4248.717773, 4186.666504, 4251.794922, 4207.692383, 4192.820313, 4203.076660, 4201.538574, 4195.384277, 4199.487305, 4208.205078, 4198.974121, 4198.974121, 4201.538574, 4202.563965, 0.000000, 8251.000000, 8131.000000, 0.000000, 0.000000, 0.000000, 16997.000000, 470.769226, 4.000000, 4.000000, 4.000000, 4.000000, 4.000000, 4.000000, 4.000000, 4.000000, 4.000000, 4.000000, 4.000000, 4.000000, 4.000000, 4.000000, 4.000000, 4.000000
24.000000, 0.000000, 4249.230469, 4190.256348, 4256.410156, 4212.820313, 4204.102539, 4215.897461, 4205.641113, 4200.000000, 4208.205078, 4216.410156, 4204.102539, 4211.794922, 4204.615234, 4206.666504, 0.000000, 8251.000000, 8131.000000, 0.000000, 0.000000, 0.000000, 16997.000000, 478.974335, 4.000000, 4.000000, 4.000000, 4.000000, 4.000000, 4.000000, 4.000000, 4.000000, 4.000000, 4.000000, 4.000000, 4.000000, 4.000000, 4.000000, 4.000000, 4.000000
25.000000, 0.000000, 4240.512695, 4184.102539, 4256.922852, 4202.563965, 4193.846191, 4210.256348, 4200.512695, 4199.487305, 4210.256348, 4212.820313, 4193.333008, 4214.358887, 4199.487305, 4206.153809, 0.000000, 8270.000000, 8125.000000, 0.000000, 0.000000, 0.000000, 16997.000000, 486.666656, 4.000000, 4.000000, 4.000000, 4.000000, 4.000000, 4.000000, 4.000000, 4.000000, 4.000000, 4.000000, 4.000000, 4.000000, 4.000000, 4.000000, 4.000000, 4.000000
26.000000, 0.000000, 4241.538574, 4176.410156, 4255.384277, 4202.051270, 4184.102539, 4198.461426, 4189.743652, 4192.307617, 4204.102539, 4204.615234, 4188.717773, 4216.922852, 4195.897461, 4203.589844, 0.000000, 8270.000000, 8125.000000, 0.000000, 0.000000, 0.000000, 16997.000000, 494.871796, 4.000000, 4.000000, 4.000000, 4.000000, 4.000000, 4.000000, 4.000000, 4.000000, 4.000000, 4.000000, 4.000000, 4.000000, 4.000000, 4.000000, 4.000000, 4.000000
27.000000, 0.000000, 4236.922852, 4170.769043, 4244.102539, 4203.076660, 4187.692383, 4200.512695, 4195.384277, 4188.205078, 4196.410156, 4198.974121, 4185.641113, 4215.384277, 4187.692383, 4201.538574, 0.000000, 8270.000000, 8129.000000, 0.000000, 0.000000, 0.000000, 16997.000000, 502.564087, 4.000000, 4.000000, 4.000000, 4.000000, 4.000000, 4.000000, 4.000000, 4.000000, 4.000000, 4.000000, 4.000000, 4.000000, 4.000000, 4.000000, 4.000000, 4.000000
28.000000, 0.000000, 4223.589844, 4168.205078, 4232.820313, 4195.384277, 4185.127930, 4204.102539, 4205.127930, 4188.205078, 4190.769043, 4195.897461, 4175.897461, 4203.076660, 4181.538574, 4197.948730, 0.000000, 8270.000000, 8129.000000, 0.000000, 0.000000, 0.000000, 16997.000000, 510.256409, 4.000000, 4.000000, 4.000000, 4.000000, 4.000000, 4.000000, 4.000000, 4.000000, 4.000000, 4.000000, 4.000000, 4.000000, 4.000000, 4.000000, 4.000000, 4.000000
29.000000, 0.000000, 4223.076660, 4169.743652, 4238.974121, 4195.384277, 4171.281738, 4201.538574, 4195.897461, 4192.307617, 4194.871582, 4197.948730, 4180.000000, 4205.127930, 4192.307617, 4208.717773, 0.000000, 8270.000000, 8132.000000, 0.000000, 0.000000, 0.000000, 16997.000000, 518.461548, 4.000000, 4.000000, 4.000000, 4.000000, 4.000000, 4.000000, 4.000000, 4.000000, 4.000000, 4.000000, 4.000000, 4.000000, 4.000000, 4.000000, 4.000000, 4.000000
30.000000, 0.000000, 4228.717773, 4175.384277, 4245.127930, 4201.025391, 4165.127930, 4199.487305, 4192.820313, 4199.487305, 4202.563965, 4205.127930, 4189.230469, 4205.641113, 4197.436035, 4209.230469, 0.000000, 8270.000000, 8132.000000, 0.000000, 0.000000, 0.000000, 16997.000000, 526.153809, 4.000000, 4.000000, 4.000000, 4.000000, 4.000000, 4.000000, 4.000000, 4.000000, 4.000000, 4.000000, 4.000000, 4.000000, 4.000000, 4.000000, 4.000000, 4.000000
31.000000, 0.000000, 4227.179199, 4185.127930, 4238.461426, 4198.461426, 4177.436035, 4201.025391, 4205.127930, 4205.127930, 4198.974121, 4205.127930, 4186.666504, 4204.102539, 4188.205078, 4203.076660, 0.000000, 8245.000000, 8128.000000, 0.000000, 0.000000, 0.000000, 16997.000000, 533.846130, 4.000000, 4.000000, 4.000000, 4.000000, 4.000000, 4.000000, 4.000000, 4.000000, 4.000000, 4.000000, 4.000000, 4.000000, 4.000000, 4.000000, 4.000000, 4.000000
32.000000, 0.000000, 4228.717773, 4188.205078, 4233.333008, 4197.948730, 4190.769043, 4201.538574, 4195.897461, 4205.641113, 4200.000000, 4203.076660, 4192.307617, 4212.820313, 4191.794922, 4209.230469, 0.000000, 8245.000000, 8128.000000, 0.000000, 0.000000, 0.000000, 16997.000000, 541.538452, 4.000000, 4.000000, 4.000000, 4.000000, 4.000000, 4.000000, 4.000000, 4.000000, 4.000000, 4.000000, 4.000000, 4.000000, 4.000000, 4.000000, 4.000000, 4.000000
33.000000, 0.000000, 4235.897461, 4186.153809, 4237.436035, 4205.641113, 4185.127930, 4195.897461, 4183.076660, 4198.974121, 4201.538574, 4204.615234, 4201.538574, 4218.461426, 4200.512695, 4208.205078, 0.000000, 8224.000000, 8125.000000, 0.000000, 0.000000, 0.000000, 16997.000000, 549.743591, 4.000000, 4.000000, 4.000000, 4.000000, 4.000000, 4.000000, 4.000000, 4.000000, 4.000000, 4.000000, 4.000000, 4.000000, 4.000000, 4.000000, 4.000000, 4.000000
34.000000, 0.000000, 4234.871582, 4184.615234, 4241.025391, 4205.127930, 4172.307617, 4191.281738, 4188.205078, 4190.256348, 4189.743652, 4198.974121, 4194.358887, 4224.615234, 4192.307617, 4206.666504, 0.000000, 8224.000000, 8125.000000, 0.000000, 0.000000, 0.000000, 16997.000000, 557.435913, 4.000000, 4.000000, 4.000000, 4.000000, 4.000000, 4.000000, 4.000000, 4.000000, 4.000000, 4.000000, 4.000000, 4.000000, 4.000000, 4.000000, 4.000000, 4.000000
35.000000, 0.000000, 4227.179199, 4175.897461, 4230.256348, 4196.922852, 4168.717773, 4195.897461, 4190.769043, 4186.666504, 4180.512695, 4192.307617, 4185.641113, 4218.974121, 4180.000000, 4203.589844, 0.000000, 8183.000000, 8131.000000, 0.000000, 0.000000, 0.000000, 16997.000000, 565.640991, 4.000000, 4.000000, 4.000000, 4.000000, 4.000000, 4.000000, 4.000000, 4.000000, 4.000000, 4.000000, 4.000000, 4.000000, 4.000000, 4.000000, 4.000000, 4.000000
36.000000, 0.000000, 4226.666504, 4170.769043, 4218.974121, 4193.333008, 4173.846191, 4201.025391, 4195.897461, 4186.666504, 4184.102539, 4192.820313, 4185.127930, 4212.820313, 4182.051270, 4200.000000, 0.000000, 8183.000000, 8131.000000, 0.000000, 0.000000, 0.000000, 16997.000000, 573.333313, 4.000000, 4.000000, 4.000000, 4.000000, 4.000000, 4.000000, 4.000000, 4.000000, 4.000000, 4.000000, 4.000000, 4.000000, 4.000000, 4.000000, 4.000000, 4.000000
37.000000, 0.000000, 4231.281738, 4183.589844, 4232.820313, 4200.000000, 4178.974121, 4200.512695, 4200.000000, 4189.743652, 4195.897461, 4201.025391, 4187.692383, 4215.897461, 4195.897461, 4207.179199, 0.000000, 8173.000000, 8120.000000, 0.000000, 0.000000, 0.000000, 16997.000000, 581.538452, 4.000000, 4.000000, 4.000000, 4.000000, 4.000000, 4.000000, 4.000000, 4.000000, 4.000000, 4.000000, 4.000000, 4.000000, 4.000000, 4.000000, 4.000000, 4.000000
38.000000, 0.000000, 4232.307617, 4185.641113, 4240.000000, 4205.127930, 4180.000000, 4198.974121, 4190.256348, 4188.717773, 4200.000000, 4208.717773, 4191.794922, 4212.820313, 4201.538574, 4204.615234, 0.000000, 8173.000000, 8120.000000, 0.000000, 0.000000, 0.000000, 16997.000000, 589.230774, 4.000000, 4.000000, 4.000000, 4.000000, 4.000000, 4.000000, 4.000000, 4.000000, 4.000000, 4.000000, 4.000000, 4.000000, 4.000000, 4.000000, 4.000000, 4.000000
39.000000, 0.000000, 4227.179199, 4167.692383, 4217.948730, 4195.897461, 4163.076660, 4192.307617, 4178.974121, 4179.487305, 4187.179199, 4200.512695, 4185.127930, 4206.666504, 4189.230469, 4200.512695, 0.000000, 8143.000000, 8086.000000, 0.000000, 0.000000, 0.000000, 16997.000000, 596.923035, 4.000000, 4.000000, 4.000000, 4.000000, 4.000000, 4.000000, 4.000000, 4.000000, 4.000000, 4.000000, 4.000000, 4.000000, 4.000000, 4.000000, 4.000000, 4.000000
40.000000, 0.000000, 4222.563965, 4165.127930, 4197.436035, 4187.179199, 4149.230469, 4183.076660, 4177.948730, 4167.692383, 4170.769043, 4188.205078, 4170.769043, 4198.461426, 4181.538574, 4199.487305, 0.000000, 8143.000000, 8086.000000, 0.000000, 0.000000, 0.000000, 16997.000000, 604.615356, 4.000000, 4.000000, 4.000000, 4.000000, 4.000000, 4.000000, 4.000000, 4.000000, 4.000000, 4.000000, 4.000000, 4.000000, 4.000000, 4.000000, 4.000000, 4.000000
41.000000, 0.000000, 4225.127930, 4173.846191, 4194.358887, 4190.256348, 4171.281738, 4189.230469, 4183.076660, 4166.153809, 4167.179199, 4189.230469, 4171.794922, 4202.051270, 4187.692383, 4202.051270, 0.000000, 8131.000000, 8077.000000, 0.000000, 0.000000, 0.000000, 16997.000000, 612.820496, 4.000000, 4.000000, 4.000000, 4.000000, 4.000000, 4.000000, 4.000000, 4.000000, 4.000000, 4.000000, 4.000000, 4.000000, 4.000000, 4.000000, 4.000000, 4.000000
42.000000, 0.000000, 4223.589844, 4169.230469, 4193.846191, 4189.743652, 4187.692383, 4200.512695, 4193.333008, 4174.871582, 4168.717773, 4189.743652, 4179.487305, 4211.794922, 4188.205078, 4206.666504, 0.000000, 8131.000000, 8077.000000, 0.000000, 0.000000, 0.000000, 16997.000000, 621.025635, 4.000000, 4.000000, 4.000000, 4.000000, 4.000000, 4.000000, 4.000000, 4.000000, 4.000000, 4.000000, 4.000000, 4.000000, 4.000000, 4.000000, 4.000000, 4.000000
43.000000, 0.000000, 4223.076660, 4167.692383, 4195.897461, 4185.127930, 4174.871582, 4201.025391, 4200.000000, 4184.102539, 4167.179199, 4184.615234, 4176.410156, 4209.230469, 4189.743652, 4203.076660, 0.000000, 8110.000000, 8068.000000, 0.000000, 0.000000, 0.000000, 16997.000000, 628.717957, 4.000000, 4.000000, 4.000000, 4.000000, 4.000000, 4.000000, 4.000000, 4.000000, 4.000000, 4.000000, 4.000000, 4.000000, 4.000000, 4.000000, 4.000000, 4.000000
44.000000, 0.000000, 4224.615234, 4171.794922, 4198.461426, 4186.666504, 4168.717773, 4199.487305, 4200.512695, 4186.153809, 4166.153809, 4185.641113, 4171.281738, 4209.230469, 4199.487305, 4205.641113, 0.000000, 8110.000000, 8068.000000, 0.000000, 0.000000, 0.000000, 16997.000000, 636.410217, 4.000000, 4.000000, 4.000000, 4.000000, 4.000000, 4.000000, 4.000000, 4.000000, 4.000000, 4.000000, 4.000000, 4.000000, 4.000000, 4.000000, 4.000000, 4.000000
45.000000, 0.000000, 4218.974121, 4167.179199, 4189.743652, 4188.717773, 4177.436035, 4202.563965, 4201.025391, 4182.563965, 4167.179199, 4189.743652, 4173.333008, 4204.102539, 4203.076660, 4206.153809, 0.000000, 8050.000000, 8073.000000, 0.000000, 0.000000, 0.000000, 16997.000000, 644.615356, 4.000000, 4.000000, 4.000000, 4.000000, 4.000000, 4.000000, 4.000000, 4.000000, 4.000000, 4.000000, 4.000000, 4.000000, 4.000000, 4.000000, 4.000000, 4.000000
46.000000, 0.000000, 4219.487305, 4172.820313, 4187.692383, 4192.820313, 4182.563965, 4206.666504, 4196.410156, 4187.692383, 4176.922852, 4196.922852, 4182.051270, 4202.051270, 4203.589844, 4206.153809, 0.000000, 8050.000000, 8073.000000, 0.000000, 0.000000, 0.000000, 16997.000000, 652.307678, 4.000000, 4.000000, 4.000000, 4.000000, 4.000000, 4.000000, 4.000000, 4.000000, 4.000000, 4.000000, 4.000000, 4.000000, 4.000000, 4.000000, 4.000000, 4.000000
47.000000, 0.000000, 4224.615234, 4181.025391, 4191.281738, 4195.384277, 4183.076660, 4209.743652, 4201.025391, 4206.153809, 4193.846191, 4205.641113, 4184.102539, 4207.692383, 4204.615234, 4210.256348, 0.000000, 8025.000000, 8093.000000, 0.000000, 0.000000, 0.000000, 16997.000000, 660.512817, 4.000000, 4.000000, 4.000000, 4.000000, 4.000000, 4.000000, 4.000000, 4.000000, 4.000000, 4.000000, 4.000000, 4.000000, 4.000000, 4.000000, 4.000000, 4.000000
48.000000, 0.000000, 4222.051270, 4172.307617, 4183.589844, 4190.256348, 4170.256348, 4208.717773, 4211.281738, 4218.461426, 4206.153809, 4205.641113, 4174.871582, 4198.974121, 4200.000000, 4197.948730, 0.000000, 8025.000000, 8093.000000, 0.000000, 0.000000, 0.000000, 16997.000000, 668.205139, 4.000000, 4.000000, 4.000000, 4.000000, 4.000000, 4.000000, 4.000000, 4.000000, 4.000000, 4.000000, 4.000000, 4.000000, 4.000000, 4.000000, 4.000000, 4.000000
49.000000, 0.000000, 4222.051270, 4170.256348, 4185.641113, 4190.256348, 4164.615234, 4204.102539, 4201.025391, 4208.205078, 4203.589844, 4202.563965, 4171.281738, 4204.615234, 4198.461426, 4197.948730, 0.000000, 7982.000000, 8149.000000, 0.000000, 0.000000, 0.000000, 16997.000000, 675.897400, 4.000000, 4.000000, 4.000000, 4.000000, 4.000000, 4.000000, 4.000000, 4.000000, 4.000000, 4.000000, 4.000000, 4.000000, 4.000000, 4.000000, 4.000000, 4.000000
50.000000, 0.000000, 4223.076660, 4175.384277, 4190.769043, 4195.384277, 4186.153809, 4201.025391, 4185.127930, 4200.000000, 4200.000000, 4204.102539, 4172.307617, 4216.410156, 4203.076660, 4207.692383, 0.000000, 7982.000000, 8149.000000, 0.000000, 0.000000, 0.000000, 16997.000000, 683.589722, 4.000000, 4.000000, 4.000000, 4.000000, 4.000000, 4.000000, 4.000000, 4.000000, 4.000000, 4.000000, 4.000000, 4.000000, 4.000000, 4.000000, 4.000000, 4.000000
51.000000, 0.000000, 4215.897461, 4164.102539, 4183.076660, 4188.717773, 4190.769043, 4200.000000, 4185.641113, 4200.512695, 4196.410156, 4195.384277, 4162.563965, 4208.205078, 4197.948730, 4198.461426, 0.000000, 7972.000000, 8174.000000, 0.000000, 0.000000, 0.000000, 16997.000000, 691.794861, 4.000000, 4.000000, 4.000000, 4.000000, 4.000000, 4.000000, 4.000000, 4.000000, 4.000000, 4.000000, 4.000000, 4.000000, 4.000000, 4.000000, 4.000000, 4.000000
52.000000, 0.000000, 4208.205078, 4152.307617, 4178.461426, 4179.487305, 4172.307617, 4200.512695, 4192.820313, 4178.461426, 4174.358887, 4177.948730, 4151.794922, 4202.563965, 4185.127930, 4197.948730, 0.000000, 7972.000000, 8174.000000, 0.000000, 0.000000, 0.000000, 16997.000000, 700.000000, 4.000000, 4.000000, 4.000000, 4.000000, 4.000000, 4.000000, 4.000000, 4.000000, 4.000000, 4.000000, 4.000000, 4.000000, 4.000000, 4.000000, 4.000000, 4.000000
53.000000, 0.000000, 4207.179199, 4154.871582, 4183.589844, 4178.974121, 4169.743652, 4198.461426, 4194.358887, 4155.897461, 4157.948730, 4174.871582, 4150.256348, 4197.436035, 4184.615234, 4202.563965, 0.000000, 7966.000000, 8193.000000, 0.000000, 0.000000, 0.000000, 16997.000000, 707.692261, 4.000000, 4.000000, 4.000000, 4.000000, 4.000000, 4.000000, 4.000000, 4.000000, 4.000000, 4.000000, 4.000000, 4.000000, 4.000000, 4.000000, 4.000000, 4.000000
54.000000, 0.000000, 4207.692383, 4154.358887, 4190.256348, 4180.000000, 4173.333008, 4189.743652, 4191.281738, 4176.922852, 4173.846191, 4183.076660, 4149.743652, 4194.871582, 4193.333008, 4202.051270, 0.000000, 7966.000000, 8193.000000, 0.000000, 0.000000, 0.000000, 16997.000000, 715.384583, 4.000000, 4.000000, 4.000000, 4.000000, 4.000000, 4.000000, 4.000000, 4.000000, 4.000000, 4.000000, 4.000000, 4.000000, 4.000000, 4.000000, 4.000000, 4.000000
55.000000, 0.000000, 4207.692383, 4157.948730, 4194.871582, 4188.205078, 4173.846191, 4187.179199, 4192.820313, 4203.589844, 4190.769043, 4187.692383, 4156.410156, 4197.948730, 4199.487305, 4203.076660, 0.000000, 7956.000000, 8199.000000, 0.000000, 0.000000, 0.000000, 16997.000000, 723.589722, 4.000000, 4.000000, 4.000000, 4.000000, 4.000000, 4.000000, 4.000000, 4.000000, 4.000000, 4.000000, 4.000000, 4.000000, 4.000000, 4.000000, 4.000000, 4.000000
56.000000, 0.000000, 4213.333008, 4166.666504, 4198.461426, 4199.487305, 4174.871582, 4197.948730, 4200.000000, 4200.512695, 4190.769043, 4193.333008, 4169.230469, 4205.641113, 4201.538574, 4205.127930, 0.000000, 7956.000000, 8199.000000, 0.000000, 0.000000, 0.000000, 16997.000000, 731.282043, 4.000000, 4.000000, 4.000000, 4.000000, 4.000000, 4.000000, 4.000000, 4.000000, 4.000000, 4.000000, 4.000000, 4.000000, 4.000000, 4.000000, 4.000000, 4.000000
57.000000, 0.000000, 4212.820313, 4164.102539, 4200.512695, 4194.871582, 4176.410156, 4197.436035, 4195.897461, 4195.384277, 4192.307617, 4200.512695, 4173.333008, 4213.333008, 4202.563965, 4208.717773, 0.000000, 7951.000000, 8193.000000, 0.000000, 0.000000, 0.000000, 16997.000000, 738.974365, 4.000000, 4.000000, 4.000000, 4.000000, 4.000000, 4.000000, 4.000000, 4.000000, 4.000000, 4.000000, 4.000000, 4.000000, 4.000000, 4.000000, 4.000000, 4.000000
58.000000, 0.000000, 4208.717773, 4167.692383, 4190.256348, 4188.717773, 4173.846191, 4184.615234, 4182.051270, 4204.102539, 4195.897461, 4200.000000, 4168.717773, 4202.563965, 4201.025391, 4202.563965, 0.000000, 7951.000000, 8193.000000, 0.000000, 0.000000, 0.000000, 16997.000000, 747.179443, 4.000000, 4.000000, 4.000000, 4.000000, 4.000000, 4.000000, 4.000000, 4.000000, 4.000000, 4.000000, 4.000000, 4.000000, 4.000000, 4.000000, 4.000000, 4.000000
59.000000, 0.000000, 4210.769043, 4177.948730, 4174.871582, 4193.846191, 4161.538574, 4183.076660, 4178.974121, 4203.076660, 4185.641113, 4188.717773, 4167.179199, 4200.512695, 4200.512695, 4201.025391, 0.000000, 7941.000000, 8175.000000, 0.000000, 0.000000, 0.000000, 16997.000000, 755.384583, 4.000000, 4.000000, 4.000000, 4.000000, 4.000000, 4.000000, 4.000000, 4.000000, 4.000000, 4.000000, 4.000000, 4.000000, 4.000000, 4.000000, 4.000000, 4.000000
60.000000, 0.000000, 4211.794922, 4180.000000, 4173.846191, 4198.461426, 4159.487305, 4187.179199, 4181.538574, 4190.256348, 4172.307617, 4185.127930, 4176.922852, 4209.743652, 4207.692383, 4209.743652, 0.000000, 7941.000000, 8175.000000, 0.000000, 0.000000, 0.000000, 16997.000000, 763.076904, 4.000000, 4.000000, 4.000000, 4.000000, 4.000000, 4.000000, 4.000000, 4.000000, 4.000000, 4.000000, 4.000000, 4.000000, 4.000000, 4.000000, 4.000000, 4.000000
61.000000, 0.000000, 4223.076660, 4187.692383, 4192.307617, 4203.076660, 4183.589844, 4187.179199, 4180.512695, 4185.127930, 4170.256348, 4194.358887, 4189.230469, 4213.846191, 4218.461426, 4212.820313, 0.000000, 7935.000000, 8177.000000, 0.000000, 0.000000, 0.000000, 16997.000000, 770.769226, 4.000000, 4.000000, 4.000000, 4.000000, 4.000000, 4.000000, 4.000000, 4.000000, 4.000000, 4.000000, 4.000000, 4.000000, 4.000000, 4.000000, 4.000000, 4.000000
62.000000, 0.000000, 4229.743652, 4193.846191, 4212.307617, 4210.769043, 4197.436035, 4190.769043, 4183.076660, 4186.666504, 4169.743652, 4200.000000, 4190.256348, 4221.025391, 4220.512695, 4213.333008, 0.000000, 7935.000000, 8177.000000, 0.000000, 0.000000, 0.000000, 16997.000000, 778.461548, 4.000000, 4.000000, 4.000000, 4.000000, 4.000000, 4.000000, 4.000000, 4.000000, 4.000000, 4.000000, 4.000000, 4.000000, 4.000000, 4.000000, 4.000000, 4.000000
63.000000, 0.000000, 4221.538574, 4188.717773, 4216.922852, 4212.820313, 4189.230469, 4200.512695, 4193.846191, 4185.127930, 4174.358887, 4198.461426, 4188.205078, 4218.974121, 4219.487305, 4206.153809, 0.000000, 7931.000000, 8181.000000, 0.000000, 0.000000, 0.000000, 16997.000000, 786.666626, 4.000000, 4.000000, 4.000000, 4.000000, 4.000000, 4.000000, 4.000000, 4.000000, 4.000000, 4.000000, 4.000000, 4.000000, 4.000000, 4.000000, 4.000000, 4.000000
64.000000, 0.000000, 4224.102539, 4189.230469, 4205.641113, 4210.769043, 4189.230469, 4203.076660, 4203.589844, 4180.000000, 4178.974121, 4196.922852, 4191.794922, 4220.512695, 4221.538574, 4205.641113, 3327.000000, 7931.000000, 8181.000000, 0.000000, 0.000000, 0.000000, 16997.000000, 794.358948, 4.000000, 4.000000, 4.000000, 4.000000, 4.000000, 4.000000, 4.000000, 4.000000, 4.000000, 4.000000, 4.000000, 4.000000, 4.000000, 4.000000, 4.000000, 4.000000
65.000000, 0.000000, 4225.127930, 4196.410156, 4182.563965, 4209.743652, 4202.051270, 4200.512695, 4203.076660, 4182.051270, 4182.563965, 4203.589844, 4192.820313, 4226.153809, 4221.538574, 4209.743652, 3535.000000, 7928.000000, 8187.000000, 0.000000, 0.000000, 0.000000, 16997.000000, 802.564087, 4.000000, 4.000000, 4.000000, 4.000000, 4.000000, 4.000000, 4.000000, 4.000000, 4.000000, 4.000000, 4.000000, 4.000000, 4.000000, 4.000000, 4.000000, 4.000000
66.000000, 0.000000, 4214.358887, 4191.281738, 4158.461426, 4206.153809, 4191.281738, 4197.948730, 4197.948730, 4188.717773, 4195.384277, 4211.281738, 4186.666504, 4219.487305, 4214.358887, 4198.974121, 2789.000000, 7928.000000, 8187.000000, 1.000000, 2.000000, 0.000000, 16997.000000, 810.256409, 4.000000, 4.000000, 4.000000, 4.000000, 4.000000, 4.000000, 4.000000, 4.000000, 4.000000, 4.000000, 4.000000, 4.000000, 4.000000, 4.000000, 4.000000, 4.000000
67.000000, 0.000000, 4205.641113, 4176.922852, 4141.025391, 4195.897461, 4164.615234, 4188.717773, 4196.922852, 4185.127930, 4199.487305, 4206.666504, 4173.846191, 4213.333008, 4206.153809, 4198.974121, 3555.000000, 7931.000000, 8201.000000, 0.000000, 0.000000, 0.000000, 16997.000000, 817.948669, 4.000000, 4.000000, 4.000000, 4.000000, 4.000000, 4.000000, 4.000000, 4.000000, 4.000000, 4.000000, 4.000000, 4.000000, 4.000000, 4.000000, 4.000000, 4.000000
68.000000, 0.000000, 4199.487305, 4169.743652, 4130.769043, 4190.256348, 4166.666504, 4184.615234, 4199.487305, 4185.127930, 4192.820313, 4201.025391, 4166.153809, 4201.025391, 4202.051270, 4203.076660, 3533.000000, 7931.000000, 8201.000000, 0.000000, 0.000000, 0.000000, 16997.000000, 825.640991, 4.000000, 4.000000, 4.000000, 4.000000, 4.000000, 4.000000, 4.000000, 4.000000, 4.000000, 4.000000, 4.000000, 4.000000, 4.000000, 4.000000, 4.000000, 4.000000
69.000000, 0.000000, 4202.051270, 4169.230469, 4135.897461, 4195.384277, 4187.692383, 4189.230469, 4194.871582, 4200.000000, 4197.436035, 4203.076660, 4171.281738, 4197.436035, 4202.563965, 4201.538574, 3541.000000, 7942.000000, 8213.000000, 0.000000, 0.000000, 0.000000, 16997.000000, 833.846130, 4.000000, 4.000000, 4.000000, 4.000000, 4.000000, 4.000000, 4.000000, 4.000000, 4.000000, 4.000000, 4.000000, 4.000000, 4.000000, 4.000000, 4.000000, 4.000000
70.000000, 0.000000, 4202.051270, 4167.692383, 4147.179199, 4198.974121, 4188.717773, 4188.717773, 4186.153809, 4206.666504, 4206.666504, 4204.102539, 4176.410156, 4207.179199, 4203.589844, 4203.589844, 3493.000000, 7942.000000, 8213.000000, 0.000000, 0.000000, 0.000000, 16997.000000, 841.538452, 4.000000, 4.000000, 4.000000, 4.000000, 4.000000, 4.000000, 4.000000, 4.000000, 4.000000, 4.000000, 4.000000, 4.000000, 4.000000, 4.000000, 4.000000, 4.000000
71.000000, 0.000000, 4199.487305, 4167.179199, 4143.589844, 4196.410156, 4181.025391, 4185.641113, 4182.563965, 4198.461426, 4202.051270, 4200.000000, 4171.794922, 4206.666504, 4201.025391, 4199.487305, 3203.000000, 7955.000000, 8219.000000, 0.000000, 0.000000, 0.000000, 16997.000000, 849.743591, 4.000000, 4.000000, 4.000000, 4.000000, 4.000000, 4.000000, 4.000000, 4.000000, 4.000000, 4.000000, 4.000000, 4.000000, 4.000000, 4.000000, 4.000000, 4.000000
72.000000, 0.000000, 4200.000000, 4173.333008, 4138.974121, 4193.846191, 4177.948730, 4188.717773, 4188.205078, 4205.641113, 4203.589844, 4197.948730, 4168.717773, 4209.230469, 4198.461426, 4201.025391, 3538.000000, 7955.000000, 8219.000000, 0.000000, 0.000000, 0.000000, 16997.000000, 857.435852, 4.000000, 4.000000, 4.000000, 4.000000, 4.000000, 4.000000, 4.000000, 4.000000, 4.000000, 4.000000, 4.000000, 4.000000, 4.000000, 4.000000, 4.000000, 4.000000
73.000000, 0.000000, 4198.461426, 4176.410156, 4144.102539, 4193.846191, 4177.436035, 4188.205078, 4196.922852, 4225.641113, 4216.410156, 4198.974121, 4174.871582, 4208.717773, 4201.025391, 4203.076660, 3557.000000, 7999.000000, 8227.000000, 0.000000, 0.000000, 0.000000, 16997.000000, 865.128174, 4.000000, 4.000000, 4.000000, 4.000000, 4.000000, 4.000000, 4.000000, 4.000000, 4.000000, 4.000000, 4.000000, 4.000000, 4.000000, 4.000000, 4.000000, 4.000000
74.000000, 0.000000, 4200.512695, 4170.256348, 4151.281738, 4190.256348, 4172.820313, 4184.615234, 4200.000000, 4222.051270, 4210.256348, 4198.974121, 4175.897461, 4205.127930, 4201.538574, 4200.512695, 3181.000000, 7999.000000, 8227.000000, 0.000000, 0.000000, 0.000000, 16997.000000, 872.820496, 4.000000, 4.000000, 4.000000, 4.000000, 4.000000, 4.000000, 4.000000, 4.000000, 4.000000, 4.000000, 4.000000, 4.000000, 4.000000, 4.000000, 4.000000, 4.000000
75.000000, 0.000000, 4200.000000, 4164.615234, 4159.487305, 4187.179199, 4156.922852, 4181.025391, 4200.512695, 4201.538574, 4195.897461, 4197.436035, 4170.769043, 4203.076660, 4200.512695, 4202.051270, 1903.000000, 8016.000000, 8226.000000, 0.000000, 0.000000, 0.000000, 16997.000000, 881.025635, 4.000000, 4.000000, 4.000000, 4.000000, 4.000000, 4.000000, 4.000000, 4.000000, 4.000000, 4.000000, 4.000000, 4.000000, 4.000000, 4.000000, 4.000000, 4.000000
76.000000, 0.000000, 4205.641113, 4167.179199, 4166.153809, 4196.922852, 4157.948730, 4181.025391, 4201.025391, 4205.641113, 4203.589844, 4204.102539, 4178.974121, 4203.076660, 4204.615234, 4202.563965, 3489.000000, 8016.000000, 8226.000000, 0.000000, 0.000000, 0.000000, 16997.000000, 888.717957, 4.000000, 4.000000, 4.000000, 4.000000, 4.000000, 4.000000, 4.000000, 4.000000, 4.000000, 4.000000, 4.000000, 4.000000, 4.000000, 4.000000, 4.000000, 4.000000
