title:winkLeft14, recorded:17.05.18 22.04.11, timestamp started:2018-05-12T20:28:52.032863+02:00            , sampling:128, subject:Noé, labels:COUNTER INTERPOLATED AF3 F7 F3 FC5 T7 P7 O1 O2 P8 T8 FC6 F4 F8 AF4 RAW_CQ GYROX GYROY MARKER MARKER_HARDWARE SYNC TIME_STAMP_s TIME_STAMP_ms CQ_AF3 CQ_F7 CQ_F3 CQ_FC5 CQ_T7 CQ_P7 CQ_O1 CQ_O2 CQ_P8 CQ_T8 CQ_FC6 CQ_F4 CQ_F8 CQ_AF4 CQ_CMS CQ_DRL, chan:40, samples:2216, units:emotiv
104.000000, 0.000000, 4200.000000, 4208.717773, 4184.615234, 4192.307617, 4174.358887, 4187.179199, 4196.922852, 4198.974121, 4181.538574, 3986.153809, 4170.769043, 4171.281738, 4212.820313, 4194.871582, 3477.000000, 8248.000000, 8066.000000, 0.000000, 0.000000, 0.000000, -21033.000000, 957.948669, 4.000000, 4.000000, 4.000000, 4.000000, 4.000000, 4.000000, 4.000000, 4.000000, 4.000000, 4.000000, 4.000000, 4.000000, 4.000000, 4.000000, 4.000000, 4.000000
105.000000, 0.000000, 4196.922852, 4208.717773, 4185.127930, 4188.717773, 4186.153809, 4184.102539, 4204.615234, 4209.230469, 4192.307617, 4011.281982, 4174.871582, 4182.051270, 4218.974121, 4198.461426, 3402.000000, 8252.000000, 8066.000000, 0.000000, 0.000000, 0.000000, -21033.000000, 966.153809, 4.000000, 4.000000, 4.000000, 4.000000, 4.000000, 4.000000, 4.000000, 4.000000, 4.000000, 4.000000, 4.000000, 4.000000, 4.000000, 4.000000, 4.000000, 4.000000
106.000000, 0.000000, 4190.769043, 4203.589844, 4184.615234, 4183.076660, 4187.692383, 4184.102539, 4203.589844, 4197.948730, 4180.512695, 4021.025635, 4179.487305, 4182.563965, 4221.538574, 4200.000000, 3550.000000, 8252.000000, 8066.000000, 0.000000, 0.000000, 0.000000, -21033.000000, 973.846130, 4.000000, 4.000000, 4.000000, 4.000000, 4.000000, 4.000000, 4.000000, 4.000000, 4.000000, 4.000000, 4.000000, 4.000000, 4.000000, 4.000000, 4.000000, 4.000000
107.000000, 0.000000, 4194.358887, 4205.641113, 4189.743652, 4190.256348, 4184.102539, 4186.666504, 4195.897461, 4189.743652, 4172.307617, 4041.538330, 4185.127930, 4180.512695, 4227.692383, 4195.897461, 558.000000, 8253.000000, 8068.000000, 0.000000, 0.000000, 0.000000, -21033.000000, 982.051270, 4.000000, 4.000000, 4.000000, 4.000000, 4.000000, 4.000000, 4.000000, 4.000000, 4.000000, 4.000000, 4.000000, 4.000000, 4.000000, 4.000000, 4.000000, 4.000000
108.000000, 0.000000, 4195.897461, 4212.820313, 4191.281738, 4198.461426, 4186.153809, 4187.692383, 4201.538574, 4202.563965, 4191.281738, 4083.589600, 4193.846191, 4177.948730, 4237.436035, 4202.051270, 3477.000000, 8253.000000, 8068.000000, 0.000000, 0.000000, 0.000000, -21033.000000, 989.743591, 4.000000, 4.000000, 4.000000, 4.000000, 4.000000, 4.000000, 4.000000, 4.000000, 4.000000, 4.000000, 4.000000, 4.000000, 4.000000, 4.000000, 4.000000, 4.000000
109.000000, 0.000000, 4197.436035, 4214.358887, 4185.641113, 4196.922852, 4186.666504, 4189.743652, 4201.025391, 4205.641113, 4197.436035, 4108.205078, 4191.281738, 4169.230469, 4233.846191, 4204.102539, 3402.000000, 8249.000000, 8071.000000, 0.000000, 0.000000, 0.000000, -21033.000000, 997.948669, 4.000000, 4.000000, 4.000000, 4.000000, 4.000000, 4.000000, 4.000000, 4.000000, 4.000000, 4.000000, 4.000000, 4.000000, 4.000000, 4.000000, 4.000000, 4.000000
110.000000, 0.000000, 4191.281738, 4211.281738, 4182.051270, 4195.897461, 4190.256348, 4192.820313, 4187.179199, 4188.205078, 4181.025391, 4111.281738, 4182.051270, 4166.666504, 4222.051270, 4198.974121, 3550.000000, 8249.000000, 8071.000000, 0.000000, 0.000000, 0.000000, -21032.000000, 5.641026, 4.000000, 4.000000, 4.000000, 4.000000, 4.000000, 4.000000, 4.000000, 4.000000, 4.000000, 4.000000, 4.000000, 4.000000, 4.000000, 4.000000, 4.000000, 4.000000
111.000000, 0.000000, 4190.256348, 4214.358887, 4181.025391, 4199.487305, 4200.512695, 4195.897461, 4190.256348, 4180.512695, 4176.922852, 4130.256348, 4187.179199, 4175.897461, 4226.666504, 4198.461426, 558.000000, 8251.000000, 8070.000000, 0.000000, 0.000000, 0.000000, -21032.000000, 13.846153, 4.000000, 4.000000, 4.000000, 4.000000, 4.000000, 4.000000, 4.000000, 4.000000, 4.000000, 4.000000, 4.000000, 4.000000, 4.000000, 4.000000, 4.000000, 4.000000
112.000000, 0.000000, 4200.512695, 4220.000000, 4184.102539, 4204.102539, 4201.538574, 4199.487305, 4198.461426, 4189.230469, 4190.256348, 4195.897461, 4198.974121, 4188.717773, 4243.076660, 4200.000000, 3477.000000, 8251.000000, 8070.000000, 0.000000, 0.000000, 0.000000, -21032.000000, 21.538462, 4.000000, 4.000000, 4.000000, 4.000000, 4.000000, 4.000000, 4.000000, 4.000000, 4.000000, 4.000000, 4.000000, 4.000000, 4.000000, 4.000000, 4.000000, 4.000000
113.000000, 0.000000, 4197.436035, 4219.487305, 4184.102539, 4203.589844, 4198.461426, 4196.922852, 4188.717773, 4183.076660, 4183.589844, 4293.846191, 4192.820313, 4185.641113, 4237.948730, 4202.563965, 3402.000000, 8248.000000, 8082.000000, 0.000000, 0.000000, 0.000000, -21032.000000, 29.743589, 4.000000, 4.000000, 4.000000, 4.000000, 4.000000, 4.000000, 4.000000, 4.000000, 4.000000, 4.000000, 4.000000, 4.000000, 4.000000, 4.000000, 4.000000, 4.000000
114.000000, 0.000000, 4195.384277, 4219.487305, 4180.000000, 4202.051270, 4199.487305, 4186.666504, 4180.000000, 4166.666504, 4165.641113, 4388.205078, 4184.102539, 4170.769043, 4228.717773, 4200.000000, 3550.000000, 8248.000000, 8082.000000, 0.000000, 0.000000, 0.000000, -21032.000000, 37.435898, 4.000000, 4.000000, 4.000000, 4.000000, 4.000000, 4.000000, 4.000000, 4.000000, 4.000000, 4.000000, 4.000000, 4.000000, 4.000000, 4.000000, 4.000000, 4.000000
115.000000, 0.000000, 4199.487305, 4222.563965, 4180.512695, 4207.179199, 4200.000000, 4188.205078, 4185.641113, 4165.127930, 4166.153809, 4455.897461, 4188.717773, 4168.205078, 4240.512695, 4198.461426, 558.000000, 8243.000000, 8081.000000, 0.000000, 0.000000, 0.000000, -21032.000000, 45.128204, 4.000000, 4.000000, 4.000000, 4.000000, 4.000000, 4.000000, 4.000000, 4.000000, 4.000000, 4.000000, 4.000000, 4.000000, 4.000000, 4.000000, 4.000000, 4.000000
116.000000, 0.000000, 4198.974121, 4221.538574, 4184.615234, 4210.769043, 4201.025391, 4201.538574, 4189.230469, 4172.307617, 4172.820313, 4496.922852, 4186.153809, 4168.205078, 4241.025391, 4201.538574, 3477.000000, 8243.000000, 8081.000000, 0.000000, 0.000000, 0.000000, -21032.000000, 53.333332, 4.000000, 4.000000, 4.000000, 4.000000, 4.000000, 4.000000, 4.000000, 4.000000, 4.000000, 4.000000, 4.000000, 4.000000, 4.000000, 4.000000, 4.000000, 4.000000
117.000000, 0.000000, 4197.948730, 4215.384277, 4188.717773, 4209.230469, 4202.563965, 4198.974121, 4186.666504, 4169.743652, 4170.256348, 4534.871582, 4182.051270, 4167.692383, 4234.871582, 4203.076660, 3402.000000, 8242.000000, 8074.000000, 0.000000, 0.000000, 0.000000, -21032.000000, 61.025639, 4.000000, 4.000000, 4.000000, 4.000000, 4.000000, 4.000000, 4.000000, 4.000000, 4.000000, 4.000000, 4.000000, 4.000000, 4.000000, 4.000000, 4.000000, 4.000000
118.000000, 0.000000, 4201.025391, 4218.974121, 4191.794922, 4211.794922, 4201.025391, 4187.179199, 4189.230469, 4164.615234, 4167.692383, 4575.897461, 4193.846191, 4180.512695, 4249.230469, 4206.153809, 3550.000000, 8242.000000, 8074.000000, 0.000000, 0.000000, 0.000000, -21032.000000, 68.717949, 4.000000, 4.000000, 4.000000, 4.000000, 4.000000, 4.000000, 4.000000, 4.000000, 4.000000, 4.000000, 4.000000, 4.000000, 4.000000, 4.000000, 4.000000, 4.000000
119.000000, 0.000000, 4205.641113, 4223.589844, 4190.769043, 4210.256348, 4199.487305, 4186.153809, 4184.102539, 4164.615234, 4168.205078, 4598.974121, 4201.538574, 4189.743652, 4253.333008, 4203.589844, 558.000000, 8239.000000, 8071.000000, 0.000000, 0.000000, 0.000000, -21032.000000, 76.923073, 4.000000, 4.000000, 4.000000, 4.000000, 4.000000, 4.000000, 4.000000, 4.000000, 4.000000, 4.000000, 4.000000, 4.000000, 4.000000, 4.000000, 4.000000, 4.000000
120.000000, 0.000000, 4198.461426, 4215.897461, 4187.692383, 4201.025391, 4200.000000, 4188.717773, 4174.358887, 4170.256348, 4169.230469, 4618.974121, 4197.436035, 4184.615234, 4240.000000, 4202.563965, 3477.000000, 8239.000000, 8071.000000, 0.000000, 0.000000, 0.000000, -21032.000000, 84.615379, 4.000000, 4.000000, 4.000000, 4.000000, 4.000000, 4.000000, 4.000000, 4.000000, 4.000000, 4.000000, 4.000000, 4.000000, 4.000000, 4.000000, 4.000000, 4.000000
121.000000, 0.000000, 4198.461426, 4214.358887, 4186.666504, 4205.127930, 4202.051270, 4183.589844, 4176.922852, 4176.410156, 4180.000000, 4658.461426, 4200.512695, 4182.563965, 4247.179199, 4204.102539, 3402.000000, 8227.000000, 8072.000000, 0.000000, 0.000000, 0.000000, -21032.000000, 92.820511, 4.000000, 4.000000, 4.000000, 4.000000, 4.000000, 4.000000, 4.000000, 4.000000, 4.000000, 4.000000, 4.000000, 4.000000, 4.000000, 4.000000, 4.000000, 4.000000
122.000000, 0.000000, 4212.820313, 4224.102539, 4189.230469, 4215.897461, 4204.102539, 4184.102539, 4184.615234, 4175.897461, 4187.692383, 4691.281738, 4209.743652, 4185.127930, 4265.127930, 4201.538574, 3550.000000, 8227.000000, 8072.000000, 0.000000, 0.000000, 0.000000, -21032.000000, 100.512817, 4.000000, 4.000000, 4.000000, 4.000000, 4.000000, 4.000000, 4.000000, 4.000000, 4.000000, 4.000000, 4.000000, 4.000000, 4.000000, 4.000000, 4.000000, 4.000000
123.000000, 0.000000, 4210.769043, 4228.717773, 4192.307617, 4213.846191, 4205.641113, 4195.384277, 4185.127930, 4181.538574, 4187.692383, 4711.281738, 4211.281738, 4187.179199, 4264.615234, 4205.641113, 558.000000, 8223.000000, 8067.000000, 0.000000, 0.000000, 0.000000, -21032.000000, 108.717949, 4.000000, 4.000000, 4.000000, 4.000000, 4.000000, 4.000000, 4.000000, 4.000000, 4.000000, 4.000000, 4.000000, 4.000000, 4.000000, 4.000000, 4.000000, 4.000000
124.000000, 0.000000, 4201.538574, 4220.512695, 4190.769043, 4205.127930, 4205.641113, 4196.410156, 4188.717773, 4185.641113, 4186.666504, 4743.076660, 4197.436035, 4184.615234, 4246.666504, 4204.102539, 3477.000000, 8223.000000, 8067.000000, 0.000000, 0.000000, 0.000000, -21032.000000, 116.410255, 4.000000, 4.000000, 4.000000, 4.000000, 4.000000, 4.000000, 4.000000, 4.000000, 4.000000, 4.000000, 4.000000, 4.000000, 4.000000, 4.000000, 4.000000, 4.000000
125.000000, 0.000000, 4196.410156, 4212.307617, 4182.051270, 4198.974121, 4197.948730, 4184.102539, 4191.794922, 4178.974121, 4185.641113, 4784.102539, 4185.127930, 4175.384277, 4232.307617, 4199.487305, 3402.000000, 8227.000000, 8070.000000, 0.000000, 0.000000, 0.000000, -21032.000000, 124.102562, 4.000000, 4.000000, 4.000000, 4.000000, 4.000000, 4.000000, 4.000000, 4.000000, 4.000000, 4.000000, 4.000000, 4.000000, 4.000000, 4.000000, 4.000000, 4.000000
126.000000, 0.000000, 4197.948730, 4215.897461, 4181.538574, 4200.512695, 4192.307617, 4178.974121, 4181.025391, 4167.179199, 4182.051270, 4818.461426, 4190.256348, 4176.922852, 4241.025391, 4205.641113, 3550.000000, 8227.000000, 8070.000000, 0.000000, 0.000000, 0.000000, -21032.000000, 131.794876, 4.000000, 4.000000, 4.000000, 4.000000, 4.000000, 4.000000, 4.000000, 4.000000, 4.000000, 4.000000, 4.000000, 4.000000, 4.000000, 4.000000, 4.000000, 4.000000
127.000000, 0.000000, 4205.127930, 4218.461426, 4188.205078, 4205.127930, 4196.410156, 4183.076660, 4167.179199, 4155.897461, 4173.333008, 4856.410156, 4194.871582, 4184.102539, 4249.230469, 4207.179199, 54.000000, 8228.000000, 8064.000000, 0.000000, 0.000000, 0.000000, -21032.000000, 140.000000, 4.000000, 4.000000, 4.000000, 4.000000, 4.000000, 4.000000, 4.000000, 4.000000, 4.000000, 4.000000, 4.000000, 4.000000, 4.000000, 4.000000, 4.000000, 4.000000
0.000000, 0.000000, 4202.563965, 4214.871582, 4184.615234, 4203.589844, 4197.436035, 4183.589844, 4171.794922, 4149.743652, 4167.692383, 4904.615234, 4188.205078, 4183.589844, 4240.000000, 4204.615234, 3356.000000, 8228.000000, 8064.000000, 0.000000, 0.000000, 0.000000, -21032.000000, 147.692307, 4.000000, 4.000000, 4.000000, 4.000000, 4.000000, 4.000000, 4.000000, 4.000000, 4.000000, 4.000000, 4.000000, 4.000000, 4.000000, 4.000000, 4.000000, 4.000000
1.000000, 0.000000, 4208.717773, 4217.948730, 4184.102539, 4202.563965, 4195.384277, 4183.076660, 4181.538574, 4152.820313, 4172.820313, 4953.333008, 4195.384277, 4186.666504, 4243.076660, 4206.666504, 3508.000000, 8228.000000, 8060.000000, 0.000000, 0.000000, 0.000000, -21032.000000, 155.384613, 4.000000, 4.000000, 4.000000, 4.000000, 4.000000, 4.000000, 4.000000, 4.000000, 4.000000, 4.000000, 4.000000, 4.000000, 4.000000, 4.000000, 4.000000, 4.000000
2.000000, 0.000000, 4212.307617, 4217.436035, 4190.256348, 4206.153809, 4199.487305, 4185.127930, 4178.461426, 4155.384277, 4177.436035, 4981.538574, 4205.127930, 4185.641113, 4250.769043, 4206.666504, 2541.000000, 8228.000000, 8060.000000, 0.000000, 0.000000, 0.000000, -21032.000000, 163.076920, 4.000000, 4.000000, 4.000000, 4.000000, 4.000000, 4.000000, 4.000000, 4.000000, 4.000000, 4.000000, 4.000000, 4.000000, 4.000000, 4.000000, 4.000000, 4.000000
3.000000, 0.000000, 4202.563965, 4207.692383, 4185.641113, 4204.102539, 4195.897461, 4182.563965, 4175.384277, 4151.794922, 4169.743652, 4982.051270, 4191.281738, 4173.333008, 4236.922852, 4204.615234, 2146.000000, 8228.000000, 8061.000000, 0.000000, 0.000000, 0.000000, -21032.000000, 171.282043, 4.000000, 4.000000, 4.000000, 4.000000, 4.000000, 4.000000, 4.000000, 4.000000, 4.000000, 4.000000, 4.000000, 4.000000, 4.000000, 4.000000, 4.000000, 4.000000
4.000000, 0.000000, 4204.102539, 4209.230469, 4181.025391, 4201.538574, 4187.692383, 4182.563965, 4175.384277, 4158.974121, 4169.743652, 4996.922852, 4182.563965, 4169.230469, 4228.717773, 4200.000000, 3539.000000, 8228.000000, 8061.000000, 0.000000, 0.000000, 0.000000, -21032.000000, 178.974350, 4.000000, 4.000000, 4.000000, 4.000000, 4.000000, 4.000000, 4.000000, 4.000000, 4.000000, 4.000000, 4.000000, 4.000000, 4.000000, 4.000000, 4.000000, 4.000000
5.000000, 0.000000, 4205.641113, 4213.846191, 4184.102539, 4202.051270, 4193.846191, 4185.127930, 4173.333008, 4180.000000, 4187.692383, 5036.410156, 4194.871582, 4177.436035, 4237.436035, 4200.000000, 3535.000000, 8229.000000, 8059.000000, 0.000000, 0.000000, 0.000000, -21032.000000, 187.179489, 4.000000, 4.000000, 4.000000, 4.000000, 4.000000, 4.000000, 4.000000, 4.000000, 4.000000, 4.000000, 4.000000, 4.000000, 4.000000, 4.000000, 4.000000, 4.000000
6.000000, 0.000000, 4204.615234, 4208.717773, 4184.615234, 4201.025391, 4203.076660, 4186.153809, 4176.410156, 4186.666504, 4190.769043, 5057.948730, 4195.897461, 4178.974121, 4235.897461, 4202.051270, 3130.000000, 8229.000000, 8059.000000, 0.000000, 0.000000, 0.000000, -21032.000000, 194.871796, 4.000000, 4.000000, 4.000000, 4.000000, 4.000000, 4.000000, 4.000000, 4.000000, 4.000000, 4.000000, 4.000000, 4.000000, 4.000000, 4.000000, 4.000000, 4.000000
7.000000, 0.000000, 4207.692383, 4207.692383, 4183.589844, 4201.538574, 4201.538574, 4186.153809, 4181.538574, 4171.281738, 4177.948730, 5053.846191, 4186.153809, 4174.358887, 4227.179199, 4203.589844, 3518.000000, 8234.000000, 8061.000000, 0.000000, 0.000000, 0.000000, -21032.000000, 202.564102, 4.000000, 4.000000, 4.000000, 4.000000, 4.000000, 4.000000, 4.000000, 4.000000, 4.000000, 4.000000, 4.000000, 4.000000, 4.000000, 4.000000, 4.000000, 4.000000
8.000000, 0.000000, 4207.692383, 4207.692383, 4184.615234, 4203.076660, 4194.871582, 4187.179199, 4182.563965, 4157.436035, 4175.384277, 5052.307617, 4184.615234, 4171.281738, 4227.692383, 4205.641113, 3530.000000, 8234.000000, 8061.000000, 0.000000, 0.000000, 0.000000, -21032.000000, 210.769226, 4.000000, 4.000000, 4.000000, 4.000000, 4.000000, 4.000000, 4.000000, 4.000000, 4.000000, 4.000000, 4.000000, 4.000000, 4.000000, 4.000000, 4.000000, 4.000000
9.000000, 0.000000, 4209.743652, 4202.563965, 4184.615234, 4201.025391, 4194.871582, 4184.102539, 4181.025391, 4154.358887, 4179.487305, 5066.153809, 4186.666504, 4168.717773, 4229.230469, 4201.538574, 3499.000000, 8239.000000, 8065.000000, 0.000000, 0.000000, 0.000000, -21032.000000, 218.974350, 4.000000, 4.000000, 4.000000, 4.000000, 4.000000, 4.000000, 4.000000, 4.000000, 4.000000, 4.000000, 4.000000, 4.000000, 4.000000, 4.000000, 4.000000, 4.000000
10.000000, 0.000000, 4210.256348, 4203.589844, 4187.179199, 4199.487305, 4198.974121, 4185.127930, 4186.153809, 4156.410156, 4178.974121, 5073.846191, 4187.692383, 4169.743652, 4226.666504, 4205.127930, 3545.000000, 8239.000000, 8065.000000, 0.000000, 0.000000, 0.000000, -21032.000000, 226.666656, 4.000000, 4.000000, 4.000000, 4.000000, 4.000000, 4.000000, 4.000000, 4.000000, 4.000000, 4.000000, 4.000000, 4.000000, 4.000000, 4.000000, 4.000000, 4.000000
11.000000, 0.000000, 4216.410156, 4211.794922, 4195.897461, 4204.615234, 4200.512695, 4191.281738, 4191.281738, 4169.743652, 4183.076660, 5074.358887, 4199.487305, 4185.127930, 4235.384277, 4210.769043, 558.000000, 8246.000000, 8066.000000, 0.000000, 0.000000, 0.000000, -21032.000000, 234.358963, 4.000000, 4.000000, 4.000000, 4.000000, 4.000000, 4.000000, 4.000000, 4.000000, 4.000000, 4.000000, 4.000000, 4.000000, 4.000000, 4.000000, 4.000000, 4.000000
12.000000, 0.000000, 4224.102539, 4213.846191, 4199.487305, 4209.743652, 4200.512695, 4189.230469, 4189.743652, 4186.666504, 4195.897461, 5078.461426, 4216.410156, 4202.563965, 4247.692383, 4207.692383, 3483.000000, 8246.000000, 8066.000000, 0.000000, 0.000000, 0.000000, -21032.000000, 242.051270, 4.000000, 4.000000, 4.000000, 4.000000, 4.000000, 4.000000, 4.000000, 4.000000, 4.000000, 4.000000, 4.000000, 4.000000, 4.000000, 4.000000, 4.000000, 4.000000
13.000000, 0.000000, 4217.436035, 4210.256348, 4192.820313, 4204.102539, 4201.025391, 4186.153809, 4188.717773, 4190.769043, 4203.076660, 5065.127930, 4214.358887, 4198.461426, 4242.563965, 4208.205078, 3406.000000, 8255.000000, 8063.000000, 0.000000, 0.000000, 0.000000, -21032.000000, 250.256409, 4.000000, 4.000000, 4.000000, 4.000000, 4.000000, 4.000000, 4.000000, 4.000000, 4.000000, 4.000000, 4.000000, 4.000000, 4.000000, 4.000000, 4.000000, 4.000000
14.000000, 0.000000, 4213.333008, 4207.179199, 4184.615234, 4191.794922, 4204.102539, 4196.410156, 4191.281738, 4188.717773, 4197.436035, 5025.127930, 4201.538574, 4185.127930, 4225.641113, 4207.692383, 3545.000000, 8255.000000, 8063.000000, 0.000000, 0.000000, 0.000000, -21032.000000, 257.948700, 4.000000, 4.000000, 4.000000, 4.000000, 4.000000, 4.000000, 4.000000, 4.000000, 4.000000, 4.000000, 4.000000, 4.000000, 4.000000, 4.000000, 4.000000, 4.000000
15.000000, 0.000000, 4209.230469, 4202.563965, 4180.000000, 4186.666504, 4204.102539, 4205.127930, 4194.358887, 4194.871582, 4197.436035, 5004.615234, 4198.974121, 4184.102539, 4218.461426, 4206.666504, 558.000000, 8265.000000, 8069.000000, 0.000000, 0.000000, 0.000000, -21032.000000, 266.153839, 4.000000, 4.000000, 4.000000, 4.000000, 4.000000, 4.000000, 4.000000, 4.000000, 4.000000, 4.000000, 4.000000, 4.000000, 4.000000, 4.000000, 4.000000, 4.000000
16.000000, 0.000000, 4203.589844, 4194.871582, 4176.410156, 4185.127930, 4195.384277, 4201.538574, 4200.512695, 4208.205078, 4210.769043, 5006.666504, 4196.922852, 4184.102539, 4216.410156, 4207.692383, 0.000000, 8265.000000, 8069.000000, 0.000000, 0.000000, 0.000000, -21032.000000, 273.846161, 4.000000, 4.000000, 4.000000, 4.000000, 4.000000, 4.000000, 4.000000, 4.000000, 4.000000, 4.000000, 4.000000, 4.000000, 4.000000, 4.000000, 4.000000, 4.000000
17.000000, 0.000000, 4208.717773, 4193.333008, 4183.076660, 4185.127930, 4188.717773, 4201.025391, 4204.102539, 4215.897461, 4218.461426, 4987.692383, 4197.436035, 4187.692383, 4217.436035, 4204.615234, 0.000000, 8267.000000, 8080.000000, 0.000000, 0.000000, 0.000000, -21032.000000, 282.051270, 4.000000, 4.000000, 4.000000, 4.000000, 4.000000, 4.000000, 4.000000, 4.000000, 4.000000, 4.000000, 4.000000, 4.000000, 4.000000, 4.000000, 4.000000, 4.000000
18.000000, 0.000000, 4215.384277, 4200.512695, 4191.794922, 4193.333008, 4196.922852, 4199.487305, 4195.897461, 4206.153809, 4210.256348, 4966.153809, 4205.641113, 4198.974121, 4223.589844, 4206.666504, 0.000000, 8267.000000, 8080.000000, 0.000000, 0.000000, 0.000000, -21032.000000, 289.743591, 4.000000, 4.000000, 4.000000, 4.000000, 4.000000, 4.000000, 4.000000, 4.000000, 4.000000, 4.000000, 4.000000, 4.000000, 4.000000, 4.000000, 4.000000, 4.000000
19.000000, 0.000000, 4221.538574, 4204.615234, 4192.820313, 4202.563965, 4202.563965, 4190.256348, 4188.205078, 4195.384277, 4203.076660, 4963.589844, 4210.769043, 4200.512695, 4230.769043, 4207.692383, 0.000000, 8269.000000, 8079.000000, 0.000000, 0.000000, 0.000000, -21032.000000, 297.948700, 4.000000, 4.000000, 4.000000, 4.000000, 4.000000, 4.000000, 4.000000, 4.000000, 4.000000, 4.000000, 4.000000, 4.000000, 4.000000, 4.000000, 4.000000, 4.000000
20.000000, 0.000000, 4223.589844, 4205.641113, 4193.333008, 4203.589844, 4196.922852, 4190.256348, 4191.281738, 4192.307617, 4201.538574, 4938.974121, 4213.846191, 4196.410156, 4238.974121, 4206.666504, 0.000000, 8269.000000, 8079.000000, 0.000000, 0.000000, 0.000000, -21032.000000, 305.641022, 4.000000, 4.000000, 4.000000, 4.000000, 4.000000, 4.000000, 4.000000, 4.000000, 4.000000, 4.000000, 4.000000, 4.000000, 4.000000, 4.000000, 4.000000, 4.000000
21.000000, 0.000000, 4220.000000, 4203.076660, 4197.436035, 4201.538574, 4193.333008, 4196.410156, 4188.717773, 4185.127930, 4194.871582, 4888.205078, 4210.769043, 4202.051270, 4221.538574, 4204.615234, 0.000000, 8266.000000, 8099.000000, 0.000000, 0.000000, 0.000000, -21032.000000, 313.333313, 4.000000, 4.000000, 4.000000, 4.000000, 4.000000, 4.000000, 4.000000, 4.000000, 4.000000, 4.000000, 4.000000, 4.000000, 4.000000, 4.000000, 4.000000, 4.000000
22.000000, 0.000000, 4215.897461, 4192.820313, 4200.000000, 4201.025391, 4191.794922, 4198.461426, 4188.717773, 4181.025391, 4188.717773, 4857.435547, 4201.025391, 4201.538574, 4202.051270, 4201.538574, 0.000000, 8266.000000, 8099.000000, 0.000000, 0.000000, 0.000000, -21032.000000, 321.025635, 4.000000, 4.000000, 4.000000, 4.000000, 4.000000, 4.000000, 4.000000, 4.000000, 4.000000, 4.000000, 4.000000, 4.000000, 4.000000, 4.000000, 4.000000, 4.000000
23.000000, 0.000000, 4212.307617, 4191.281738, 4192.307617, 4199.487305, 4194.358887, 4199.487305, 4197.948730, 4187.179199, 4189.230469, 4843.076660, 4204.615234, 4189.743652, 4221.538574, 4207.179199, 0.000000, 8264.000000, 8102.000000, 0.000000, 0.000000, 0.000000, -21032.000000, 329.230774, 4.000000, 4.000000, 4.000000, 4.000000, 4.000000, 4.000000, 4.000000, 4.000000, 4.000000, 4.000000, 4.000000, 4.000000, 4.000000, 4.000000, 4.000000, 4.000000
24.000000, 0.000000, 4225.127930, 4205.641113, 4186.666504, 4200.512695, 4201.025391, 4200.512695, 4200.512695, 4194.871582, 4196.410156, 4821.538574, 4221.025391, 4186.666504, 4249.743652, 4210.256348, 0.000000, 8264.000000, 8102.000000, 0.000000, 0.000000, 0.000000, -21032.000000, 336.923065, 4.000000, 4.000000, 4.000000, 4.000000, 4.000000, 4.000000, 4.000000, 4.000000, 4.000000, 4.000000, 4.000000, 4.000000, 4.000000, 4.000000, 4.000000, 4.000000
25.000000, 0.000000, 4233.333008, 4210.769043, 4196.922852, 4207.692383, 4202.051270, 4208.717773, 4202.051270, 4211.281738, 4218.461426, 4814.871582, 4233.846191, 4201.025391, 4260.512695, 4209.743652, 0.000000, 8266.000000, 8119.000000, 0.000000, 0.000000, 0.000000, -21032.000000, 345.128204, 4.000000, 4.000000, 4.000000, 4.000000, 4.000000, 4.000000, 4.000000, 4.000000, 4.000000, 4.000000, 4.000000, 4.000000, 4.000000, 4.000000, 4.000000, 4.000000
26.000000, 0.000000, 4233.846191, 4205.641113, 4211.281738, 4214.871582, 4201.538574, 4217.436035, 4206.666504, 4230.256348, 4238.461426, 4812.307617, 4244.102539, 4216.410156, 4268.205078, 4213.846191, 0.000000, 8266.000000, 8119.000000, 0.000000, 0.000000, 0.000000, -21032.000000, 352.820496, 4.000000, 4.000000, 4.000000, 4.000000, 4.000000, 4.000000, 4.000000, 4.000000, 4.000000, 4.000000, 4.000000, 4.000000, 4.000000, 4.000000, 4.000000, 4.000000
27.000000, 0.000000, 4238.974121, 4202.051270, 4212.820313, 4208.717773, 4203.076660, 4208.717773, 4203.589844, 4227.179199, 4241.025391, 4788.717773, 4248.717773, 4213.846191, 4273.846191, 4210.769043, 0.000000, 8254.000000, 8122.000000, 0.000000, 0.000000, 0.000000, -21032.000000, 361.025635, 4.000000, 4.000000, 4.000000, 4.000000, 4.000000, 4.000000, 4.000000, 4.000000, 4.000000, 4.000000, 4.000000, 4.000000, 4.000000, 4.000000, 4.000000, 4.000000
28.000000, 0.000000, 4236.922852, 4195.384277, 4207.179199, 4199.487305, 4198.974121, 4196.410156, 4200.512695, 4215.384277, 4232.820313, 4764.102539, 4246.666504, 4210.769043, 4275.897461, 4208.205078, 0.000000, 8254.000000, 8122.000000, 0.000000, 0.000000, 0.000000, -21032.000000, 368.717926, 4.000000, 4.000000, 4.000000, 4.000000, 4.000000, 4.000000, 4.000000, 4.000000, 4.000000, 4.000000, 4.000000, 4.000000, 4.000000, 4.000000, 4.000000, 4.000000
29.000000, 0.000000, 4243.589844, 4195.384277, 4206.153809, 4201.538574, 4190.769043, 4200.000000, 4204.615234, 4210.256348, 4220.512695, 4742.563965, 4243.589844, 4212.307617, 4280.512695, 4207.692383, 0.000000, 8252.000000, 8129.000000, 0.000000, 0.000000, 0.000000, -21032.000000, 376.410248, 4.000000, 4.000000, 4.000000, 4.000000, 4.000000, 4.000000, 4.000000, 4.000000, 4.000000, 4.000000, 4.000000, 4.000000, 4.000000, 4.000000, 4.000000, 4.000000
30.000000, 0.000000, 4243.589844, 4195.384277, 4199.487305, 4201.538574, 4186.666504, 4202.563965, 4205.127930, 4212.307617, 4216.410156, 4709.743652, 4235.897461, 4205.127930, 4272.307617, 4205.127930, 0.000000, 8252.000000, 8129.000000, 0.000000, 0.000000, 0.000000, -21032.000000, 384.102570, 4.000000, 4.000000, 4.000000, 4.000000, 4.000000, 4.000000, 4.000000, 4.000000, 4.000000, 4.000000, 4.000000, 4.000000, 4.000000, 4.000000, 4.000000, 4.000000
31.000000, 0.000000, 4233.846191, 4189.230469, 4196.922852, 4195.384277, 4190.769043, 4198.974121, 4204.102539, 4214.871582, 4222.563965, 4678.974121, 4232.820313, 4202.563965, 4258.974121, 4206.666504, 0.000000, 8242.000000, 8143.000000, 0.000000, 0.000000, 0.000000, -21032.000000, 392.307678, 4.000000, 4.000000, 4.000000, 4.000000, 4.000000, 4.000000, 4.000000, 4.000000, 4.000000, 4.000000, 4.000000, 4.000000, 4.000000, 4.000000, 4.000000, 4.000000
32.000000, 0.000000, 4243.076660, 4194.871582, 4205.641113, 4200.512695, 4194.871582, 4201.025391, 4197.436035, 4209.743652, 4223.076660, 4665.641113, 4243.589844, 4208.717773, 4266.666504, 4208.205078, 0.000000, 8242.000000, 8143.000000, 0.000000, 0.000000, 0.000000, -21032.000000, 400.000000, 4.000000, 4.000000, 4.000000, 4.000000, 4.000000, 4.000000, 4.000000, 4.000000, 4.000000, 4.000000, 4.000000, 4.000000, 4.000000, 4.000000, 4.000000, 4.000000
33.000000, 0.000000, 4244.615234, 4198.461426, 4200.000000, 4204.615234, 4188.717773, 4197.436035, 4186.666504, 4196.410156, 4214.358887, 4650.769043, 4242.051270, 4209.230469, 4271.281738, 4209.230469, 0.000000, 8233.000000, 8159.000000, 0.000000, 0.000000, 0.000000, -21032.000000, 408.205109, 4.000000, 4.000000, 4.000000, 4.000000, 4.000000, 4.000000, 4.000000, 4.000000, 4.000000, 4.000000, 4.000000, 4.000000, 4.000000, 4.000000, 4.000000, 4.000000
34.000000, 0.000000, 4236.410156, 4189.230469, 4189.230469, 4196.922852, 4183.589844, 4192.307617, 4191.794922, 4196.922852, 4213.333008, 4617.948730, 4229.230469, 4207.179199, 4254.871582, 4207.692383, 0.000000, 8233.000000, 8159.000000, 0.000000, 0.000000, 0.000000, -21032.000000, 415.897430, 4.000000, 4.000000, 4.000000, 4.000000, 4.000000, 4.000000, 4.000000, 4.000000, 4.000000, 4.000000, 4.000000, 4.000000, 4.000000, 4.000000, 4.000000, 4.000000
35.000000, 0.000000, 4234.358887, 4187.179199, 4194.871582, 4195.897461, 4183.589844, 4199.487305, 4205.127930, 4214.871582, 4221.025391, 4588.717773, 4230.256348, 4212.307617, 4244.615234, 4205.127930, 0.000000, 8208.000000, 8191.000000, 0.000000, 0.000000, 0.000000, -21032.000000, 423.589722, 4.000000, 4.000000, 4.000000, 4.000000, 4.000000, 4.000000, 4.000000, 4.000000, 4.000000, 4.000000, 4.000000, 4.000000, 4.000000, 4.000000, 4.000000, 4.000000
36.000000, 0.000000, 4232.307617, 4193.846191, 4197.948730, 4198.461426, 4181.538574, 4204.102539, 4203.076660, 4214.358887, 4218.461426, 4584.615234, 4235.897461, 4207.692383, 4249.230469, 4207.179199, 0.000000, 8208.000000, 8191.000000, 0.000000, 0.000000, 0.000000, -21032.000000, 431.282043, 4.000000, 4.000000, 4.000000, 4.000000, 4.000000, 4.000000, 4.000000, 4.000000, 4.000000, 4.000000, 4.000000, 4.000000, 4.000000, 4.000000, 4.000000, 4.000000
37.000000, 0.000000, 4228.717773, 4187.692383, 4190.769043, 4190.256348, 4180.512695, 4193.846191, 4196.922852, 4202.051270, 4211.794922, 4581.025391, 4227.692383, 4196.922852, 4243.589844, 4206.666504, 0.000000, 8196.000000, 8200.000000, 0.000000, 0.000000, 0.000000, -21032.000000, 439.487183, 4.000000, 4.000000, 4.000000, 4.000000, 4.000000, 4.000000, 4.000000, 4.000000, 4.000000, 4.000000, 4.000000, 4.000000, 4.000000, 4.000000, 4.000000, 4.000000
38.000000, 0.000000, 4221.025391, 4181.025391, 4190.769043, 4184.102539, 4190.256348, 4191.281738, 4200.512695, 4206.666504, 4219.487305, 4564.102539, 4226.666504, 4199.487305, 4233.333008, 4209.230469, 0.000000, 8196.000000, 8200.000000, 0.000000, 0.000000, 0.000000, -21032.000000, 447.179474, 4.000000, 4.000000, 4.000000, 4.000000, 4.000000, 4.000000, 4.000000, 4.000000, 4.000000, 4.000000, 4.000000, 4.000000, 4.000000, 4.000000, 4.000000, 4.000000
39.000000, 0.000000, 4220.000000, 4188.205078, 4194.871582, 4187.179199, 4195.897461, 4200.000000, 4203.589844, 4219.487305, 4231.794922, 4550.769043, 4229.230469, 4202.051270, 4235.384277, 4208.205078, 0.000000, 8182.000000, 8213.000000, 0.000000, 0.000000, 0.000000, -21032.000000, 454.871796, 4.000000, 4.000000, 4.000000, 4.000000, 4.000000, 4.000000, 4.000000, 4.000000, 4.000000, 4.000000, 4.000000, 4.000000, 4.000000, 4.000000, 4.000000, 4.000000
40.000000, 0.000000, 4218.461426, 4185.641113, 4188.717773, 4186.666504, 4191.281738, 4201.025391, 4201.025391, 4221.538574, 4232.820313, 4534.358887, 4221.538574, 4199.487305, 4235.897461, 4205.127930, 0.000000, 8182.000000, 8213.000000, 0.000000, 0.000000, 0.000000, -21032.000000, 463.076904, 4.000000, 4.000000, 4.000000, 4.000000, 4.000000, 4.000000, 4.000000, 4.000000, 4.000000, 4.000000, 4.000000, 4.000000, 4.000000, 4.000000, 4.000000, 4.000000
41.000000, 0.000000, 4211.281738, 4176.410156, 4186.153809, 4183.076660, 4186.666504, 4199.487305, 4201.538574, 4215.897461, 4227.692383, 4501.025391, 4220.000000, 4202.051270, 4229.230469, 4210.769043, 0.000000, 8157.000000, 8232.000000, 0.000000, 0.000000, 0.000000, -21032.000000, 470.769226, 4.000000, 4.000000, 4.000000, 4.000000, 4.000000, 4.000000, 4.000000, 4.000000, 4.000000, 4.000000, 4.000000, 4.000000, 4.000000, 4.000000, 4.000000, 4.000000
42.000000, 0.000000, 4215.897461, 4178.974121, 4188.717773, 4183.076660, 4189.743652, 4200.512695, 4201.025391, 4212.820313, 4221.025391, 4468.205078, 4228.205078, 4200.512695, 4229.230469, 4208.205078, 0.000000, 8157.000000, 8232.000000, 0.000000, 0.000000, 0.000000, -21032.000000, 478.974335, 4.000000, 4.000000, 4.000000, 4.000000, 4.000000, 4.000000, 4.000000, 4.000000, 4.000000, 4.000000, 4.000000, 4.000000, 4.000000, 4.000000, 4.000000, 4.000000
43.000000, 0.000000, 4213.333008, 4184.102539, 4185.127930, 4182.051270, 4196.922852, 4202.051270, 4202.051270, 4214.358887, 4214.871582, 4448.205078, 4224.102539, 4192.820313, 4234.358887, 4205.641113, 0.000000, 8142.000000, 8229.000000, 0.000000, 0.000000, 0.000000, -21032.000000, 486.666656, 4.000000, 4.000000, 4.000000, 4.000000, 4.000000, 4.000000, 4.000000, 4.000000, 4.000000, 4.000000, 4.000000, 4.000000, 4.000000, 4.000000, 4.000000, 4.000000
44.000000, 0.000000, 4207.179199, 4186.153809, 4184.102539, 4183.589844, 4200.512695, 4209.230469, 4210.256348, 4222.563965, 4216.922852, 4425.641113, 4213.846191, 4188.717773, 4230.769043, 4208.717773, 0.000000, 8142.000000, 8229.000000, 0.000000, 0.000000, 0.000000, -21032.000000, 494.358948, 4.000000, 4.000000, 4.000000, 4.000000, 4.000000, 4.000000, 4.000000, 4.000000, 4.000000, 4.000000, 4.000000, 4.000000, 4.000000, 4.000000, 4.000000, 4.000000
45.000000, 0.000000, 4206.666504, 4185.127930, 4188.205078, 4186.153809, 4198.974121, 4217.436035, 4216.410156, 4230.256348, 4222.051270, 4405.641113, 4220.512695, 4189.743652, 4226.666504, 4204.615234, 0.000000, 8131.000000, 8237.000000, 0.000000, 0.000000, 0.000000, -21032.000000, 502.564087, 4.000000, 4.000000, 4.000000, 4.000000, 4.000000, 4.000000, 4.000000, 4.000000, 4.000000, 4.000000, 4.000000, 4.000000, 4.000000, 4.000000, 4.000000, 4.000000
46.000000, 0.000000, 4201.538574, 4180.512695, 4187.179199, 4185.127930, 4197.436035, 4216.410156, 4218.974121, 4231.794922, 4224.102539, 4392.820313, 4225.127930, 4186.153809, 4225.641113, 4204.615234, 0.000000, 8131.000000, 8237.000000, 0.000000, 0.000000, 0.000000, -21032.000000, 510.256409, 4.000000, 4.000000, 4.000000, 4.000000, 4.000000, 4.000000, 4.000000, 4.000000, 4.000000, 4.000000, 4.000000, 4.000000, 4.000000, 4.000000, 4.000000, 4.000000
47.000000, 0.000000, 4204.102539, 4181.025391, 4185.127930, 4184.615234, 4200.512695, 4213.846191, 4221.025391, 4230.769043, 4226.153809, 4372.820313, 4218.461426, 4182.563965, 4221.025391, 4204.102539, 0.000000, 8126.000000, 8234.000000, 0.000000, 0.000000, 0.000000, -21032.000000, 517.948730, 4.000000, 4.000000, 4.000000, 4.000000, 4.000000, 4.000000, 4.000000, 4.000000, 4.000000, 4.000000, 4.000000, 4.000000, 4.000000, 4.000000, 4.000000, 4.000000
48.000000, 0.000000, 4205.641113, 4181.538574, 4186.666504, 4188.205078, 4206.666504, 4223.076660, 4226.153809, 4234.871582, 4231.281738, 4353.846191, 4216.922852, 4185.127930, 4218.461426, 4201.538574, 0.000000, 8126.000000, 8234.000000, 0.000000, 0.000000, 0.000000, -21032.000000, 526.153809, 4.000000, 4.000000, 4.000000, 4.000000, 4.000000, 4.000000, 4.000000, 4.000000, 4.000000, 4.000000, 4.000000, 4.000000, 4.000000, 4.000000, 4.000000, 4.000000
49.000000, 0.000000, 4198.974121, 4176.922852, 4188.717773, 4187.692383, 4206.666504, 4228.205078, 4231.794922, 4230.769043, 4226.666504, 4347.692383, 4216.922852, 4183.589844, 4214.871582, 4203.589844, 0.000000, 8130.000000, 8226.000000, 0.000000, 0.000000, 0.000000, -21032.000000, 533.846130, 4.000000, 4.000000, 4.000000, 4.000000, 4.000000, 4.000000, 4.000000, 4.000000, 4.000000, 4.000000, 4.000000, 4.000000, 4.000000, 4.000000, 4.000000, 4.000000
50.000000, 0.000000, 4198.974121, 4177.436035, 4186.666504, 4186.666504, 4201.538574, 4221.025391, 4227.179199, 4210.769043, 4215.384277, 4347.179199, 4214.871582, 4181.025391, 4208.717773, 4204.615234, 0.000000, 8130.000000, 8226.000000, 0.000000, 0.000000, 0.000000, -21032.000000, 541.538452, 4.000000, 4.000000, 4.000000, 4.000000, 4.000000, 4.000000, 4.000000, 4.000000, 4.000000, 4.000000, 4.000000, 4.000000, 4.000000, 4.000000, 4.000000, 4.000000
51.000000, 0.000000, 4198.461426, 4182.563965, 4184.615234, 4192.307617, 4201.025391, 4215.384277, 4215.897461, 4204.615234, 4218.461426, 4342.563965, 4216.922852, 4185.127930, 4207.692383, 4208.205078, 0.000000, 8144.000000, 8215.000000, 0.000000, 0.000000, 0.000000, -21032.000000, 549.743591, 4.000000, 4.000000, 4.000000, 4.000000, 4.000000, 4.000000, 4.000000, 4.000000, 4.000000, 4.000000, 4.000000, 4.000000, 4.000000, 4.000000, 4.000000, 4.000000
52.000000, 0.000000, 4199.487305, 4180.512695, 4185.641113, 4197.436035, 4205.127930, 4216.922852, 4212.307617, 4216.410156, 4230.769043, 4335.384277, 4217.948730, 4185.127930, 4210.769043, 4206.666504, 0.000000, 8144.000000, 8215.000000, 0.000000, 0.000000, 0.000000, -21032.000000, 557.435913, 4.000000, 4.000000, 4.000000, 4.000000, 4.000000, 4.000000, 4.000000, 4.000000, 4.000000, 4.000000, 4.000000, 4.000000, 4.000000, 4.000000, 4.000000, 4.000000
53.000000, 0.000000, 4196.410156, 4178.461426, 4191.794922, 4197.436035, 4206.153809, 4221.538574, 4220.512695, 4220.512695, 4228.717773, 4330.256348, 4217.948730, 4186.153809, 4211.794922, 4204.102539, 0.000000, 8153.000000, 8219.000000, 0.000000, 0.000000, 0.000000, -21032.000000, 565.640991, 4.000000, 4.000000, 4.000000, 4.000000, 4.000000, 4.000000, 4.000000, 4.000000, 4.000000, 4.000000, 4.000000, 4.000000, 4.000000, 4.000000, 4.000000, 4.000000
54.000000, 0.000000, 4198.974121, 4185.641113, 4201.538574, 4200.512695, 4211.794922, 4224.102539, 4229.230469, 4222.051270, 4223.589844, 4333.846191, 4224.615234, 4196.922852, 4213.333008, 4207.692383, 0.000000, 8153.000000, 8219.000000, 0.000000, 0.000000, 0.000000, -21032.000000, 573.333313, 4.000000, 4.000000, 4.000000, 4.000000, 4.000000, 4.000000, 4.000000, 4.000000, 4.000000, 4.000000, 4.000000, 4.000000, 4.000000, 4.000000, 4.000000, 4.000000
55.000000, 0.000000, 4209.230469, 4189.743652, 4206.153809, 4206.153809, 4218.461426, 4222.563965, 4230.256348, 4230.769043, 4234.871582, 4342.563965, 4233.846191, 4205.127930, 4216.922852, 4206.153809, 0.000000, 8175.000000, 8201.000000, 0.000000, 0.000000, 0.000000, -21032.000000, 581.025635, 4.000000, 4.000000, 4.000000, 4.000000, 4.000000, 4.000000, 4.000000, 4.000000, 4.000000, 4.000000, 4.000000, 4.000000, 4.000000, 4.000000, 4.000000, 4.000000
56.000000, 0.000000, 4204.615234, 4181.538574, 4200.000000, 4200.512695, 4212.820313, 4218.461426, 4224.615234, 4229.230469, 4236.922852, 4337.948730, 4230.256348, 4202.563965, 4215.897461, 4204.615234, 0.000000, 8175.000000, 8201.000000, 0.000000, 0.000000, 0.000000, -21032.000000, 589.230774, 4.000000, 4.000000, 4.000000, 4.000000, 4.000000, 4.000000, 4.000000, 4.000000, 4.000000, 4.000000, 4.000000, 4.000000, 4.000000, 4.000000, 4.000000, 4.000000
57.000000, 0.000000, 4198.974121, 4180.000000, 4196.922852, 4189.230469, 4203.076660, 4214.871582, 4217.436035, 4220.000000, 4223.589844, 4324.615234, 4221.025391, 4195.384277, 4210.769043, 4205.127930, 0.000000, 8182.000000, 8192.000000, 0.000000, 0.000000, 0.000000, -21032.000000, 596.923035, 4.000000, 4.000000, 4.000000, 4.000000, 4.000000, 4.000000, 4.000000, 4.000000, 4.000000, 4.000000, 4.000000, 4.000000, 4.000000, 4.000000, 4.000000, 4.000000
58.000000, 0.000000, 4191.794922, 4182.051270, 4196.410156, 4186.153809, 4188.717773, 4207.692383, 4216.410156, 4215.897461, 4217.436035, 4312.820313, 4216.922852, 4190.769043, 4206.666504, 4205.127930, 0.000000, 8182.000000, 8192.000000, 0.000000, 0.000000, 0.000000, -21032.000000, 604.615356, 4.000000, 4.000000, 4.000000, 4.000000, 4.000000, 4.000000, 4.000000, 4.000000, 4.000000, 4.000000, 4.000000, 4.000000, 4.000000, 4.000000, 4.000000, 4.000000
59.000000, 0.000000, 4183.589844, 4177.948730, 4187.179199, 4187.179199, 4172.820313, 4198.461426, 4216.410156, 4211.794922, 4214.871582, 4305.127930, 4214.358887, 4186.666504, 4197.948730, 4207.179199, 0.000000, 8222.000000, 8177.000000, 0.000000, 0.000000, 0.000000, -21032.000000, 612.820496, 4.000000, 4.000000, 4.000000, 4.000000, 4.000000, 4.000000, 4.000000, 4.000000, 4.000000, 4.000000, 4.000000, 4.000000, 4.000000, 4.000000, 4.000000, 4.000000
60.000000, 0.000000, 4189.743652, 4175.897461, 4185.641113, 4186.666504, 4181.538574, 4199.487305, 4216.410156, 4213.333008, 4214.871582, 4316.922852, 4214.871582, 4183.076660, 4195.897461, 4206.666504, 0.000000, 8222.000000, 8177.000000, 0.000000, 0.000000, 0.000000, -21032.000000, 620.512817, 4.000000, 4.000000, 4.000000, 4.000000, 4.000000, 4.000000, 4.000000, 4.000000, 4.000000, 4.000000, 4.000000, 4.000000, 4.000000, 4.000000, 4.000000, 4.000000
61.000000, 0.000000, 4194.871582, 4182.051270, 4194.358887, 4190.256348, 4200.512695, 4210.256348, 4219.487305, 4221.538574, 4226.666504, 4343.589844, 4218.461426, 4190.769043, 4207.179199, 4207.692383, 0.000000, 8237.000000, 8178.000000, 0.000000, 0.000000, 0.000000, -21032.000000, 628.717957, 4.000000, 4.000000, 4.000000, 4.000000, 4.000000, 4.000000, 4.000000, 4.000000, 4.000000, 4.000000, 4.000000, 4.000000, 4.000000, 4.000000, 4.000000, 4.000000
62.000000, 0.000000, 4201.538574, 4192.307617, 4197.948730, 4201.538574, 4203.589844, 4214.871582, 4216.922852, 4220.000000, 4231.281738, 4356.922852, 4219.487305, 4196.410156, 4218.974121, 4206.153809, 0.000000, 8237.000000, 8178.000000, 0.000000, 0.000000, 0.000000, -21032.000000, 636.410217, 4.000000, 4.000000, 4.000000, 4.000000, 4.000000, 4.000000, 4.000000, 4.000000, 4.000000, 4.000000, 4.000000, 4.000000, 4.000000, 4.000000, 4.000000, 4.000000
63.000000, 0.000000, 4202.051270, 4187.692383, 4193.846191, 4204.102539, 4200.512695, 4213.333008, 4212.820313, 4215.897461, 4225.641113, 4359.487305, 4217.948730, 4190.769043, 4213.846191, 4202.051270, 0.000000, 8245.000000, 8196.000000, 0.000000, 0.000000, 0.000000, -21032.000000, 644.615356, 4.000000, 4.000000, 4.000000, 4.000000, 4.000000, 4.000000, 4.000000, 4.000000, 4.000000, 4.000000, 4.000000, 4.000000, 4.000000, 4.000000, 4.000000, 4.000000
64.000000, 0.000000, 4185.127930, 4172.307617, 4189.230469, 4192.307617, 4202.051270, 4214.871582, 4217.948730, 4219.487305, 4230.769043, 4361.538574, 4215.384277, 4191.794922, 4199.487305, 4202.051270, 3356.000000, 8245.000000, 8196.000000, 0.000000, 0.000000, 0.000000, -21032.000000, 652.307678, 4.000000, 4.000000, 4.000000, 4.000000, 4.000000, 4.000000, 4.000000, 4.000000, 4.000000, 4.000000, 4.000000, 4.000000, 4.000000, 4.000000, 4.000000, 4.000000
65.000000, 0.000000, 4182.051270, 4173.333008, 4188.717773, 4190.256348, 4199.487305, 4215.384277, 4217.436035, 4212.307617, 4227.692383, 4349.230469, 4214.871582, 4195.897461, 4195.897461, 4200.000000, 3508.000000, 8248.000000, 8194.000000, 0.000000, 0.000000, 0.000000, -21032.000000, 660.000000, 4.000000, 4.000000, 4.000000, 4.000000, 4.000000, 4.000000, 4.000000, 4.000000, 4.000000, 4.000000, 4.000000, 4.000000, 4.000000, 4.000000, 4.000000, 4.000000
66.000000, 0.000000, 4190.769043, 4186.666504, 4190.769043, 4202.051270, 4200.000000, 4207.179199, 4205.127930, 4197.436035, 4209.743652, 4322.051270, 4216.922852, 4192.307617, 4202.563965, 4204.615234, 2533.000000, 8248.000000, 8194.000000, 0.000000, 0.000000, 0.000000, -21032.000000, 667.692322, 4.000000, 4.000000, 4.000000, 4.000000, 4.000000, 4.000000, 4.000000, 4.000000, 4.000000, 4.000000, 4.000000, 4.000000, 4.000000, 4.000000, 4.000000, 4.000000
67.000000, 0.000000, 4194.358887, 4190.769043, 4193.333008, 4205.127930, 4203.076660, 4202.563965, 4203.076660, 4191.794922, 4207.692383, 4293.333008, 4214.358887, 4190.769043, 4198.461426, 4208.205078, 2146.000000, 8248.000000, 8180.000000, 0.000000, 0.000000, 0.000000, -21032.000000, 675.897400, 4.000000, 4.000000, 4.000000, 4.000000, 4.000000, 4.000000, 4.000000, 4.000000, 4.000000, 4.000000, 4.000000, 4.000000, 4.000000, 4.000000, 4.000000, 4.000000
68.000000, 0.000000, 4190.769043, 4187.692383, 4188.717773, 4200.000000, 4201.025391, 4208.717773, 4212.307617, 4192.307617, 4215.897461, 4262.563965, 4207.692383, 4192.307617, 4184.102539, 4204.615234, 3286.000000, 8248.000000, 8180.000000, 0.000000, 0.000000, 0.000000, -21032.000000, 683.589722, 4.000000, 4.000000, 4.000000, 4.000000, 4.000000, 4.000000, 4.000000, 4.000000, 4.000000, 4.000000, 4.000000, 4.000000, 4.000000, 4.000000, 4.000000, 4.000000
69.000000, 0.000000, 4188.205078, 4189.230469, 4185.127930, 4202.051270, 4200.512695, 4213.333008, 4216.922852, 4196.922852, 4213.846191, 4233.846191, 4210.256348, 4187.179199, 4186.153809, 4203.589844, 3535.000000, 8243.000000, 8174.000000, 0.000000, 0.000000, 0.000000, -21032.000000, 691.794861, 4.000000, 4.000000, 4.000000, 4.000000, 4.000000, 4.000000, 4.000000, 4.000000, 4.000000, 4.000000, 4.000000, 4.000000, 4.000000, 4.000000, 4.000000, 4.000000
70.000000, 0.000000, 4191.794922, 4192.820313, 4187.692383, 4203.589844, 4201.538574, 4214.358887, 4213.333008, 4199.487305, 4212.820313, 4220.512695, 4216.922852, 4183.076660, 4195.897461, 4203.589844, 3130.000000, 8243.000000, 8174.000000, 0.000000, 0.000000, 0.000000, -21032.000000, 699.487183, 4.000000, 4.000000, 4.000000, 4.000000, 4.000000, 4.000000, 4.000000, 4.000000, 4.000000, 4.000000, 4.000000, 4.000000, 4.000000, 4.000000, 4.000000, 4.000000
71.000000, 0.000000, 4190.769043, 4192.307617, 4188.717773, 4201.025391, 4199.487305, 4213.333008, 4208.717773, 4193.333008, 4210.769043, 4214.871582, 4215.384277, 4188.205078, 4195.897461, 4209.230469, 3512.000000, 8241.000000, 8170.000000, 0.000000, 0.000000, 0.000000, -21032.000000, 707.692261, 4.000000, 4.000000, 4.000000, 4.000000, 4.000000, 4.000000, 4.000000, 4.000000, 4.000000, 4.000000, 4.000000, 4.000000, 4.000000, 4.000000, 4.000000, 4.000000
72.000000, 0.000000, 4193.333008, 4191.281738, 4188.717773, 4202.563965, 4196.410156, 4206.666504, 4206.666504, 4190.256348, 4204.102539, 4203.589844, 4213.333008, 4188.717773, 4191.794922, 4209.743652, 3525.000000, 8241.000000, 8170.000000, 0.000000, 0.000000, 0.000000, -21032.000000, 715.384583, 4.000000, 4.000000, 4.000000, 4.000000, 4.000000, 4.000000, 4.000000, 4.000000, 4.000000, 4.000000, 4.000000, 4.000000, 4.000000, 4.000000, 4.000000, 4.000000
73.000000, 0.000000, 4193.846191, 4192.307617, 4186.153809, 4200.512695, 4202.051270, 4205.127930, 4207.692383, 4202.051270, 4209.743652, 4192.307617, 4216.410156, 4188.717773, 4193.846191, 4203.076660, 3535.000000, 8241.000000, 8162.000000, 0.000000, 0.000000, 0.000000, -21032.000000, 723.076904, 4.000000, 4.000000, 4.000000, 4.000000, 4.000000, 4.000000, 4.000000, 4.000000, 4.000000, 4.000000, 4.000000, 4.000000, 4.000000, 4.000000, 4.000000, 4.000000
74.000000, 0.000000, 4186.666504, 4192.820313, 4184.102539, 4195.897461, 4203.076660, 4212.307617, 4213.333008, 4213.846191, 4217.436035, 4183.076660, 4215.897461, 4192.820313, 4198.461426, 4206.153809, 3547.000000, 8241.000000, 8162.000000, 0.000000, 0.000000, 0.000000, -21032.000000, 730.769226, 4.000000, 4.000000, 4.000000, 4.000000, 4.000000, 4.000000, 4.000000, 4.000000, 4.000000, 4.000000, 4.000000, 4.000000, 4.000000, 4.000000, 4.000000, 4.000000
75.000000, 0.000000, 4189.743652, 4191.794922, 4188.717773, 4200.000000, 4188.717773, 4216.922852, 4214.358887, 4215.384277, 4217.948730, 4175.384277, 4210.769043, 4194.358887, 4195.897461, 4208.205078, 558.000000, 8240.000000, 8167.000000, 0.000000, 0.000000, 0.000000, -21032.000000, 738.974365, 4.000000, 4.000000, 4.000000, 4.000000, 4.000000, 4.000000, 4.000000, 4.000000, 4.000000, 4.000000, 4.000000, 4.000000, 4.000000, 4.000000, 4.000000, 4.000000
76.000000, 0.000000, 4185.127930, 4188.205078, 4189.743652, 4203.076660, 4190.256348, 4216.410156, 4215.384277, 4215.384277, 4223.589844, 4171.794922, 4211.281738, 4190.256348, 4189.230469, 4204.102539, 3483.000000, 8240.000000, 8167.000000, 0.000000, 0.000000, 0.000000, -21032.000000, 746.666626, 4.000000, 4.000000, 4.000000, 4.000000, 4.000000, 4.000000, 4.000000, 4.000000, 4.000000, 4.000000, 4.000000, 4.000000, 4.000000, 4.000000, 4.000000, 4.000000
77.000000, 0.000000, 4176.922852, 4186.153809, 4182.051270, 4194.871582, 4208.717773, 4215.384277, 4222.563965, 4215.384277, 4224.615234, 4166.666504, 4209.230469, 4185.127930, 4183.589844, 4201.025391, 3406.000000, 8231.000000, 8174.000000, 0.000000, 0.000000, 0.000000, -21032.000000, 754.871765, 4.000000, 4.000000, 4.000000, 4.000000, 4.000000, 4.000000, 4.000000, 4.000000, 4.000000, 4.000000, 4.000000, 4.000000, 4.000000, 4.000000, 4.000000, 4.000000
78.000000, 0.000000, 4182.051270, 4187.692383, 4181.025391, 4192.307617, 4215.384277, 4216.410156, 4227.692383, 4216.410156, 4221.538574, 4170.256348, 4204.615234, 4186.666504, 4188.717773, 4201.025391, 3547.000000, 8231.000000, 8174.000000, 0.000000, 0.000000, 0.000000, -21032.000000, 762.564087, 4.000000, 4.000000, 4.000000, 4.000000, 4.000000, 4.000000, 4.000000, 4.000000, 4.000000, 4.000000, 4.000000, 4.000000, 4.000000, 4.000000, 4.000000, 4.000000
79.000000, 0.000000, 4185.641113, 4192.820313, 4188.717773, 4202.051270, 4210.256348, 4216.922852, 4223.076660, 4224.102539, 4227.179199, 4189.743652, 4210.256348, 4191.281738, 4195.384277, 4205.641113, 558.000000, 8216.000000, 8181.000000, 0.000000, 0.000000, 0.000000, -21032.000000, 770.769226, 4.000000, 4.000000, 4.000000, 4.000000, 4.000000, 4.000000, 4.000000, 4.000000, 4.000000, 4.000000, 4.000000, 4.000000, 4.000000, 4.000000, 4.000000, 4.000000
80.000000, 0.000000, 4186.666504, 4190.256348, 4193.333008, 4204.102539, 4207.179199, 4215.897461, 4214.358887, 4230.769043, 4233.846191, 4200.000000, 4214.871582, 4186.153809, 4192.820313, 4204.102539, 3483.000000, 8216.000000, 8181.000000, 0.000000, 0.000000, 0.000000, -21032.000000, 778.461548, 4.000000, 4.000000, 4.000000, 4.000000, 4.000000, 4.000000, 4.000000, 4.000000, 4.000000, 4.000000, 4.000000, 4.000000, 4.000000, 4.000000, 4.000000, 4.000000
81.000000, 0.000000, 4180.512695, 4183.076660, 4188.717773, 4197.948730, 4204.615234, 4215.384277, 4215.897461, 4229.230469, 4232.307617, 4189.743652, 4205.641113, 4177.948730, 4187.179199, 4202.563965, 3406.000000, 8208.000000, 8186.000000, 0.000000, 0.000000, 0.000000, -21032.000000, 786.153809, 4.000000, 4.000000, 4.000000, 4.000000, 4.000000, 4.000000, 4.000000, 4.000000, 4.000000, 4.000000, 4.000000, 4.000000, 4.000000, 4.000000, 4.000000, 4.000000
82.000000, 0.000000, 4174.871582, 4185.127930, 4180.512695, 4198.974121, 4202.563965, 4218.461426, 4224.615234, 4224.615234, 4228.717773, 4184.615234, 4198.974121, 4174.358887, 4185.127930, 4204.102539, 3547.000000, 8208.000000, 8186.000000, 0.000000, 0.000000, 0.000000, -21032.000000, 793.846130, 4.000000, 4.000000, 4.000000, 4.000000, 4.000000, 4.000000, 4.000000, 4.000000, 4.000000, 4.000000, 4.000000, 4.000000, 4.000000, 4.000000, 4.000000, 4.000000
83.000000, 0.000000, 4177.948730, 4185.641113, 4176.410156, 4199.487305, 4202.051270, 4218.461426, 4225.127930, 4220.512695, 4223.076660, 4188.717773, 4200.512695, 4171.281738, 4185.127930, 4202.051270, 558.000000, 8197.000000, 8193.000000, 0.000000, 0.000000, 0.000000, -21032.000000, 802.051270, 4.000000, 4.000000, 4.000000, 4.000000, 4.000000, 4.000000, 4.000000, 4.000000, 4.000000, 4.000000, 4.000000, 4.000000, 4.000000, 4.000000, 4.000000, 4.000000
84.000000, 0.000000, 4176.922852, 4182.563965, 4178.461426, 4196.410156, 4200.000000, 4213.846191, 4222.051270, 4221.538574, 4217.436035, 4184.615234, 4200.512695, 4173.333008, 4184.102539, 4202.563965, 3483.000000, 8197.000000, 8193.000000, 0.000000, 0.000000, 0.000000, -21032.000000, 809.743591, 4.000000, 4.000000, 4.000000, 4.000000, 4.000000, 4.000000, 4.000000, 4.000000, 4.000000, 4.000000, 4.000000, 4.000000, 4.000000, 4.000000, 4.000000, 4.000000
85.000000, 0.000000, 4183.076660, 4187.692383, 4186.666504, 4201.538574, 4203.589844, 4216.922852, 4226.666504, 4232.307617, 4228.205078, 4182.051270, 4205.127930, 4183.589844, 4190.256348, 4201.538574, 3406.000000, 8178.000000, 8187.000000, 0.000000, 0.000000, 0.000000, -21032.000000, 817.435852, 4.000000, 4.000000, 4.000000, 4.000000, 4.000000, 4.000000, 4.000000, 4.000000, 4.000000, 4.000000, 4.000000, 4.000000, 4.000000, 4.000000, 4.000000, 4.000000
86.000000, 0.000000, 4186.666504, 4189.230469, 4188.717773, 4204.615234, 4206.666504, 4223.076660, 4225.127930, 4234.358887, 4240.000000, 4185.127930, 4210.769043, 4182.051270, 4195.384277, 4199.487305, 3547.000000, 8178.000000, 8187.000000, 0.000000, 0.000000, 0.000000, -21032.000000, 825.128174, 4.000000, 4.000000, 4.000000, 4.000000, 4.000000, 4.000000, 4.000000, 4.000000, 4.000000, 4.000000, 4.000000, 4.000000, 4.000000, 4.000000, 4.000000, 4.000000
87.000000, 0.000000, 4181.538574, 4184.615234, 4180.512695, 4195.897461, 4200.000000, 4215.897461, 4213.333008, 4218.974121, 4228.717773, 4174.358887, 4201.538574, 4170.256348, 4184.615234, 4201.538574, 558.000000, 8165.000000, 8176.000000, 0.000000, 0.000000, 0.000000, -21032.000000, 833.333313, 4.000000, 4.000000, 4.000000, 4.000000, 4.000000, 4.000000, 4.000000, 4.000000, 4.000000, 4.000000, 4.000000, 4.000000, 4.000000, 4.000000, 4.000000, 4.000000
88.000000, 0.000000, 4179.487305, 4184.102539, 4177.948730, 4190.769043, 4192.307617, 4205.127930, 4212.820313, 4207.692383, 4215.897461, 4159.487305, 4188.205078, 4166.666504, 4173.333008, 4200.000000, 3483.000000, 8165.000000, 8176.000000, 0.000000, 0.000000, 0.000000, -21032.000000, 841.025635, 4.000000, 4.000000, 4.000000, 4.000000, 4.000000, 4.000000, 4.000000, 4.000000, 4.000000, 4.000000, 4.000000, 4.000000, 4.000000, 4.000000, 4.000000, 4.000000
89.000000, 0.000000, 4171.794922, 4177.948730, 4181.538574, 4193.333008, 4192.820313, 4205.641113, 4213.846191, 4211.281738, 4216.922852, 4153.333008, 4187.179199, 4170.769043, 4169.743652, 4200.000000, 3406.000000, 8146.000000, 8168.000000, 0.000000, 0.000000, 0.000000, -21032.000000, 848.717957, 4.000000, 4.000000, 4.000000, 4.000000, 4.000000, 4.000000, 4.000000, 4.000000, 4.000000, 4.000000, 4.000000, 4.000000, 4.000000, 4.000000, 4.000000, 4.000000
90.000000, 0.000000, 4175.384277, 4174.358887, 4187.179199, 4198.974121, 4198.461426, 4205.641113, 4203.589844, 4211.281738, 4215.897461, 4153.333008, 4189.230469, 4175.897461, 4169.230469, 4201.025391, 3547.000000, 8146.000000, 8168.000000, 0.000000, 0.000000, 0.000000, -21032.000000, 856.923035, 4.000000, 4.000000, 4.000000, 4.000000, 4.000000, 4.000000, 4.000000, 4.000000, 4.000000, 4.000000, 4.000000, 4.000000, 4.000000, 4.000000, 4.000000, 4.000000
91.000000, 0.000000, 4188.205078, 4187.692383, 4195.897461, 4208.205078, 4198.974121, 4201.025391, 4200.512695, 4205.127930, 4211.281738, 4155.384277, 4194.871582, 4181.538574, 4175.897461, 4203.076660, 558.000000, 8145.000000, 8153.000000, 0.000000, 0.000000, 0.000000, -21032.000000, 864.615356, 4.000000, 4.000000, 4.000000, 4.000000, 4.000000, 4.000000, 4.000000, 4.000000, 4.000000, 4.000000, 4.000000, 4.000000, 4.000000, 4.000000, 4.000000, 4.000000
92.000000, 0.000000, 4189.743652, 4195.897461, 4199.487305, 4211.794922, 4202.563965, 4206.666504, 4203.589844, 4201.538574, 4213.333008, 4152.820313, 4200.512695, 4183.589844, 4180.512695, 4205.127930, 3483.000000, 8145.000000, 8153.000000, 0.000000, 0.000000, 0.000000, -21032.000000, 872.307678, 4.000000, 4.000000, 4.000000, 4.000000, 4.000000, 4.000000, 4.000000, 4.000000, 4.000000, 4.000000, 4.000000, 4.000000, 4.000000, 4.000000, 4.000000, 4.000000
93.000000, 0.000000, 4186.153809, 4191.281738, 4195.384277, 4205.641113, 4204.102539, 4212.307617, 4201.025391, 4200.000000, 4211.794922, 4142.051270, 4193.846191, 4176.410156, 4169.230469, 4202.563965, 3406.000000, 8150.000000, 8121.000000, 0.000000, 0.000000, 0.000000, -21032.000000, 880.512817, 4.000000, 4.000000, 4.000000, 4.000000, 4.000000, 4.000000, 4.000000, 4.000000, 4.000000, 4.000000, 4.000000, 4.000000, 4.000000, 4.000000, 4.000000, 4.000000
94.000000, 0.000000, 4182.563965, 4189.743652, 4194.871582, 4206.666504, 4195.384277, 4210.769043, 4204.615234, 4199.487305, 4209.230469, 4139.487305, 4189.743652, 4176.922852, 4167.179199, 4204.615234, 3547.000000, 8150.000000, 8121.000000, 0.000000, 0.000000, 0.000000, -21032.000000, 888.205078, 4.000000, 4.000000, 4.000000, 4.000000, 4.000000, 4.000000, 4.000000, 4.000000, 4.000000, 4.000000, 4.000000, 4.000000, 4.000000, 4.000000, 4.000000, 4.000000
95.000000, 0.000000, 4191.794922, 4200.000000, 4204.615234, 4216.410156, 4201.025391, 4211.794922, 4211.281738, 4206.666504, 4218.461426, 4149.743652, 4197.948730, 4191.281738, 4181.538574, 4207.692383, 558.000000, 8157.000000, 8103.000000, 0.000000, 0.000000, 0.000000, -21032.000000, 895.897400, 4.000000, 4.000000, 4.000000, 4.000000, 4.000000, 4.000000, 4.000000, 4.000000, 4.000000, 4.000000, 4.000000, 4.000000, 4.000000, 4.000000, 4.000000, 4.000000
96.000000, 0.000000, 4200.000000, 4206.666504, 4213.846191, 4225.127930, 4222.051270, 4217.436035, 4210.256348, 4217.948730, 4226.666504, 4156.922852, 4210.256348, 4203.076660, 4191.281738, 4206.153809, 3483.000000, 8157.000000, 8103.000000, 0.000000, 0.000000, 0.000000, -21032.000000, 903.589722, 4.000000, 4.000000, 4.000000, 4.000000, 4.000000, 4.000000, 4.000000, 4.000000, 4.000000, 4.000000, 4.000000, 4.000000, 4.000000, 4.000000, 4.000000, 4.000000
97.000000, 0.000000, 4196.410156, 4207.179199, 4213.846191, 4229.230469, 4224.615234, 4218.974121, 4211.794922, 4217.436035, 4221.025391, 4154.871582, 4215.897461, 4202.051270, 4195.384277, 4208.205078, 3406.000000, 8170.000000, 8090.000000, 0.000000, 0.000000, 0.000000, -21032.000000, 911.794861, 4.000000, 4.000000, 4.000000, 4.000000, 4.000000, 4.000000, 4.000000, 4.000000, 4.000000, 4.000000, 4.000000, 4.000000, 4.000000, 4.000000, 4.000000, 4.000000
98.000000, 0.000000, 4199.487305, 4207.179199, 4209.230469, 4224.615234, 4217.436035, 4215.384277, 4211.794922, 4211.794922, 4216.922852, 4149.743652, 4213.846191, 4196.922852, 4198.461426, 4205.127930, 3547.000000, 8170.000000, 8090.000000, 0.000000, 0.000000, 0.000000, -21032.000000, 919.487183, 4.000000, 4.000000, 4.000000, 4.000000, 4.000000, 4.000000, 4.000000, 4.000000, 4.000000, 4.000000, 4.000000, 4.000000, 4.000000, 4.000000, 4.000000, 4.000000
99.000000, 0.000000, 4194.871582, 4205.127930, 4202.051270, 4217.436035, 4215.897461, 4207.692383, 4201.538574, 4210.769043, 4221.538574, 4147.179199, 4206.666504, 4192.307617, 4193.333008, 4202.051270, 558.000000, 8193.000000, 8081.000000, 0.000000, 0.000000, 0.000000, -21032.000000, 927.692261, 4.000000, 4.000000, 4.000000, 4.000000, 4.000000, 4.000000, 4.000000, 4.000000, 4.000000, 4.000000, 4.000000, 4.000000, 4.000000, 4.000000, 4.000000, 4.000000
100.000000, 0.000000, 4185.641113, 4200.512695, 4191.794922, 4212.820313, 4207.179199, 4200.512695, 4195.897461, 4203.589844, 4217.436035, 4138.461426, 4200.512695, 4178.461426, 4182.563965, 4205.127930, 3483.000000, 8193.000000, 8081.000000, 0.000000, 0.000000, 0.000000, -21032.000000, 935.384583, 4.000000, 4.000000, 4.000000, 4.000000, 4.000000, 4.000000, 4.000000, 4.000000, 4.000000, 4.000000, 4.000000, 4.000000, 4.000000, 4.000000, 4.000000, 4.000000
101.000000, 0.000000, 4185.127930, 4196.922852, 4184.615234, 4207.179199, 4199.487305, 4200.000000, 4202.051270, 4193.333008, 4204.615234, 4128.205078, 4196.922852, 4169.743652, 4181.538574, 4205.127930, 3406.000000, 8195.000000, 8076.000000, 0.000000, 0.000000, 0.000000, -21032.000000, 943.076904, 4.000000, 4.000000, 4.000000, 4.000000, 4.000000, 4.000000, 4.000000, 4.000000, 4.000000, 4.000000, 4.000000, 4.000000, 4.000000, 4.000000, 4.000000, 4.000000
102.000000, 0.000000, 4186.153809, 4195.384277, 4184.615234, 4204.102539, 4203.589844, 4201.538574, 4202.563965, 4185.641113, 4195.897461, 4125.641113, 4189.743652, 4171.794922, 4184.615234, 4202.563965, 3547.000000, 8195.000000, 8076.000000, 0.000000, 0.000000, 0.000000, -21032.000000, 950.769226, 4.000000, 4.000000, 4.000000, 4.000000, 4.000000, 4.000000, 4.000000, 4.000000, 4.000000, 4.000000, 4.000000, 4.000000, 4.000000, 4.000000, 4.000000, 4.000000
103.000000, 0.000000, 4187.692383, 4195.384277, 4187.692383, 4203.589844, 4201.538574, 4201.538574, 4195.384277, 4184.102539, 4195.384277, 4120.512695, 4182.051270, 4169.230469, 4178.974121, 4200.000000, 558.000000, 8204.000000, 8089.000000, 0.000000, 0.000000, 0.000000, -21032.000000, 958.974365, 4.000000, 4.000000, 4.000000, 4.000000, 4.000000, 4.000000, 4.000000, 4.000000, 4.000000, 4.000000, 4.000000, 4.000000, 4.000000, 4.000000, 4.000000, 4.000000
104.000000, 0.000000, 4183.076660, 4193.333008, 4187.179199, 4200.000000, 4195.384277, 4198.461426, 4196.922852, 4193.333008, 4200.512695, 4115.897461, 4185.641113, 4167.179199, 4175.897461, 4204.102539, 3483.000000, 8204.000000, 8089.000000, 0.000000, 0.000000, 0.000000, -21032.000000, 966.666626, 4.000000, 4.000000, 4.000000, 4.000000, 4.000000, 4.000000, 4.000000, 4.000000, 4.000000, 4.000000, 4.000000, 4.000000, 4.000000, 4.000000, 4.000000, 4.000000
105.000000, 0.000000, 4185.641113, 4193.333008, 4191.281738, 4201.538574, 4198.461426, 4199.487305, 4201.025391, 4202.051270, 4209.743652, 4120.512695, 4195.897461, 4176.922852, 4182.051270, 4206.666504, 3406.000000, 8203.000000, 8096.000000, 0.000000, 0.000000, 0.000000, -21032.000000, 974.358948, 4.000000, 4.000000, 4.000000, 4.000000, 4.000000, 4.000000, 4.000000, 4.000000, 4.000000, 4.000000, 4.000000, 4.000000, 4.000000, 4.000000, 4.000000, 4.000000
106.000000, 0.000000, 4192.307617, 4194.358887, 4198.974121, 4210.256348, 4203.589844, 4208.205078, 4203.076660, 4204.615234, 4218.974121, 4121.025391, 4200.512695, 4183.589844, 4188.717773, 4201.025391, 3547.000000, 8203.000000, 8096.000000, 0.000000, 0.000000, 0.000000, -21032.000000, 982.051270, 4.000000, 4.000000, 4.000000, 4.000000, 4.000000, 4.000000, 4.000000, 4.000000, 4.000000, 4.000000, 4.000000, 4.000000, 4.000000, 4.000000, 4.000000, 4.000000
107.000000, 0.000000, 4182.563965, 4192.307617, 4194.358887, 4206.666504, 4202.563965, 4208.717773, 4202.051270, 4201.025391, 4219.487305, 4109.230469, 4195.897461, 4174.358887, 4181.025391, 4200.512695, 558.000000, 8210.000000, 8102.000000, 0.000000, 0.000000, 0.000000, -21032.000000, 990.256409, 4.000000, 4.000000, 4.000000, 4.000000, 4.000000, 4.000000, 4.000000, 4.000000, 4.000000, 4.000000, 4.000000, 4.000000, 4.000000, 4.000000, 4.000000, 4.000000
108.000000, 0.000000, 4181.538574, 4194.358887, 4187.179199, 4200.512695, 4202.051270, 4200.000000, 4195.384277, 4190.769043, 4213.333008, 4100.000000, 4190.256348, 4164.102539, 4172.820313, 4200.000000, 3483.000000, 8210.000000, 8102.000000, 0.000000, 0.000000, 0.000000, -21032.000000, 997.948669, 4.000000, 4.000000, 4.000000, 4.000000, 4.000000, 4.000000, 4.000000, 4.000000, 4.000000, 4.000000, 4.000000, 4.000000, 4.000000, 4.000000, 4.000000, 4.000000
109.000000, 0.000000, 4184.102539, 4194.871582, 4189.743652, 4200.512695, 4201.538574, 4205.127930, 4198.974121, 4185.641113, 4208.205078, 4096.922852, 4193.846191, 4167.692383, 4174.871582, 4201.538574, 3406.000000, 8213.000000, 8110.000000, 0.000000, 0.000000, 0.000000, -21031.000000, 6.153846, 4.000000, 4.000000, 4.000000, 4.000000, 4.000000, 4.000000, 4.000000, 4.000000, 4.000000, 4.000000, 4.000000, 4.000000, 4.000000, 4.000000, 4.000000, 4.000000
110.000000, 0.000000, 4180.000000, 4187.179199, 4189.743652, 4201.025391, 4200.000000, 4215.897461, 4213.333008, 4189.230469, 4204.615234, 4086.153809, 4194.358887, 4173.333008, 4176.410156, 4203.589844, 3547.000000, 8213.000000, 8110.000000, 0.000000, 0.000000, 0.000000, -21031.000000, 13.846153, 4.000000, 4.000000, 4.000000, 4.000000, 4.000000, 4.000000, 4.000000, 4.000000, 4.000000, 4.000000, 4.000000, 4.000000, 4.000000, 4.000000, 4.000000, 4.000000
111.000000, 0.000000, 4184.615234, 4193.333008, 4188.717773, 4210.256348, 4206.666504, 4209.230469, 4207.692383, 4182.563965, 4198.461426, 4075.897217, 4191.794922, 4170.256348, 4182.563965, 4197.948730, 558.000000, 8222.000000, 8117.000000, 0.000000, 0.000000, 0.000000, -21031.000000, 21.538462, 4.000000, 4.000000, 4.000000, 4.000000, 4.000000, 4.000000, 4.000000, 4.000000, 4.000000, 4.000000, 4.000000, 4.000000, 4.000000, 4.000000, 4.000000, 4.000000
112.000000, 0.000000, 4197.436035, 4213.333008, 4191.794922, 4225.641113, 4218.461426, 4200.000000, 4185.127930, 4167.692383, 4185.127930, 4078.974365, 4191.281738, 4165.127930, 4193.333008, 4198.461426, 3483.000000, 8222.000000, 8117.000000, 0.000000, 0.000000, 0.000000, -21031.000000, 29.743589, 4.000000, 4.000000, 4.000000, 4.000000, 4.000000, 4.000000, 4.000000, 4.000000, 4.000000, 4.000000, 4.000000, 4.000000, 4.000000, 4.000000, 4.000000, 4.000000
113.000000, 0.000000, 4201.538574, 4213.846191, 4192.307617, 4224.102539, 4220.512695, 4206.666504, 4181.025391, 4170.256348, 4178.461426, 4076.410156, 4181.025391, 4163.589844, 4182.051270, 4200.512695, 3406.000000, 8243.000000, 8139.000000, 0.000000, 0.000000, 0.000000, -21031.000000, 37.435898, 4.000000, 4.000000, 4.000000, 4.000000, 4.000000, 4.000000, 4.000000, 4.000000, 4.000000, 4.000000, 4.000000, 4.000000, 4.000000, 4.000000, 4.000000, 4.000000
114.000000, 0.000000, 4185.641113, 4194.871582, 4193.333008, 4207.179199, 4212.307617, 4215.897461, 4193.846191, 4187.179199, 4193.333008, 4072.820313, 4170.769043, 4167.692383, 4158.974121, 4200.000000, 3547.000000, 8243.000000, 8139.000000, 0.000000, 0.000000, 0.000000, -21031.000000, 45.128204, 4.000000, 4.000000, 4.000000, 4.000000, 4.000000, 4.000000, 4.000000, 4.000000, 4.000000, 4.000000, 4.000000, 4.000000, 4.000000, 4.000000, 4.000000, 4.000000
115.000000, 0.000000, 4181.538574, 4190.769043, 4196.410156, 4202.051270, 4204.615234, 4214.358887, 4202.051270, 4201.538574, 4213.846191, 4091.281982, 4183.076660, 4176.410156, 4165.641113, 4202.051270, 558.000000, 8246.000000, 8152.000000, 0.000000, 0.000000, 0.000000, -21031.000000, 53.333332, 4.000000, 4.000000, 4.000000, 4.000000, 4.000000, 4.000000, 4.000000, 4.000000, 4.000000, 4.000000, 4.000000, 4.000000, 4.000000, 4.000000, 4.000000, 4.000000
116.000000, 0.000000, 4191.281738, 4195.897461, 4196.410156, 4203.589844, 4202.051270, 4207.179199, 4206.153809, 4211.281738, 4222.563965, 4114.871582, 4203.076660, 4183.589844, 4188.717773, 4202.563965, 3483.000000, 8246.000000, 8152.000000, 0.000000, 0.000000, 0.000000, -21031.000000, 61.025639, 4.000000, 4.000000, 4.000000, 4.000000, 4.000000, 4.000000, 4.000000, 4.000000, 4.000000, 4.000000, 4.000000, 4.000000, 4.000000, 4.000000, 4.000000, 4.000000
117.000000, 0.000000, 4186.153809, 4193.846191, 4194.871582, 4201.538574, 4203.076660, 4202.051270, 4207.692383, 4209.743652, 4220.000000, 4116.410156, 4203.076660, 4187.179199, 4189.743652, 4205.641113, 3406.000000, 8259.000000, 8168.000000, 0.000000, 0.000000, 0.000000, -21031.000000, 69.230766, 4.000000, 4.000000, 4.000000, 4.000000, 4.000000, 4.000000, 4.000000, 4.000000, 4.000000, 4.000000, 4.000000, 4.000000, 4.000000, 4.000000, 4.000000, 4.000000
118.000000, 0.000000, 4185.127930, 4191.794922, 4194.358887, 4201.538574, 4204.102539, 4196.922852, 4201.025391, 4199.487305, 4210.769043, 4103.076660, 4198.461426, 4182.051270, 4184.102539, 4203.076660, 3547.000000, 8259.000000, 8168.000000, 0.000000, 0.000000, 0.000000, -21031.000000, 76.923073, 4.000000, 4.000000, 4.000000, 4.000000, 4.000000, 4.000000, 4.000000, 4.000000, 4.000000, 4.000000, 4.000000, 4.000000, 4.000000, 4.000000, 4.000000, 4.000000
119.000000, 0.000000, 4184.102539, 4188.205078, 4192.307617, 4201.538574, 4200.512695, 4193.846191, 4191.281738, 4204.615234, 4209.743652, 4090.769043, 4201.538574, 4174.358887, 4187.179199, 4201.538574, 558.000000, 8265.000000, 8167.000000, 0.000000, 0.000000, 0.000000, -21031.000000, 84.615379, 4.000000, 4.000000, 4.000000, 4.000000, 4.000000, 4.000000, 4.000000, 4.000000, 4.000000, 4.000000, 4.000000, 4.000000, 4.000000, 4.000000, 4.000000, 4.000000
120.000000, 0.000000, 4177.436035, 4190.256348, 4194.871582, 4200.000000, 4201.538574, 4194.871582, 4190.256348, 4219.487305, 4220.000000, 4082.563965, 4203.076660, 4175.897461, 4187.179199, 4205.641113, 3483.000000, 8265.000000, 8167.000000, 0.000000, 0.000000, 0.000000, -21031.000000, 92.820511, 4.000000, 4.000000, 4.000000, 4.000000, 4.000000, 4.000000, 4.000000, 4.000000, 4.000000, 4.000000, 4.000000, 4.000000, 4.000000, 4.000000, 4.000000, 4.000000
121.000000, 0.000000, 4177.948730, 4194.358887, 4198.974121, 4200.512695, 4202.563965, 4197.948730, 4197.436035, 4220.512695, 4224.102539, 4075.384521, 4205.127930, 4184.102539, 4184.102539, 4203.589844, 3406.000000, 8266.000000, 8160.000000, 0.000000, 0.000000, 0.000000, -21031.000000, 100.512817, 4.000000, 4.000000, 4.000000, 4.000000, 4.000000, 4.000000, 4.000000, 4.000000, 4.000000, 4.000000, 4.000000, 4.000000, 4.000000, 4.000000, 4.000000, 4.000000
122.000000, 0.000000, 4173.333008, 4191.794922, 4194.358887, 4201.538574, 4192.307617, 4199.487305, 4197.436035, 4212.307617, 4215.384277, 4059.487061, 4207.692383, 4186.666504, 4184.615234, 4203.589844, 3547.000000, 8266.000000, 8160.000000, 0.000000, 0.000000, 0.000000, -21031.000000, 108.205124, 4.000000, 4.000000, 4.000000, 4.000000, 4.000000, 4.000000, 4.000000, 4.000000, 4.000000, 4.000000, 4.000000, 4.000000, 4.000000, 4.000000, 4.000000, 4.000000
123.000000, 0.000000, 4176.410156, 4191.794922, 4194.871582, 4201.025391, 4192.820313, 4201.025391, 4192.307617, 4213.333008, 4210.256348, 4053.845947, 4212.307617, 4184.615234, 4191.281738, 4205.127930, 558.000000, 8272.000000, 8151.000000, 0.000000, 0.000000, 0.000000, -21031.000000, 115.897430, 4.000000, 4.000000, 4.000000, 4.000000, 4.000000, 4.000000, 4.000000, 4.000000, 4.000000, 4.000000, 4.000000, 4.000000, 4.000000, 4.000000, 4.000000, 4.000000
124.000000, 0.000000, 4185.127930, 4195.897461, 4198.461426, 4204.102539, 4211.794922, 4200.512695, 4199.487305, 4221.025391, 4219.487305, 4061.538330, 4217.948730, 4186.153809, 4199.487305, 4204.102539, 3483.000000, 8272.000000, 8151.000000, 0.000000, 0.000000, 0.000000, -21031.000000, 124.102562, 4.000000, 4.000000, 4.000000, 4.000000, 4.000000, 4.000000, 4.000000, 4.000000, 4.000000, 4.000000, 4.000000, 4.000000, 4.000000, 4.000000, 4.000000, 4.000000
125.000000, 0.000000, 4184.102539, 4201.025391, 4200.512695, 4208.717773, 4218.974121, 4202.563965, 4210.769043, 4221.538574, 4227.179199, 4058.461426, 4216.410156, 4192.820313, 4200.512695, 4207.692383, 3406.000000, 8277.000000, 8136.000000, 0.000000, 0.000000, 0.000000, -21031.000000, 131.794876, 4.000000, 4.000000, 4.000000, 4.000000, 4.000000, 4.000000, 4.000000, 4.000000, 4.000000, 4.000000, 4.000000, 4.000000, 4.000000, 4.000000, 4.000000, 4.000000
126.000000, 0.000000, 4184.102539, 4202.563965, 4205.641113, 4209.230469, 4213.333008, 4206.666504, 4205.127930, 4216.922852, 4221.538574, 4057.948730, 4216.922852, 4201.538574, 4200.512695, 4205.641113, 3547.000000, 8277.000000, 8136.000000, 0.000000, 0.000000, 0.000000, -21031.000000, 140.000000, 4.000000, 4.000000, 4.000000, 4.000000, 4.000000, 4.000000, 4.000000, 4.000000, 4.000000, 4.000000, 4.000000, 4.000000, 4.000000, 4.000000, 4.000000, 4.000000
127.000000, 0.000000, 4180.000000, 4198.974121, 4203.589844, 4205.127930, 4213.846191, 4204.102539, 4197.436035, 4214.358887, 4206.153809, 4068.717773, 4221.538574, 4205.641113, 4202.563965, 4203.076660, 54.000000, 8289.000000, 8130.000000, 0.000000, 0.000000, 0.000000, -21031.000000, 147.692307, 4.000000, 4.000000, 4.000000, 4.000000, 4.000000, 4.000000, 4.000000, 4.000000, 4.000000, 4.000000, 4.000000, 4.000000, 4.000000, 4.000000, 4.000000, 4.000000
0.000000, 0.000000, 4175.897461, 4191.281738, 4193.846191, 4196.410156, 4207.179199, 4201.025391, 4208.205078, 4213.333008, 4199.487305, 4066.153809, 4219.487305, 4196.410156, 4197.948730, 4202.563965, 3358.000000, 8289.000000, 8130.000000, 0.000000, 0.000000, 0.000000, -21031.000000, 155.384613, 4.000000, 4.000000, 4.000000, 4.000000, 4.000000, 4.000000, 4.000000, 4.000000, 4.000000, 4.000000, 4.000000, 4.000000, 4.000000, 4.000000, 4.000000, 4.000000
1.000000, 0.000000, 4169.743652, 4182.563965, 4191.281738, 4191.281738, 4200.000000, 4203.589844, 4215.384277, 4209.230469, 4209.230469, 4058.461426, 4212.820313, 4190.769043, 4189.230469, 4199.487305, 3508.000000, 8291.000000, 8125.000000, 0.000000, 0.000000, 0.000000, -21031.000000, 163.076920, 4.000000, 4.000000, 4.000000, 4.000000, 4.000000, 4.000000, 4.000000, 4.000000, 4.000000, 4.000000, 4.000000, 4.000000, 4.000000, 4.000000, 4.000000, 4.000000
2.000000, 0.000000, 4165.127930, 4186.153809, 4195.384277, 4198.461426, 4209.230469, 4210.256348, 4205.641113, 4205.641113, 4215.897461, 4064.102539, 4209.743652, 4192.820313, 4190.769043, 4198.974121, 2539.000000, 8291.000000, 8125.000000, 0.000000, 0.000000, 0.000000, -21031.000000, 171.282043, 4.000000, 4.000000, 4.000000, 4.000000, 4.000000, 4.000000, 4.000000, 4.000000, 4.000000, 4.000000, 4.000000, 4.000000, 4.000000, 4.000000, 4.000000, 4.000000
3.000000, 0.000000, 4167.692383, 4191.281738, 4190.769043, 4201.025391, 4210.769043, 4212.820313, 4202.051270, 4204.615234, 4209.230469, 4066.153809, 4209.230469, 4188.205078, 4191.281738, 4196.410156, 2146.000000, 8291.000000, 8121.000000, 0.000000, 0.000000, 0.000000, -21031.000000, 178.974350, 4.000000, 4.000000, 4.000000, 4.000000, 4.000000, 4.000000, 4.000000, 4.000000, 4.000000, 4.000000, 4.000000, 4.000000, 4.000000, 4.000000, 4.000000, 4.000000
4.000000, 0.000000, 4154.358887, 4174.358887, 4182.051270, 4186.153809, 4198.974121, 4211.281738, 4216.922852, 4203.589844, 4201.538574, 4047.179443, 4202.563965, 4184.615234, 4173.333008, 4197.948730, 3483.000000, 8291.000000, 8121.000000, 0.000000, 0.000000, 0.000000, -21031.000000, 187.179489, 4.000000, 4.000000, 4.000000, 4.000000, 4.000000, 4.000000, 4.000000, 4.000000, 4.000000, 4.000000, 4.000000, 4.000000, 4.000000, 4.000000, 4.000000, 4.000000
5.000000, 0.000000, 4149.230469, 4168.717773, 4185.127930, 4185.127930, 4201.538574, 4209.743652, 4217.948730, 4203.076660, 4200.512695, 4033.333252, 4197.948730, 4190.256348, 4168.205078, 4201.025391, 3539.000000, 8291.000000, 8116.000000, 0.000000, 0.000000, 0.000000, -21031.000000, 194.871796, 4.000000, 4.000000, 4.000000, 4.000000, 4.000000, 4.000000, 4.000000, 4.000000, 4.000000, 4.000000, 4.000000, 4.000000, 4.000000, 4.000000, 4.000000, 4.000000
6.000000, 0.000000, 4165.641113, 4191.281738, 4187.179199, 4201.025391, 4210.256348, 4206.153809, 4200.512695, 4202.051270, 4203.589844, 4042.051270, 4206.666504, 4190.769043, 4186.666504, 4200.512695, 3335.000000, 8291.000000, 8116.000000, 0.000000, 0.000000, 0.000000, -21031.000000, 203.076920, 4.000000, 4.000000, 4.000000, 4.000000, 4.000000, 4.000000, 4.000000, 4.000000, 4.000000, 4.000000, 4.000000, 4.000000, 4.000000, 4.000000, 4.000000, 4.000000
7.000000, 0.000000, 4166.666504, 4199.487305, 4185.641113, 4203.589844, 4206.666504, 4203.589844, 4197.948730, 4205.127930, 4206.666504, 4051.281982, 4216.922852, 4190.256348, 4191.281738, 4201.538574, 3516.000000, 8287.000000, 8115.000000, 0.000000, 0.000000, 0.000000, -21031.000000, 210.769226, 4.000000, 4.000000, 4.000000, 4.000000, 4.000000, 4.000000, 4.000000, 4.000000, 4.000000, 4.000000, 4.000000, 4.000000, 4.000000, 4.000000, 4.000000, 4.000000
8.000000, 0.000000, 4157.436035, 4190.256348, 4188.717773, 4198.461426, 4206.153809, 4204.102539, 4206.666504, 4210.256348, 4207.692383, 4049.743408, 4212.307617, 4194.871582, 4181.538574, 4197.436035, 3525.000000, 8287.000000, 8115.000000, 0.000000, 0.000000, 0.000000, -21031.000000, 218.974350, 4.000000, 4.000000, 4.000000, 4.000000, 4.000000, 4.000000, 4.000000, 4.000000, 4.000000, 4.000000, 4.000000, 4.000000, 4.000000, 4.000000, 4.000000, 4.000000
9.000000, 0.000000, 4153.846191, 4191.281738, 4187.692383, 4200.512695, 4212.307617, 4203.076660, 4205.127930, 4207.692383, 4202.051270, 4049.230713, 4202.563965, 4190.769043, 4184.102539, 4194.871582, 3736.000000, 8285.000000, 8100.000000, 0.000000, 0.000000, 0.000000, -21031.000000, 226.666656, 4.000000, 4.000000, 4.000000, 4.000000, 4.000000, 4.000000, 4.000000, 4.000000, 4.000000, 4.000000, 4.000000, 4.000000, 4.000000, 4.000000, 4.000000, 4.000000
10.000000, 0.000000, 4154.358887, 4195.384277, 4183.589844, 4201.538574, 4213.333008, 4198.974121, 4195.897461, 4198.461426, 4197.436035, 4054.358887, 4204.615234, 4180.512695, 4190.769043, 4196.922852, 3546.000000, 8285.000000, 8100.000000, 0.000000, 0.000000, 0.000000, -21031.000000, 234.358963, 4.000000, 4.000000, 4.000000, 4.000000, 4.000000, 4.000000, 4.000000, 4.000000, 4.000000, 4.000000, 4.000000, 4.000000, 4.000000, 4.000000, 4.000000, 4.000000
11.000000, 0.000000, 4154.871582, 4190.769043, 4183.589844, 4198.461426, 4213.846191, 4202.051270, 4195.384277, 4198.974121, 4207.692383, 4057.435791, 4216.410156, 4185.127930, 4194.871582, 4196.410156, 560.000000, 8283.000000, 8089.000000, 0.000000, 0.000000, 0.000000, -21031.000000, 242.564102, 4.000000, 4.000000, 4.000000, 4.000000, 4.000000, 4.000000, 4.000000, 4.000000, 4.000000, 4.000000, 4.000000, 4.000000, 4.000000, 4.000000, 4.000000, 4.000000
12.000000, 0.000000, 4152.820313, 4189.743652, 4185.127930, 4198.974121, 4211.794922, 4205.127930, 4200.512695, 4209.743652, 4220.000000, 4052.307617, 4218.974121, 4194.871582, 4202.051270, 4199.487305, 3483.000000, 8283.000000, 8089.000000, 0.000000, 0.000000, 0.000000, -21031.000000, 250.256409, 4.000000, 4.000000, 4.000000, 4.000000, 4.000000, 4.000000, 4.000000, 4.000000, 4.000000, 4.000000, 4.000000, 4.000000, 4.000000, 4.000000, 4.000000, 4.000000
13.000000, 0.000000, 4155.897461, 4189.230469, 4186.666504, 4199.487305, 4205.641113, 4200.512695, 4198.974121, 4211.794922, 4219.487305, 4051.281982, 4214.871582, 4197.436035, 4202.051270, 4200.512695, 3408.000000, 8278.000000, 8075.000000, 0.000000, 0.000000, 0.000000, -21031.000000, 258.461517, 4.000000, 4.000000, 4.000000, 4.000000, 4.000000, 4.000000, 4.000000, 4.000000, 4.000000, 4.000000, 4.000000, 4.000000, 4.000000, 4.000000, 4.000000, 4.000000
14.000000, 0.000000, 4155.897461, 4189.743652, 4190.256348, 4201.538574, 4211.794922, 4200.000000, 4193.333008, 4208.205078, 4216.410156, 4070.769043, 4226.153809, 4200.512695, 4203.589844, 4200.512695, 3546.000000, 8278.000000, 8075.000000, 0.000000, 0.000000, 0.000000, -21031.000000, 266.153839, 4.000000, 4.000000, 4.000000, 4.000000, 4.000000, 4.000000, 4.000000, 4.000000, 4.000000, 4.000000, 4.000000, 4.000000, 4.000000, 4.000000, 4.000000, 4.000000
15.000000, 0.000000, 4155.384277, 4193.333008, 4189.743652, 4203.589844, 4215.897461, 4203.076660, 4198.974121, 4214.871582, 4220.512695, 4076.410156, 4235.897461, 4203.589844, 4210.769043, 4205.127930, 560.000000, 8274.000000, 8064.000000, 0.000000, 0.000000, 0.000000, -21031.000000, 274.358978, 4.000000, 4.000000, 4.000000, 4.000000, 4.000000, 4.000000, 4.000000, 4.000000, 4.000000, 4.000000, 4.000000, 4.000000, 4.000000, 4.000000, 4.000000, 4.000000
16.000000, 0.000000, 4154.358887, 4187.179199, 4187.692383, 4201.538574, 4207.179199, 4208.205078, 4210.769043, 4218.974121, 4216.410156, 4052.307617, 4222.051270, 4200.000000, 4202.563965, 4203.076660, 0.000000, 8274.000000, 8064.000000, 0.000000, 0.000000, 0.000000, -21031.000000, 282.051270, 4.000000, 4.000000, 4.000000, 4.000000, 4.000000, 4.000000, 4.000000, 4.000000, 4.000000, 4.000000, 4.000000, 4.000000, 4.000000, 4.000000, 4.000000, 4.000000
17.000000, 0.000000, 4148.717773, 4183.589844, 4185.641113, 4198.461426, 4205.641113, 4209.743652, 4207.692383, 4202.563965, 4200.512695, 4047.179443, 4212.307617, 4191.281738, 4193.333008, 4201.025391, 0.000000, 8271.000000, 8059.000000, 0.000000, 0.000000, 0.000000, -21031.000000, 289.743591, 4.000000, 4.000000, 4.000000, 4.000000, 4.000000, 4.000000, 4.000000, 4.000000, 4.000000, 4.000000, 4.000000, 4.000000, 4.000000, 4.000000, 4.000000, 4.000000
18.000000, 0.000000, 4149.743652, 4186.153809, 4179.487305, 4194.358887, 4208.717773, 4203.589844, 4197.948730, 4188.205078, 4194.871582, 4057.948730, 4216.922852, 4184.102539, 4196.922852, 4202.051270, 0.000000, 8271.000000, 8059.000000, 0.000000, 0.000000, 0.000000, -21031.000000, 297.435883, 4.000000, 4.000000, 4.000000, 4.000000, 4.000000, 4.000000, 4.000000, 4.000000, 4.000000, 4.000000, 4.000000, 4.000000, 4.000000, 4.000000, 4.000000, 4.000000
19.000000, 0.000000, 4148.717773, 4184.615234, 4175.384277, 4188.717773, 4203.076660, 4198.461426, 4195.897461, 4188.205078, 4201.538574, 4051.794678, 4217.948730, 4183.589844, 4195.384277, 4205.127930, 0.000000, 8269.000000, 8062.000000, 0.000000, 0.000000, 0.000000, -21031.000000, 305.641022, 4.000000, 4.000000, 4.000000, 4.000000, 4.000000, 4.000000, 4.000000, 4.000000, 4.000000, 4.000000, 4.000000, 4.000000, 4.000000, 4.000000, 4.000000, 4.000000
20.000000, 0.000000, 4149.230469, 4183.076660, 4180.512695, 4185.641113, 4198.974121, 4200.000000, 4197.436035, 4185.127930, 4196.922852, 4044.102539, 4213.846191, 4186.666504, 4186.153809, 4207.179199, 0.000000, 8269.000000, 8062.000000, 0.000000, 0.000000, 0.000000, -21031.000000, 313.333313, 4.000000, 4.000000, 4.000000, 4.000000, 4.000000, 4.000000, 4.000000, 4.000000, 4.000000, 4.000000, 4.000000, 4.000000, 4.000000, 4.000000, 4.000000, 4.000000
21.000000, 0.000000, 4155.897461, 4189.230469, 4187.179199, 4187.179199, 4202.051270, 4201.025391, 4197.436035, 4182.563965, 4186.153809, 4047.692139, 4209.743652, 4184.615234, 4185.127930, 4205.641113, 0.000000, 8265.000000, 8065.000000, 0.000000, 0.000000, 0.000000, -21031.000000, 321.538452, 4.000000, 4.000000, 4.000000, 4.000000, 4.000000, 4.000000, 4.000000, 4.000000, 4.000000, 4.000000, 4.000000, 4.000000, 4.000000, 4.000000, 4.000000, 4.000000
22.000000, 0.000000, 4151.794922, 4194.871582, 4183.076660, 4187.179199, 4201.025391, 4198.461426, 4196.410156, 4183.076660, 4191.794922, 4046.153809, 4201.538574, 4179.487305, 4186.666504, 4211.281738, 0.000000, 8265.000000, 8065.000000, 0.000000, 0.000000, 0.000000, -21031.000000, 329.230774, 4.000000, 4.000000, 4.000000, 4.000000, 4.000000, 4.000000, 4.000000, 4.000000, 4.000000, 4.000000, 4.000000, 4.000000, 4.000000, 4.000000, 4.000000, 4.000000
23.000000, 0.000000, 4149.743652, 4193.333008, 4179.487305, 4185.641113, 4199.487305, 4200.512695, 4200.512695, 4184.615234, 4198.974121, 4037.435791, 4197.436035, 4177.948730, 4180.512695, 4211.281738, 0.000000, 8265.000000, 8070.000000, 0.000000, 0.000000, 0.000000, -21031.000000, 336.923065, 4.000000, 4.000000, 4.000000, 4.000000, 4.000000, 4.000000, 4.000000, 4.000000, 4.000000, 4.000000, 4.000000, 4.000000, 4.000000, 4.000000, 4.000000, 4.000000
24.000000, 0.000000, 4149.743652, 4191.281738, 4178.974121, 4186.666504, 4201.025391, 4204.102539, 4201.025391, 4192.307617, 4193.846191, 4035.897217, 4198.974121, 4175.897461, 4180.000000, 4204.615234, 0.000000, 8265.000000, 8070.000000, 0.000000, 0.000000, 0.000000, -21031.000000, 345.128204, 4.000000, 4.000000, 4.000000, 4.000000, 4.000000, 4.000000, 4.000000, 4.000000, 4.000000, 4.000000, 4.000000, 4.000000, 4.000000, 4.000000, 4.000000, 4.000000
25.000000, 0.000000, 4145.127930, 4189.743652, 4172.307617, 4186.153809, 4199.487305, 4198.974121, 4192.820313, 4193.846191, 4187.692383, 4035.384521, 4192.307617, 4167.179199, 4180.512695, 4206.666504, 0.000000, 8265.000000, 8074.000000, 0.000000, 0.000000, 0.000000, -21031.000000, 352.820496, 4.000000, 4.000000, 4.000000, 4.000000, 4.000000, 4.000000, 4.000000, 4.000000, 4.000000, 4.000000, 4.000000, 4.000000, 4.000000, 4.000000, 4.000000, 4.000000
26.000000, 0.000000, 4147.692383, 4184.102539, 4169.743652, 4181.025391, 4187.692383, 4188.717773, 4188.717773, 4185.641113, 4184.615234, 4023.589600, 4182.563965, 4156.922852, 4171.794922, 4206.666504, 0.000000, 8265.000000, 8074.000000, 0.000000, 0.000000, 0.000000, -21031.000000, 361.025635, 4.000000, 4.000000, 4.000000, 4.000000, 4.000000, 4.000000, 4.000000, 4.000000, 4.000000, 4.000000, 4.000000, 4.000000, 4.000000, 4.000000, 4.000000, 4.000000
27.000000, 0.000000, 4152.307617, 4183.589844, 4177.948730, 4180.512695, 4177.436035, 4189.743652, 4196.922852, 4184.615234, 4181.538574, 4013.333252, 4183.076660, 4160.000000, 4167.692383, 4208.205078, 0.000000, 8263.000000, 8080.000000, 0.000000, 0.000000, 0.000000, -21031.000000, 368.717926, 4.000000, 4.000000, 4.000000, 4.000000, 4.000000, 4.000000, 4.000000, 4.000000, 4.000000, 4.000000, 4.000000, 4.000000, 4.000000, 4.000000, 4.000000, 4.000000
28.000000, 0.000000, 4157.436035, 4193.333008, 4185.127930, 4189.743652, 4189.230469, 4198.974121, 4200.000000, 4185.127930, 4178.461426, 4017.948730, 4186.153809, 4167.692383, 4173.333008, 4210.256348, 0.000000, 8263.000000, 8080.000000, 0.000000, 0.000000, 0.000000, -21031.000000, 376.923065, 4.000000, 4.000000, 4.000000, 4.000000, 4.000000, 4.000000, 4.000000, 4.000000, 4.000000, 4.000000, 4.000000, 4.000000, 4.000000, 4.000000, 4.000000, 4.000000
29.000000, 0.000000, 4157.948730, 4197.948730, 4187.692383, 4200.000000, 4206.153809, 4202.051270, 4196.922852, 4184.615234, 4182.563965, 4031.281982, 4187.692383, 4170.256348, 4175.384277, 4208.205078, 0.000000, 8266.000000, 8086.000000, 0.000000, 0.000000, 0.000000, -21031.000000, 384.615387, 4.000000, 4.000000, 4.000000, 4.000000, 4.000000, 4.000000, 4.000000, 4.000000, 4.000000, 4.000000, 4.000000, 4.000000, 4.000000, 4.000000, 4.000000, 4.000000
30.000000, 0.000000, 4161.538574, 4199.487305, 4198.461426, 4204.102539, 4212.820313, 4203.076660, 4200.512695, 4191.794922, 4191.281738, 4045.128174, 4195.897461, 4178.461426, 4180.000000, 4209.743652, 0.000000, 8266.000000, 8086.000000, 0.000000, 0.000000, 0.000000, -21031.000000, 392.307678, 4.000000, 4.000000, 4.000000, 4.000000, 4.000000, 4.000000, 4.000000, 4.000000, 4.000000, 4.000000, 4.000000, 4.000000, 4.000000, 4.000000, 4.000000, 4.000000
31.000000, 0.000000, 4175.897461, 4205.641113, 4206.153809, 4206.666504, 4214.358887, 4205.641113, 4202.051270, 4190.769043, 4193.846191, 4062.563965, 4206.666504, 4187.179199, 4193.846191, 4208.717773, 0.000000, 8262.000000, 8090.000000, 0.000000, 0.000000, 0.000000, -21031.000000, 400.512817, 4.000000, 4.000000, 4.000000, 4.000000, 4.000000, 4.000000, 4.000000, 4.000000, 4.000000, 4.000000, 4.000000, 4.000000, 4.000000, 4.000000, 4.000000, 4.000000
32.000000, 0.000000, 4168.717773, 4202.051270, 4200.512695, 4207.179199, 4209.743652, 4204.615234, 4198.974121, 4183.076660, 4185.127930, 4073.333252, 4198.461426, 4185.127930, 4181.025391, 4207.179199, 0.000000, 8262.000000, 8090.000000, 0.000000, 0.000000, 0.000000, -21031.000000, 408.717926, 4.000000, 4.000000, 4.000000, 4.000000, 4.000000, 4.000000, 4.000000, 4.000000, 4.000000, 4.000000, 4.000000, 4.000000, 4.000000, 4.000000, 4.000000, 4.000000
33.000000, 0.000000, 4157.436035, 4193.846191, 4197.436035, 4201.538574, 4202.051270, 4202.051270, 4200.512695, 4188.205078, 4178.461426, 4078.461426, 4187.692383, 4179.487305, 4163.076660, 4208.717773, 0.000000, 8243.000000, 8106.000000, 0.000000, 0.000000, 0.000000, -21031.000000, 416.410248, 4.000000, 4.000000, 4.000000, 4.000000, 4.000000, 4.000000, 4.000000, 4.000000, 4.000000, 4.000000, 4.000000, 4.000000, 4.000000, 4.000000, 4.000000, 4.000000
34.000000, 0.000000, 4169.230469, 4197.436035, 4200.000000, 4199.487305, 4200.512695, 4202.051270, 4202.563965, 4194.871582, 4186.153809, 4094.358887, 4203.589844, 4184.615234, 4187.179199, 4209.230469, 0.000000, 8243.000000, 8106.000000, 0.000000, 0.000000, 0.000000, -21031.000000, 424.102539, 4.000000, 4.000000, 4.000000, 4.000000, 4.000000, 4.000000, 4.000000, 4.000000, 4.000000, 4.000000, 4.000000, 4.000000, 4.000000, 4.000000, 4.000000, 4.000000
35.000000, 0.000000, 4182.563965, 4204.615234, 4201.538574, 4204.615234, 4202.051270, 4202.563965, 4203.589844, 4187.692383, 4193.333008, 4106.666504, 4221.025391, 4196.410156, 4214.871582, 4212.820313, 0.000000, 8237.000000, 8112.000000, 0.000000, 0.000000, 0.000000, -21031.000000, 431.794861, 4.000000, 4.000000, 4.000000, 4.000000, 4.000000, 4.000000, 4.000000, 4.000000, 4.000000, 4.000000, 4.000000, 4.000000, 4.000000, 4.000000, 4.000000, 4.000000
36.000000, 0.000000, 4186.153809, 4200.512695, 4203.589844, 4203.589844, 4200.000000, 4202.051270, 4202.051270, 4181.538574, 4185.641113, 4103.076660, 4218.461426, 4196.410156, 4214.358887, 4210.769043, 0.000000, 8237.000000, 8112.000000, 0.000000, 0.000000, 0.000000, -21031.000000, 440.000000, 4.000000, 4.000000, 4.000000, 4.000000, 4.000000, 4.000000, 4.000000, 4.000000, 4.000000, 4.000000, 4.000000, 4.000000, 4.000000, 4.000000, 4.000000, 4.000000
37.000000, 0.000000, 4182.563965, 4197.948730, 4204.615234, 4198.974121, 4200.000000, 4201.025391, 4203.076660, 4191.281738, 4186.666504, 4104.615234, 4214.871582, 4190.256348, 4214.871582, 4207.692383, 0.000000, 8222.000000, 8113.000000, 0.000000, 0.000000, 0.000000, -21031.000000, 448.205109, 4.000000, 4.000000, 4.000000, 4.000000, 4.000000, 4.000000, 4.000000, 4.000000, 4.000000, 4.000000, 4.000000, 4.000000, 4.000000, 4.000000, 4.000000, 4.000000
38.000000, 0.000000, 4184.615234, 4202.563965, 4200.512695, 4201.538574, 4200.000000, 4202.051270, 4204.102539, 4202.563965, 4199.487305, 4110.769043, 4217.948730, 4192.820313, 4220.000000, 4210.256348, 0.000000, 8222.000000, 8113.000000, 0.000000, 0.000000, 0.000000, -21031.000000, 455.897430, 4.000000, 4.000000, 4.000000, 4.000000, 4.000000, 4.000000, 4.000000, 4.000000, 4.000000, 4.000000, 4.000000, 4.000000, 4.000000, 4.000000, 4.000000, 4.000000
39.000000, 0.000000, 4186.666504, 4202.563965, 4200.512695, 4205.127930, 4201.538574, 4203.076660, 4203.076660, 4203.076660, 4198.974121, 4108.717773, 4218.461426, 4201.538574, 4216.922852, 4210.769043, 0.000000, 8193.000000, 8119.000000, 0.000000, 0.000000, 0.000000, -21031.000000, 463.589722, 4.000000, 4.000000, 4.000000, 4.000000, 4.000000, 4.000000, 4.000000, 4.000000, 4.000000, 4.000000, 4.000000, 4.000000, 4.000000, 4.000000, 4.000000, 4.000000
40.000000, 0.000000, 4185.127930, 4201.025391, 4208.717773, 4202.563965, 4203.589844, 4202.563965, 4202.051270, 4197.948730, 4188.205078, 4112.820313, 4218.461426, 4202.051270, 4216.922852, 4211.281738, 0.000000, 8193.000000, 8119.000000, 0.000000, 0.000000, 0.000000, -21031.000000, 471.282043, 4.000000, 4.000000, 4.000000, 4.000000, 4.000000, 4.000000, 4.000000, 4.000000, 4.000000, 4.000000, 4.000000, 4.000000, 4.000000, 4.000000, 4.000000, 4.000000
41.000000, 0.000000, 4188.717773, 4202.563965, 4210.769043, 4200.000000, 4201.538574, 4202.051270, 4202.563965, 4195.384277, 4190.256348, 4122.563965, 4214.358887, 4201.025391, 4213.333008, 4206.666504, 0.000000, 8173.000000, 8126.000000, 0.000000, 0.000000, 0.000000, -21031.000000, 479.487183, 4.000000, 4.000000, 4.000000, 4.000000, 4.000000, 4.000000, 4.000000, 4.000000, 4.000000, 4.000000, 4.000000, 4.000000, 4.000000, 4.000000, 4.000000, 4.000000
42.000000, 0.000000, 4183.589844, 4198.974121, 4203.589844, 4202.051270, 4200.000000, 4202.563965, 4202.051270, 4198.974121, 4196.410156, 4118.974121, 4211.281738, 4204.102539, 4210.256348, 4207.692383, 0.000000, 8173.000000, 8126.000000, 0.000000, 0.000000, 0.000000, -21031.000000, 487.179474, 4.000000, 4.000000, 4.000000, 4.000000, 4.000000, 4.000000, 4.000000, 4.000000, 4.000000, 4.000000, 4.000000, 4.000000, 4.000000, 4.000000, 4.000000, 4.000000
43.000000, 0.000000, 4180.000000, 4194.358887, 4201.025391, 4200.000000, 4201.025391, 4203.076660, 4201.025391, 4194.358887, 4188.205078, 4101.025391, 4210.769043, 4200.512695, 4212.820313, 4213.846191, 0.000000, 8133.000000, 8120.000000, 0.000000, 0.000000, 0.000000, -21031.000000, 494.871796, 4.000000, 4.000000, 4.000000, 4.000000, 4.000000, 4.000000, 4.000000, 4.000000, 4.000000, 4.000000, 4.000000, 4.000000, 4.000000, 4.000000, 4.000000, 4.000000
44.000000, 0.000000, 4182.051270, 4194.358887, 4202.051270, 4196.410156, 4199.487305, 4202.051270, 4200.512695, 4185.641113, 4180.512695, 4089.743408, 4204.102539, 4190.256348, 4206.666504, 4210.256348, 0.000000, 8133.000000, 8120.000000, 0.000000, 0.000000, 0.000000, -21031.000000, 503.076904, 4.000000, 4.000000, 4.000000, 4.000000, 4.000000, 4.000000, 4.000000, 4.000000, 4.000000, 4.000000, 4.000000, 4.000000, 4.000000, 4.000000, 4.000000, 4.000000
45.000000, 0.000000, 4177.436035, 4194.358887, 4201.025391, 4198.461426, 4200.000000, 4203.076660, 4206.666504, 4184.615234, 4183.076660, 4090.256348, 4200.000000, 4183.076660, 4203.589844, 4206.153809, 0.000000, 8112.000000, 8115.000000, 0.000000, 0.000000, 0.000000, -21031.000000, 510.769226, 4.000000, 4.000000, 4.000000, 4.000000, 4.000000, 4.000000, 4.000000, 4.000000, 4.000000, 4.000000, 4.000000, 4.000000, 4.000000, 4.000000, 4.000000, 4.000000
46.000000, 0.000000, 4178.461426, 4196.922852, 4202.051270, 4197.436035, 4202.051270, 4205.127930, 4208.717773, 4185.127930, 4179.487305, 4084.615234, 4200.512695, 4182.051270, 4204.615234, 4205.641113, 0.000000, 8112.000000, 8115.000000, 0.000000, 0.000000, 0.000000, -21031.000000, 518.461548, 4.000000, 4.000000, 4.000000, 4.000000, 4.000000, 4.000000, 4.000000, 4.000000, 4.000000, 4.000000, 4.000000, 4.000000, 4.000000, 4.000000, 4.000000, 4.000000
47.000000, 0.000000, 4180.000000, 4194.871582, 4199.487305, 4192.307617, 4196.922852, 4201.025391, 4198.461426, 4181.025391, 4171.281738, 4074.871582, 4196.410156, 4183.589844, 4201.025391, 4208.717773, 0.000000, 8082.000000, 8105.000000, 0.000000, 0.000000, 0.000000, -21031.000000, 526.153809, 4.000000, 4.000000, 4.000000, 4.000000, 4.000000, 4.000000, 4.000000, 4.000000, 4.000000, 4.000000, 4.000000, 4.000000, 4.000000, 4.000000, 4.000000, 4.000000
48.000000, 0.000000, 4181.025391, 4189.230469, 4196.922852, 4196.922852, 4191.794922, 4193.333008, 4195.384277, 4191.281738, 4182.051270, 4080.000000, 4199.487305, 4185.127930, 4202.563965, 4212.307617, 0.000000, 8082.000000, 8105.000000, 0.000000, 0.000000, 0.000000, -21031.000000, 534.358948, 4.000000, 4.000000, 4.000000, 4.000000, 4.000000, 4.000000, 4.000000, 4.000000, 4.000000, 4.000000, 4.000000, 4.000000, 4.000000, 4.000000, 4.000000, 4.000000
49.000000, 0.000000, 4186.666504, 4193.846191, 4202.051270, 4202.051270, 4194.871582, 4187.692383, 4196.410156, 4204.102539, 4201.538574, 4096.410156, 4213.333008, 4185.127930, 4214.358887, 4211.794922, 0.000000, 8069.000000, 8091.000000, 0.000000, 0.000000, 0.000000, -21031.000000, 542.051270, 4.000000, 4.000000, 4.000000, 4.000000, 4.000000, 4.000000, 4.000000, 4.000000, 4.000000, 4.000000, 4.000000, 4.000000, 4.000000, 4.000000, 4.000000, 4.000000
50.000000, 0.000000, 4184.615234, 4198.461426, 4204.102539, 4198.974121, 4197.948730, 4185.641113, 4191.281738, 4191.281738, 4198.461426, 4103.076660, 4216.922852, 4185.641113, 4219.487305, 4213.846191, 0.000000, 8069.000000, 8091.000000, 0.000000, 0.000000, 0.000000, -21031.000000, 549.743591, 4.000000, 4.000000, 4.000000, 4.000000, 4.000000, 4.000000, 4.000000, 4.000000, 4.000000, 4.000000, 4.000000, 4.000000, 4.000000, 4.000000, 4.000000, 4.000000
51.000000, 0.000000, 4184.615234, 4194.871582, 4204.102539, 4200.000000, 4196.410156, 4185.127930, 4186.153809, 4182.051270, 4193.333008, 4091.794678, 4213.333008, 4192.820313, 4213.333008, 4209.743652, 0.000000, 8066.000000, 8074.000000, 0.000000, 0.000000, 0.000000, -21031.000000, 557.948730, 4.000000, 4.000000, 4.000000, 4.000000, 4.000000, 4.000000, 4.000000, 4.000000, 4.000000, 4.000000, 4.000000, 4.000000, 4.000000, 4.000000, 4.000000, 4.000000
52.000000, 0.000000, 4186.153809, 4195.384277, 4207.179199, 4204.102539, 4196.410156, 4186.666504, 4189.230469, 4198.974121, 4204.102539, 4077.435791, 4214.358887, 4201.538574, 4215.384277, 4205.127930, 0.000000, 8066.000000, 8074.000000, 0.000000, 0.000000, 0.000000, -21031.000000, 565.640991, 4.000000, 4.000000, 4.000000, 4.000000, 4.000000, 4.000000, 4.000000, 4.000000, 4.000000, 4.000000, 4.000000, 4.000000, 4.000000, 4.000000, 4.000000, 4.000000
53.000000, 0.000000, 4185.641113, 4204.102539, 4206.153809, 4203.076660, 4195.897461, 4192.307617, 4195.897461, 4202.563965, 4202.563965, 4075.384521, 4220.000000, 4200.000000, 4228.717773, 4208.717773, 0.000000, 8077.000000, 8046.000000, 0.000000, 0.000000, 0.000000, -21031.000000, 573.846130, 4.000000, 4.000000, 4.000000, 4.000000, 4.000000, 4.000000, 4.000000, 4.000000, 4.000000, 4.000000, 4.000000, 4.000000, 4.000000, 4.000000, 4.000000, 4.000000
54.000000, 0.000000, 4183.076660, 4197.948730, 4202.051270, 4201.025391, 4195.384277, 4197.948730, 4196.922852, 4185.641113, 4190.256348, 4078.974365, 4211.281738, 4185.641113, 4221.538574, 4207.179199, 0.000000, 8077.000000, 8046.000000, 0.000000, 0.000000, 0.000000, -21031.000000, 581.538452, 4.000000, 4.000000, 4.000000, 4.000000, 4.000000, 4.000000, 4.000000, 4.000000, 4.000000, 4.000000, 4.000000, 4.000000, 4.000000, 4.000000, 4.000000, 4.000000
55.000000, 0.000000, 4169.743652, 4181.538574, 4194.871582, 4197.436035, 4195.897461, 4197.948730, 4197.436035, 4181.538574, 4192.307617, 4073.333252, 4189.230469, 4176.410156, 4192.820313, 4204.615234, 0.000000, 8091.000000, 8042.000000, 0.000000, 0.000000, 0.000000, -21031.000000, 589.230774, 4.000000, 4.000000, 4.000000, 4.000000, 4.000000, 4.000000, 4.000000, 4.000000, 4.000000, 4.000000, 4.000000, 4.000000, 4.000000, 4.000000, 4.000000, 4.000000
56.000000, 0.000000, 4173.333008, 4186.153809, 4192.307617, 4197.436035, 4196.922852, 4196.410156, 4200.000000, 4185.127930, 4193.333008, 4070.769043, 4186.153809, 4180.000000, 4193.846191, 4205.641113, 0.000000, 8091.000000, 8042.000000, 0.000000, 0.000000, 0.000000, -21031.000000, 597.435913, 4.000000, 4.000000, 4.000000, 4.000000, 4.000000, 4.000000, 4.000000, 4.000000, 4.000000, 4.000000, 4.000000, 4.000000, 4.000000, 4.000000, 4.000000, 4.000000
57.000000, 0.000000, 4188.717773, 4200.000000, 4197.436035, 4202.051270, 4199.487305, 4197.948730, 4200.000000, 4185.641113, 4192.307617, 4076.410156, 4199.487305, 4181.025391, 4220.512695, 4206.666504, 0.000000, 8123.000000, 8041.000000, 0.000000, 0.000000, 0.000000, -21031.000000, 605.128174, 4.000000, 4.000000, 4.000000, 4.000000, 4.000000, 4.000000, 4.000000, 4.000000, 4.000000, 4.000000, 4.000000, 4.000000, 4.000000, 4.000000, 4.000000, 4.000000
58.000000, 0.000000, 4188.205078, 4198.461426, 4200.512695, 4204.102539, 4201.025391, 4200.000000, 4195.897461, 4183.589844, 4194.871582, 4081.025635, 4201.025391, 4182.051270, 4229.743652, 4209.230469, 0.000000, 8123.000000, 8041.000000, 0.000000, 0.000000, 0.000000, -21031.000000, 612.820496, 4.000000, 4.000000, 4.000000, 4.000000, 4.000000, 4.000000, 4.000000, 4.000000, 4.000000, 4.000000, 4.000000, 4.000000, 4.000000, 4.000000, 4.000000, 4.000000
59.000000, 0.000000, 4187.179199, 4189.743652, 4201.538574, 4203.076660, 4201.025391, 4203.589844, 4194.358887, 4177.436035, 4191.794922, 4091.281982, 4197.948730, 4192.820313, 4229.743652, 4207.692383, 0.000000, 8140.000000, 8045.000000, 0.000000, 0.000000, 0.000000, -21031.000000, 620.512817, 4.000000, 4.000000, 4.000000, 4.000000, 4.000000, 4.000000, 4.000000, 4.000000, 4.000000, 4.000000, 4.000000, 4.000000, 4.000000, 4.000000, 4.000000, 4.000000
60.000000, 0.000000, 4187.692383, 4190.256348, 4205.641113, 4203.076660, 4201.025391, 4205.127930, 4196.410156, 4179.487305, 4189.743652, 4097.436035, 4204.102539, 4203.589844, 4237.948730, 4210.256348, 0.000000, 8140.000000, 8045.000000, 0.000000, 0.000000, 0.000000, -21031.000000, 628.717957, 4.000000, 4.000000, 4.000000, 4.000000, 4.000000, 4.000000, 4.000000, 4.000000, 4.000000, 4.000000, 4.000000, 4.000000, 4.000000, 4.000000, 4.000000, 4.000000
61.000000, 0.000000, 4188.205078, 4191.281738, 4205.641113, 4202.051270, 4201.025391, 4202.051270, 4192.820313, 4181.538574, 4189.230469, 4085.128174, 4202.563965, 4197.436035, 4236.922852, 4211.281738, 0.000000, 8150.000000, 8055.000000, 0.000000, 0.000000, 0.000000, -21031.000000, 636.923035, 4.000000, 4.000000, 4.000000, 4.000000, 4.000000, 4.000000, 4.000000, 4.000000, 4.000000, 4.000000, 4.000000, 4.000000, 4.000000, 4.000000, 4.000000, 4.000000
62.000000, 0.000000, 4182.051270, 4186.666504, 4198.974121, 4202.051270, 4196.922852, 4200.000000, 4187.179199, 4173.333008, 4184.102539, 4075.384521, 4197.948730, 4185.127930, 4229.743652, 4205.127930, 0.000000, 8150.000000, 8055.000000, 0.000000, 0.000000, 0.000000, -21031.000000, 644.615356, 4.000000, 4.000000, 4.000000, 4.000000, 4.000000, 4.000000, 4.000000, 4.000000, 4.000000, 4.000000, 4.000000, 4.000000, 4.000000, 4.000000, 4.000000, 4.000000
63.000000, 0.000000, 4174.871582, 4184.615234, 4193.333008, 4195.897461, 4189.230469, 4200.512695, 4186.153809, 4175.384277, 4189.230469, 4077.435791, 4200.000000, 4184.615234, 4227.179199, 4205.127930, 0.000000, 8183.000000, 8082.000000, 0.000000, 0.000000, 0.000000, -21031.000000, 652.307678, 4.000000, 4.000000, 4.000000, 4.000000, 4.000000, 4.000000, 4.000000, 4.000000, 4.000000, 4.000000, 4.000000, 4.000000, 4.000000, 4.000000, 4.000000, 4.000000
64.000000, 0.000000, 4178.974121, 4184.615234, 4192.307617, 4188.717773, 4190.769043, 4198.974121, 4187.179199, 4188.717773, 4203.076660, 4074.358887, 4202.051270, 4188.717773, 4228.717773, 4208.205078, 3359.000000, 8183.000000, 8082.000000, 0.000000, 0.000000, 0.000000, -21031.000000, 660.512817, 4.000000, 4.000000, 4.000000, 4.000000, 4.000000, 4.000000, 4.000000, 4.000000, 4.000000, 4.000000, 4.000000, 4.000000, 4.000000, 4.000000, 4.000000, 4.000000
65.000000, 0.000000, 4178.461426, 4185.127930, 4197.948730, 4193.846191, 4199.487305, 4197.948730, 4191.794922, 4186.666504, 4194.358887, 4063.589600, 4202.563965, 4190.769043, 4232.820313, 4209.743652, 3508.000000, 8195.000000, 8094.000000, 0.000000, 0.000000, 0.000000, -21031.000000, 668.205139, 4.000000, 4.000000, 4.000000, 4.000000, 4.000000, 4.000000, 4.000000, 4.000000, 4.000000, 4.000000, 4.000000, 4.000000, 4.000000, 4.000000, 4.000000, 4.000000
66.000000, 0.000000, 4178.461426, 4187.179199, 4202.563965, 4198.461426, 4200.000000, 4202.051270, 4200.000000, 4177.948730, 4179.487305, 4055.897217, 4202.563965, 4190.769043, 4231.794922, 4209.743652, 2540.000000, 8195.000000, 8094.000000, 0.000000, 0.000000, 0.000000, -21031.000000, 675.897400, 4.000000, 4.000000, 4.000000, 4.000000, 4.000000, 4.000000, 4.000000, 4.000000, 4.000000, 4.000000, 4.000000, 4.000000, 4.000000, 4.000000, 4.000000, 4.000000
67.000000, 0.000000, 4181.538574, 4187.179199, 4201.025391, 4196.410156, 4194.871582, 4206.666504, 4201.538574, 4186.666504, 4187.179199, 4051.794678, 4203.076660, 4193.333008, 4232.307617, 4206.153809, 2146.000000, 8205.000000, 8126.000000, 0.000000, 0.000000, 0.000000, -21031.000000, 683.589722, 4.000000, 4.000000, 4.000000, 4.000000, 4.000000, 4.000000, 4.000000, 4.000000, 4.000000, 4.000000, 4.000000, 4.000000, 4.000000, 4.000000, 4.000000, 4.000000
68.000000, 0.000000, 4178.974121, 4186.153809, 4200.512695, 4193.333008, 4191.794922, 4197.948730, 4188.205078, 4189.743652, 4191.281738, 4040.512695, 4201.025391, 4195.384277, 4233.846191, 4206.666504, 3528.000000, 8205.000000, 8126.000000, 0.000000, 0.000000, 0.000000, -21031.000000, 691.794861, 4.000000, 4.000000, 4.000000, 4.000000, 4.000000, 4.000000, 4.000000, 4.000000, 4.000000, 4.000000, 4.000000, 4.000000, 4.000000, 4.000000, 4.000000, 4.000000
69.000000, 0.000000, 4180.512695, 4186.153809, 4202.051270, 4195.384277, 4187.179199, 4191.281738, 4179.487305, 4178.974121, 4183.076660, 4032.307617, 4197.948730, 4196.410156, 4232.307617, 4204.615234, 3540.000000, 8211.000000, 8133.000000, 0.000000, 0.000000, 0.000000, -21031.000000, 700.000000, 4.000000, 4.000000, 4.000000, 4.000000, 4.000000, 4.000000, 4.000000, 4.000000, 4.000000, 4.000000, 4.000000, 4.000000, 4.000000, 4.000000, 4.000000, 4.000000
70.000000, 0.000000, 4184.102539, 4188.717773, 4200.512695, 4198.461426, 4187.179199, 4197.948730, 4187.179199, 4175.384277, 4185.127930, 4037.435791, 4205.127930, 4202.051270, 4236.410156, 4206.153809, 3172.000000, 8211.000000, 8133.000000, 0.000000, 0.000000, 0.000000, -21031.000000, 707.692261, 4.000000, 4.000000, 4.000000, 4.000000, 4.000000, 4.000000, 4.000000, 4.000000, 4.000000, 4.000000, 4.000000, 4.000000, 4.000000, 4.000000, 4.000000, 4.000000
71.000000, 0.000000, 4190.256348, 4195.384277, 4201.538574, 4202.051270, 4196.410156, 4197.948730, 4185.641113, 4181.025391, 4194.871582, 4047.179443, 4214.358887, 4208.205078, 4245.641113, 4210.769043, 3510.000000, 8217.000000, 8144.000000, 0.000000, 0.000000, 0.000000, -21031.000000, 715.384583, 4.000000, 4.000000, 4.000000, 4.000000, 4.000000, 4.000000, 4.000000, 4.000000, 4.000000, 4.000000, 4.000000, 4.000000, 4.000000, 4.000000, 4.000000, 4.000000
72.000000, 0.000000, 4196.922852, 4200.000000, 4203.589844, 4210.769043, 4203.589844, 4193.333008, 4179.487305, 4189.230469, 4202.051270, 4052.307617, 4219.487305, 4212.307617, 4252.820313, 4208.717773, 3527.000000, 8217.000000, 8144.000000, 0.000000, 0.000000, 0.000000, -21031.000000, 723.076904, 4.000000, 4.000000, 4.000000, 4.000000, 4.000000, 4.000000, 4.000000, 4.000000, 4.000000, 4.000000, 4.000000, 4.000000, 4.000000, 4.000000, 4.000000, 4.000000
73.000000, 0.000000, 4194.358887, 4202.051270, 4203.076660, 4214.358887, 4203.589844, 4197.948730, 4187.692383, 4199.487305, 4207.692383, 4051.281982, 4225.127930, 4214.871582, 4261.538574, 4209.230469, 3587.000000, 8222.000000, 8150.000000, 0.000000, 0.000000, 0.000000, -21031.000000, 731.282043, 4.000000, 4.000000, 4.000000, 4.000000, 4.000000, 4.000000, 4.000000, 4.000000, 4.000000, 4.000000, 4.000000, 4.000000, 4.000000, 4.000000, 4.000000, 4.000000
74.000000, 0.000000, 4193.333008, 4201.025391, 4202.051270, 4207.179199, 4199.487305, 4196.410156, 4197.436035, 4209.230469, 4210.769043, 4045.640869, 4221.025391, 4210.256348, 4263.589844, 4206.666504, 3545.000000, 8222.000000, 8150.000000, 0.000000, 0.000000, 0.000000, -21031.000000, 738.974365, 4.000000, 4.000000, 4.000000, 4.000000, 4.000000, 4.000000, 4.000000, 4.000000, 4.000000, 4.000000, 4.000000, 4.000000, 4.000000, 4.000000, 4.000000, 4.000000
75.000000, 0.000000, 4188.717773, 4197.948730, 4202.051270, 4201.025391, 4197.436035, 4186.666504, 4196.922852, 4201.025391, 4202.051270, 4039.487061, 4210.769043, 4205.127930, 4256.922852, 4204.102539, 560.000000, 8228.000000, 8151.000000, 0.000000, 0.000000, 0.000000, -21031.000000, 746.666626, 4.000000, 4.000000, 4.000000, 4.000000, 4.000000, 4.000000, 4.000000, 4.000000, 4.000000, 4.000000, 4.000000, 4.000000, 4.000000, 4.000000, 4.000000, 4.000000
76.000000, 0.000000, 4182.051270, 4197.436035, 4201.538574, 4201.025391, 4196.922852, 4192.307617, 4200.000000, 4193.333008, 4195.897461, 4036.923096, 4209.230469, 4201.538574, 4250.769043, 4206.666504, 3483.000000, 8228.000000, 8151.000000, 0.000000, 0.000000, 0.000000, -21031.000000, 754.871765, 4.000000, 4.000000, 4.000000, 4.000000, 4.000000, 4.000000, 4.000000, 4.000000, 4.000000, 4.000000, 4.000000, 4.000000, 4.000000, 4.000000, 4.000000, 4.000000
77.000000, 0.000000, 4184.102539, 4200.000000, 4202.563965, 4202.051270, 4200.000000, 4203.076660, 4206.153809, 4211.281738, 4211.281738, 4045.128174, 4216.410156, 4202.051270, 4251.794922, 4205.641113, 3410.000000, 8230.000000, 8129.000000, 0.000000, 0.000000, 0.000000, -21031.000000, 762.564087, 4.000000, 4.000000, 4.000000, 4.000000, 4.000000, 4.000000, 4.000000, 4.000000, 4.000000, 4.000000, 4.000000, 4.000000, 4.000000, 4.000000, 4.000000, 4.000000
78.000000, 0.000000, 4186.153809, 4202.051270, 4201.538574, 4203.589844, 4202.563965, 4194.871582, 4201.025391, 4213.333008, 4210.256348, 4054.358887, 4215.897461, 4205.641113, 4253.333008, 4208.205078, 3545.000000, 8230.000000, 8129.000000, 0.000000, 0.000000, 0.000000, -21031.000000, 770.769226, 4.000000, 4.000000, 4.000000, 4.000000, 4.000000, 4.000000, 4.000000, 4.000000, 4.000000, 4.000000, 4.000000, 4.000000, 4.000000, 4.000000, 4.000000, 4.000000
79.000000, 0.000000, 4188.205078, 4203.076660, 4200.512695, 4204.615234, 4197.436035, 4187.179199, 4193.333008, 4188.205078, 4184.102539, 4042.563965, 4204.615234, 4200.512695, 4247.692383, 4207.692383, 560.000000, 8232.000000, 8118.000000, 0.000000, 0.000000, 0.000000, -21031.000000, 778.461548, 4.000000, 4.000000, 4.000000, 4.000000, 4.000000, 4.000000, 4.000000, 4.000000, 4.000000, 4.000000, 4.000000, 4.000000, 4.000000, 4.000000, 4.000000, 4.000000
80.000000, 0.000000, 4185.641113, 4203.076660, 4206.666504, 4210.256348, 4200.000000, 4194.358887, 4195.897461, 4187.692383, 4184.102539, 4022.563965, 4201.538574, 4190.769043, 4245.127930, 4206.153809, 3483.000000, 8232.000000, 8118.000000, 0.000000, 0.000000, 0.000000, -21031.000000, 786.153809, 4.000000, 4.000000, 4.000000, 4.000000, 4.000000, 4.000000, 4.000000, 4.000000, 4.000000, 4.000000, 4.000000, 4.000000, 4.000000, 4.000000, 4.000000, 4.000000
81.000000, 0.000000, 4188.205078, 4204.615234, 4211.281738, 4214.871582, 4201.538574, 4199.487305, 4200.512695, 4203.076660, 4201.025391, 4016.410156, 4206.153809, 4187.179199, 4249.230469, 4210.256348, 3410.000000, 8245.000000, 8098.000000, 0.000000, 0.000000, 0.000000, -21031.000000, 794.358948, 4.000000, 4.000000, 4.000000, 4.000000, 4.000000, 4.000000, 4.000000, 4.000000, 4.000000, 4.000000, 4.000000, 4.000000, 4.000000, 4.000000, 4.000000, 4.000000
82.000000, 0.000000, 4193.846191, 4205.641113, 4206.153809, 4208.205078, 4187.692383, 4189.743652, 4193.846191, 4193.333008, 4195.384277, 4009.743408, 4205.127930, 4189.230469, 4252.820313, 4206.666504, 3545.000000, 8245.000000, 8098.000000, 0.000000, 0.000000, 0.000000, -21031.000000, 802.051270, 4.000000, 4.000000, 4.000000, 4.000000, 4.000000, 4.000000, 4.000000, 4.000000, 4.000000, 4.000000, 4.000000, 4.000000, 4.000000, 4.000000, 4.000000, 4.000000
83.000000, 0.000000, 4187.179199, 4205.641113, 4200.000000, 4204.102539, 4187.179199, 4185.641113, 4185.641113, 4179.487305, 4181.538574, 3987.179443, 4201.538574, 4186.666504, 4246.666504, 4205.127930, 560.000000, 8253.000000, 8081.000000, 0.000000, 0.000000, 0.000000, -21031.000000, 809.743591, 4.000000, 4.000000, 4.000000, 4.000000, 4.000000, 4.000000, 4.000000, 4.000000, 4.000000, 4.000000, 4.000000, 4.000000, 4.000000, 4.000000, 4.000000, 4.000000
84.000000, 0.000000, 4185.127930, 4205.641113, 4201.025391, 4207.179199, 4205.641113, 4195.897461, 4184.102539, 4176.922852, 4181.025391, 3967.692139, 4195.384277, 4181.025391, 4236.410156, 4206.666504, 3483.000000, 8253.000000, 8081.000000, 0.000000, 0.000000, 0.000000, -21031.000000, 817.435852, 4.000000, 4.000000, 4.000000, 4.000000, 4.000000, 4.000000, 4.000000, 4.000000, 4.000000, 4.000000, 4.000000, 4.000000, 4.000000, 4.000000, 4.000000, 4.000000
85.000000, 0.000000, 4176.922852, 4192.307617, 4198.461426, 4192.307617, 4204.102539, 4201.538574, 4186.153809, 4175.897461, 4184.102539, 3967.179443, 4187.692383, 4181.538574, 4230.769043, 4204.102539, 3410.000000, 8258.000000, 8063.000000, 0.000000, 0.000000, 0.000000, -21031.000000, 825.640991, 4.000000, 4.000000, 4.000000, 4.000000, 4.000000, 4.000000, 4.000000, 4.000000, 4.000000, 4.000000, 4.000000, 4.000000, 4.000000, 4.000000, 4.000000, 4.000000
86.000000, 0.000000, 4165.641113, 4177.948730, 4194.871582, 4178.461426, 4191.794922, 4202.051270, 4194.358887, 4191.281738, 4195.897461, 3971.794678, 4191.794922, 4186.666504, 4228.717773, 4205.127930, 3545.000000, 8258.000000, 8063.000000, 0.000000, 0.000000, 0.000000, -21031.000000, 833.333313, 4.000000, 4.000000, 4.000000, 4.000000, 4.000000, 4.000000, 4.000000, 4.000000, 4.000000, 4.000000, 4.000000, 4.000000, 4.000000, 4.000000, 4.000000, 4.000000
87.000000, 0.000000, 4178.974121, 4189.743652, 4198.974121, 4190.769043, 4195.384277, 4197.948730, 4195.384277, 4204.615234, 4201.538574, 3973.333252, 4200.512695, 4187.692383, 4232.307617, 4206.666504, 560.000000, 8262.000000, 8053.000000, 0.000000, 0.000000, 0.000000, -21031.000000, 841.538452, 4.000000, 4.000000, 4.000000, 4.000000, 4.000000, 4.000000, 4.000000, 4.000000, 4.000000, 4.000000, 4.000000, 4.000000, 4.000000, 4.000000, 4.000000, 4.000000
88.000000, 0.000000, 4194.871582, 4212.307617, 4200.512695, 4205.641113, 4200.000000, 4188.205078, 4189.230469, 4192.820313, 4189.743652, 3976.410156, 4196.410156, 4185.641113, 4234.871582, 4210.256348, 3483.000000, 8262.000000, 8053.000000, 0.000000, 0.000000, 0.000000, -21031.000000, 849.230774, 4.000000, 4.000000, 4.000000, 4.000000, 4.000000, 4.000000, 4.000000, 4.000000, 4.000000, 4.000000, 4.000000, 4.000000, 4.000000, 4.000000, 4.000000, 4.000000
89.000000, 0.000000, 4201.025391, 4220.000000, 4205.127930, 4214.358887, 4198.461426, 4189.743652, 4186.666504, 4180.512695, 4181.025391, 3984.615234, 4193.333008, 4189.743652, 4232.820313, 4210.256348, 3410.000000, 8269.000000, 8050.000000, 0.000000, 0.000000, 0.000000, -21031.000000, 856.923035, 4.000000, 4.000000, 4.000000, 4.000000, 4.000000, 4.000000, 4.000000, 4.000000, 4.000000, 4.000000, 4.000000, 4.000000, 4.000000, 4.000000, 4.000000, 4.000000
90.000000, 0.000000, 4209.230469, 4226.153809, 4213.333008, 4226.153809, 4202.563965, 4199.487305, 4186.666504, 4184.102539, 4187.692383, 3992.307617, 4198.974121, 4193.846191, 4233.333008, 4208.205078, 3545.000000, 8269.000000, 8050.000000, 0.000000, 0.000000, 0.000000, -21031.000000, 864.615356, 4.000000, 4.000000, 4.000000, 4.000000, 4.000000, 4.000000, 4.000000, 4.000000, 4.000000, 4.000000, 4.000000, 4.000000, 4.000000, 4.000000, 4.000000, 4.000000
91.000000, 0.000000, 4223.589844, 4244.102539, 4218.974121, 4238.974121, 4209.230469, 4202.051270, 4188.205078, 4191.281738, 4194.871582, 3998.974365, 4206.666504, 4196.410156, 4241.538574, 4212.820313, 560.000000, 8277.000000, 8054.000000, 0.000000, 0.000000, 0.000000, -21031.000000, 872.820496, 4.000000, 4.000000, 4.000000, 4.000000, 4.000000, 4.000000, 4.000000, 4.000000, 4.000000, 4.000000, 4.000000, 4.000000, 4.000000, 4.000000, 4.000000, 4.000000
92.000000, 0.000000, 4234.358887, 4255.384277, 4223.076660, 4247.692383, 4217.948730, 4206.666504, 4196.410156, 4200.512695, 4202.563965, 4007.179443, 4212.820313, 4203.076660, 4246.153809, 4210.256348, 3483.000000, 8277.000000, 8054.000000, 0.000000, 0.000000, 0.000000, -21031.000000, 880.512817, 4.000000, 4.000000, 4.000000, 4.000000, 4.000000, 4.000000, 4.000000, 4.000000, 4.000000, 4.000000, 4.000000, 4.000000, 4.000000, 4.000000, 4.000000, 4.000000
93.000000, 0.000000, 4224.615234, 4247.692383, 4216.922852, 4243.076660, 4221.538574, 4214.871582, 4204.615234, 4211.794922, 4213.333008, 4007.692139, 4212.820313, 4207.692383, 4241.538574, 4206.153809, 3410.000000, 8277.000000, 8065.000000, 0.000000, 0.000000, 0.000000, -21031.000000, 888.717957, 4.000000, 4.000000, 4.000000, 4.000000, 4.000000, 4.000000, 4.000000, 4.000000, 4.000000, 4.000000, 4.000000, 4.000000, 4.000000, 4.000000, 4.000000, 4.000000
94.000000, 0.000000, 4211.794922, 4234.871582, 4202.051270, 4226.153809, 4212.820313, 4208.205078, 4195.384277, 4211.281738, 4212.820313, 3998.974365, 4201.538574, 4198.974121, 4229.743652, 4204.102539, 3545.000000, 8277.000000, 8065.000000, 0.000000, 0.000000, 0.000000, -21031.000000, 896.410217, 4.000000, 4.000000, 4.000000, 4.000000, 4.000000, 4.000000, 4.000000, 4.000000, 4.000000, 4.000000, 4.000000, 4.000000, 4.000000, 4.000000, 4.000000, 4.000000
95.000000, 0.000000, 4208.717773, 4229.230469, 4198.974121, 4216.922852, 4201.538574, 4197.948730, 4187.179199, 4207.692383, 4206.153809, 3994.358887, 4191.794922, 4188.205078, 4219.487305, 4201.538574, 560.000000, 8277.000000, 8077.000000, 0.000000, 0.000000, 0.000000, -21031.000000, 904.615356, 4.000000, 4.000000, 4.000000, 4.000000, 4.000000, 4.000000, 4.000000, 4.000000, 4.000000, 4.000000, 4.000000, 4.000000, 4.000000, 4.000000, 4.000000, 4.000000
96.000000, 0.000000, 4207.179199, 4226.153809, 4198.461426, 4218.461426, 4203.076660, 4199.487305, 4191.281738, 4205.641113, 4203.076660, 3986.666504, 4188.717773, 4186.666504, 4216.922852, 4204.102539, 3483.000000, 8277.000000, 8077.000000, 0.000000, 0.000000, 0.000000, -21031.000000, 912.307678, 4.000000, 4.000000, 4.000000, 4.000000, 4.000000, 4.000000, 4.000000, 4.000000, 4.000000, 4.000000, 4.000000, 4.000000, 4.000000, 4.000000, 4.000000, 4.000000
97.000000, 0.000000, 4204.102539, 4225.641113, 4189.230469, 4218.974121, 4207.692383, 4199.487305, 4187.692383, 4193.333008, 4195.384277, 3966.666504, 4183.076660, 4180.000000, 4212.307617, 4203.076660, 3410.000000, 8274.000000, 8088.000000, 0.000000, 0.000000, 0.000000, -21031.000000, 920.000000, 4.000000, 4.000000, 4.000000, 4.000000, 4.000000, 4.000000, 4.000000, 4.000000, 4.000000, 4.000000, 4.000000, 4.000000, 4.000000, 4.000000, 4.000000, 4.000000
98.000000, 0.000000, 4196.922852, 4224.102539, 4188.717773, 4216.922852, 4203.076660, 4198.461426, 4182.563965, 4187.692383, 4189.230469, 3953.333252, 4179.487305, 4169.743652, 4206.153809, 4203.589844, 3545.000000, 8274.000000, 8088.000000, 0.000000, 0.000000, 0.000000, -21031.000000, 927.692261, 4.000000, 4.000000, 4.000000, 4.000000, 4.000000, 4.000000, 4.000000, 4.000000, 4.000000, 4.000000, 4.000000, 4.000000, 4.000000, 4.000000, 4.000000, 4.000000
99.000000, 0.000000, 4200.512695, 4218.974121, 4195.897461, 4216.922852, 4203.589844, 4202.563965, 4193.333008, 4197.948730, 4196.922852, 3957.435791, 4183.076660, 4173.846191, 4212.307617, 4205.127930, 560.000000, 8267.000000, 8098.000000, 0.000000, 0.000000, 0.000000, -21031.000000, 935.897400, 4.000000, 4.000000, 4.000000, 4.000000, 4.000000, 4.000000, 4.000000, 4.000000, 4.000000, 4.000000, 4.000000, 4.000000, 4.000000, 4.000000, 4.000000, 4.000000
100.000000, 0.000000, 4209.743652, 4216.410156, 4194.871582, 4216.922852, 4216.410156, 4205.641113, 4199.487305, 4205.127930, 4203.589844, 3957.435791, 4186.153809, 4185.641113, 4217.436035, 4202.051270, 3483.000000, 8267.000000, 8098.000000, 0.000000, 0.000000, 0.000000, -21031.000000, 943.589722, 4.000000, 4.000000, 4.000000, 4.000000, 4.000000, 4.000000, 4.000000, 4.000000, 4.000000, 4.000000, 4.000000, 4.000000, 4.000000, 4.000000, 4.000000, 4.000000
101.000000, 0.000000, 4204.615234, 4218.461426, 4190.256348, 4215.897461, 4215.897461, 4203.589844, 4193.333008, 4208.205078, 4200.000000, 3943.589600, 4184.102539, 4185.641113, 4208.205078, 4205.127930, 3410.000000, 8253.000000, 8116.000000, 0.000000, 0.000000, 0.000000, -21031.000000, 951.794861, 4.000000, 4.000000, 4.000000, 4.000000, 4.000000, 4.000000, 4.000000, 4.000000, 4.000000, 4.000000, 4.000000, 4.000000, 4.000000, 4.000000, 4.000000, 4.000000
102.000000, 0.000000, 4204.102539, 4218.974121, 4193.846191, 4217.436035, 4207.179199, 4202.563965, 4199.487305, 4214.871582, 4200.000000, 3925.640869, 4183.076660, 4183.076660, 4205.127930, 4204.615234, 3545.000000, 8253.000000, 8116.000000, 0.000000, 0.000000, 0.000000, -21031.000000, 959.487183, 4.000000, 4.000000, 4.000000, 4.000000, 4.000000, 4.000000, 4.000000, 4.000000, 4.000000, 4.000000, 4.000000, 4.000000, 4.000000, 4.000000, 4.000000, 4.000000
103.000000, 0.000000, 4204.615234, 4216.922852, 4195.897461, 4215.897461, 4209.230469, 4202.563965, 4204.615234, 4213.333008, 4201.538574, 3918.461426, 4188.205078, 4188.717773, 4217.948730, 4203.589844, 560.000000, 8246.000000, 8123.000000, 0.000000, 0.000000, 0.000000, -21031.000000, 967.692261, 4.000000, 4.000000, 4.000000, 4.000000, 4.000000, 4.000000, 4.000000, 4.000000, 4.000000, 4.000000, 4.000000, 4.000000, 4.000000, 4.000000, 4.000000, 4.000000
104.000000, 0.000000, 4197.948730, 4218.461426, 4193.846191, 4207.179199, 4210.769043, 4201.025391, 4192.307617, 4206.153809, 4201.538574, 3922.051270, 4192.820313, 4189.743652, 4219.487305, 4204.615234, 3483.000000, 8246.000000, 8123.000000, 0.000000, 0.000000, 0.000000, -21031.000000, 975.384583, 4.000000, 4.000000, 4.000000, 4.000000, 4.000000, 4.000000, 4.000000, 4.000000, 4.000000, 4.000000, 4.000000, 4.000000, 4.000000, 4.000000, 4.000000, 4.000000
105.000000, 0.000000, 4194.871582, 4216.922852, 4187.692383, 4201.025391, 4194.871582, 4197.948730, 4184.102539, 4208.717773, 4205.127930, 3916.923096, 4187.179199, 4180.512695, 4207.692383, 4202.051270, 3410.000000, 8230.000000, 8144.000000, 0.000000, 0.000000, 0.000000, -21031.000000, 983.076904, 4.000000, 4.000000, 4.000000, 4.000000, 4.000000, 4.000000, 4.000000, 4.000000, 4.000000, 4.000000, 4.000000, 4.000000, 4.000000, 4.000000, 4.000000, 4.000000
106.000000, 0.000000, 4191.281738, 4211.281738, 4183.076660, 4197.948730, 4181.538574, 4195.384277, 4188.205078, 4209.743652, 4205.127930, 3897.435791, 4175.384277, 4177.436035, 4199.487305, 4203.076660, 3545.000000, 8230.000000, 8144.000000, 0.000000, 0.000000, 0.000000, -21031.000000, 991.282043, 4.000000, 4.000000, 4.000000, 4.000000, 4.000000, 4.000000, 4.000000, 4.000000, 4.000000, 4.000000, 4.000000, 4.000000, 4.000000, 4.000000, 4.000000, 4.000000
107.000000, 0.000000, 4191.281738, 4205.641113, 4187.692383, 4191.794922, 4187.692383, 4198.461426, 4194.358887, 4212.820313, 4202.563965, 3885.640869, 4170.256348, 4178.974121, 4194.871582, 4201.025391, 560.000000, 8224.000000, 8150.000000, 0.000000, 0.000000, 0.000000, -21031.000000, 998.974304, 4.000000, 4.000000, 4.000000, 4.000000, 4.000000, 4.000000, 4.000000, 4.000000, 4.000000, 4.000000, 4.000000, 4.000000, 4.000000, 4.000000, 4.000000, 4.000000
108.000000, 0.000000, 4187.179199, 4198.974121, 4181.025391, 4185.127930, 4188.205078, 4201.025391, 4201.538574, 4220.000000, 4203.076660, 3889.230713, 4168.717773, 4171.794922, 4188.717773, 4203.076660, 3483.000000, 8224.000000, 8150.000000, 0.000000, 0.000000, 0.000000, -21030.000000, 7.179487, 4.000000, 4.000000, 4.000000, 4.000000, 4.000000, 4.000000, 4.000000, 4.000000, 4.000000, 4.000000, 4.000000, 4.000000, 4.000000, 4.000000, 4.000000, 4.000000
