title:winkLeft29, recorded:21.05.18 17.08.18, timestamp started:2018-05-12T20:28:52.032863+02:00            , sampling:128, subject:Noé, labels:COUNTER INTERPOLATED AF3 F7 F3 FC5 T7 P7 O1 O2 P8 T8 FC6 F4 F8 AF4 RAW_CQ GYROX GYROY MARKER MARKER_HARDWARE SYNC TIME_STAMP_s TIME_STAMP_ms CQ_AF3 CQ_F7 CQ_F3 CQ_FC5 CQ_T7 CQ_P7 CQ_O1 CQ_O2 CQ_P8 CQ_T8 CQ_FC6 CQ_F4 CQ_F8 CQ_AF4 CQ_CMS CQ_DRL, chan:40, samples:2328, units:emotiv
114.000000, 0.000000, 4236.410156, 4155.897461, 4233.846191, 4234.358887, 4213.846191, 4217.436035, 4213.333008, 4226.153809, 4202.563965, 4230.256348, 4252.820313, 4233.333008, 4248.717773, 4254.871582, 3595.000000, 8162.000000, 8121.000000, 0.000000, 0.000000, 0.000000, -20866.000000, 675.384583, 4.000000, 4.000000, 4.000000, 4.000000, 4.000000, 4.000000, 4.000000, 4.000000, 1.000000, 4.000000, 4.000000, 4.000000, 4.000000, 4.000000, 4.000000, 4.000000
115.000000, 0.000000, 4228.205078, 4151.281738, 4230.256348, 4222.051270, 4203.076660, 4213.333008, 4214.358887, 4213.333008, 4203.589844, 4228.205078, 4249.230469, 4231.281738, 4247.179199, 4247.179199, 3571.000000, 8153.000000, 8107.000000, 0.000000, 0.000000, 0.000000, -20866.000000, 683.076904, 4.000000, 4.000000, 4.000000, 4.000000, 4.000000, 4.000000, 4.000000, 4.000000, 1.000000, 4.000000, 4.000000, 4.000000, 4.000000, 4.000000, 4.000000, 4.000000
116.000000, 0.000000, 4225.127930, 4142.563965, 4222.051270, 4218.461426, 4199.487305, 4220.512695, 4221.538574, 4222.563965, 4202.563965, 4232.820313, 4253.333008, 4229.230469, 4251.281738, 4242.051270, 3524.000000, 8153.000000, 8107.000000, 0.000000, 0.000000, 0.000000, -20866.000000, 691.282043, 4.000000, 4.000000, 4.000000, 4.000000, 4.000000, 4.000000, 4.000000, 4.000000, 1.000000, 4.000000, 4.000000, 4.000000, 4.000000, 4.000000, 4.000000, 4.000000
117.000000, 0.000000, 4229.230469, 4147.692383, 4222.563965, 4228.205078, 4207.692383, 4229.743652, 4220.512695, 4233.333008, 4201.538574, 4235.897461, 4260.000000, 4231.794922, 4259.487305, 4246.153809, 3443.000000, 8139.000000, 8090.000000, 0.000000, 0.000000, 0.000000, -20866.000000, 698.974365, 4.000000, 4.000000, 4.000000, 4.000000, 4.000000, 4.000000, 4.000000, 4.000000, 1.000000, 4.000000, 4.000000, 4.000000, 4.000000, 4.000000, 4.000000, 4.000000
118.000000, 0.000000, 4225.641113, 4151.794922, 4223.076660, 4235.897461, 4210.256348, 4230.256348, 4220.512695, 4223.589844, 4202.563965, 4232.820313, 4252.820313, 4223.589844, 4258.974121, 4242.051270, 3595.000000, 8139.000000, 8090.000000, 0.000000, 0.000000, 0.000000, -20866.000000, 706.666626, 4.000000, 4.000000, 4.000000, 4.000000, 4.000000, 4.000000, 4.000000, 4.000000, 1.000000, 4.000000, 4.000000, 4.000000, 4.000000, 4.000000, 4.000000, 4.000000
119.000000, 0.000000, 4215.384277, 4142.563965, 4215.897461, 4227.179199, 4202.563965, 4229.230469, 4233.846191, 4216.922852, 4200.512695, 4230.256348, 4238.974121, 4213.333008, 4244.615234, 4227.692383, 3571.000000, 8137.000000, 8081.000000, 0.000000, 0.000000, 0.000000, -20866.000000, 714.871765, 4.000000, 4.000000, 4.000000, 4.000000, 4.000000, 4.000000, 4.000000, 4.000000, 1.000000, 4.000000, 4.000000, 4.000000, 4.000000, 4.000000, 4.000000, 4.000000
120.000000, 0.000000, 4211.794922, 4140.512695, 4212.820313, 4219.487305, 4201.025391, 4221.538574, 4228.205078, 4215.897461, 4199.487305, 4229.743652, 4236.922852, 4214.358887, 4241.025391, 4223.076660, 3524.000000, 8137.000000, 8081.000000, 0.000000, 0.000000, 0.000000, -20866.000000, 722.564087, 4.000000, 4.000000, 4.000000, 4.000000, 4.000000, 4.000000, 4.000000, 4.000000, 1.000000, 4.000000, 4.000000, 4.000000, 4.000000, 4.000000, 4.000000, 4.000000
121.000000, 0.000000, 4217.948730, 4147.179199, 4218.974121, 4225.127930, 4211.281738, 4214.871582, 4212.307617, 4214.871582, 4202.563965, 4233.333008, 4245.641113, 4218.461426, 4252.820313, 4230.769043, 3443.000000, 8142.000000, 8054.000000, 0.000000, 0.000000, 0.000000, -20866.000000, 730.256409, 4.000000, 4.000000, 4.000000, 4.000000, 4.000000, 4.000000, 4.000000, 4.000000, 1.000000, 4.000000, 4.000000, 4.000000, 4.000000, 4.000000, 4.000000, 4.000000
122.000000, 0.000000, 4225.127930, 4147.692383, 4225.641113, 4232.820313, 4217.948730, 4224.615234, 4226.153809, 4227.179199, 4203.589844, 4241.538574, 4249.743652, 4218.974121, 4262.563965, 4234.871582, 3595.000000, 8142.000000, 8054.000000, 0.000000, 0.000000, 0.000000, -20866.000000, 738.461548, 4.000000, 4.000000, 4.000000, 4.000000, 4.000000, 4.000000, 4.000000, 4.000000, 1.000000, 4.000000, 4.000000, 4.000000, 4.000000, 4.000000, 4.000000, 4.000000
123.000000, 0.000000, 4230.256348, 4146.153809, 4224.102539, 4234.358887, 4210.769043, 4228.205078, 4235.897461, 4232.820313, 4201.025391, 4244.615234, 4247.179199, 4218.974121, 4264.102539, 4233.846191, 3571.000000, 8149.000000, 8044.000000, 0.000000, 0.000000, 0.000000, -20866.000000, 746.153809, 4.000000, 4.000000, 4.000000, 4.000000, 4.000000, 4.000000, 4.000000, 4.000000, 1.000000, 4.000000, 4.000000, 4.000000, 4.000000, 4.000000, 4.000000, 4.000000
124.000000, 0.000000, 4230.256348, 4149.230469, 4222.563965, 4232.307617, 4204.615234, 4218.461426, 4222.051270, 4218.461426, 4202.051270, 4243.076660, 4244.102539, 4218.974121, 4263.076660, 4232.307617, 3524.000000, 8149.000000, 8044.000000, 0.000000, 0.000000, 0.000000, -20866.000000, 753.846130, 4.000000, 4.000000, 4.000000, 4.000000, 4.000000, 4.000000, 4.000000, 4.000000, 1.000000, 4.000000, 4.000000, 4.000000, 4.000000, 4.000000, 4.000000, 4.000000
125.000000, 0.000000, 4227.179199, 4148.717773, 4227.179199, 4231.794922, 4204.102539, 4217.948730, 4223.589844, 4224.615234, 4203.589844, 4244.102539, 4243.589844, 4220.000000, 4262.563965, 4231.794922, 3443.000000, 8162.000000, 8041.000000, 0.000000, 0.000000, 0.000000, -20866.000000, 762.051270, 4.000000, 4.000000, 4.000000, 4.000000, 4.000000, 4.000000, 4.000000, 4.000000, 1.000000, 4.000000, 4.000000, 4.000000, 4.000000, 4.000000, 4.000000, 4.000000
126.000000, 0.000000, 4227.692383, 4143.589844, 4225.641113, 4230.256348, 4204.102539, 4222.563965, 4228.205078, 4249.230469, 4203.076660, 4247.179199, 4245.127930, 4220.512695, 4263.076660, 4233.846191, 3595.000000, 8162.000000, 8041.000000, 0.000000, 0.000000, 0.000000, -20866.000000, 769.743591, 4.000000, 4.000000, 4.000000, 4.000000, 4.000000, 4.000000, 4.000000, 4.000000, 1.000000, 4.000000, 4.000000, 4.000000, 4.000000, 4.000000, 4.000000, 4.000000
127.000000, 0.000000, 4231.281738, 4145.641113, 4221.538574, 4231.281738, 4206.666504, 4217.436035, 4221.025391, 4243.589844, 4202.563965, 4253.333008, 4246.153809, 4217.436035, 4263.589844, 4234.871582, 57.000000, 8173.000000, 8044.000000, 0.000000, 0.000000, 0.000000, -20866.000000, 777.948669, 4.000000, 4.000000, 4.000000, 4.000000, 4.000000, 4.000000, 4.000000, 4.000000, 1.000000, 4.000000, 4.000000, 4.000000, 4.000000, 4.000000, 4.000000, 4.000000
0.000000, 0.000000, 4232.307617, 4149.743652, 4224.615234, 4232.820313, 4205.127930, 4215.897461, 4227.692383, 4229.230469, 4203.589844, 4260.000000, 4244.615234, 4216.922852, 4261.538574, 4231.281738, 3183.000000, 8173.000000, 8044.000000, 0.000000, 0.000000, 0.000000, -20866.000000, 785.640991, 4.000000, 4.000000, 4.000000, 4.000000, 4.000000, 4.000000, 4.000000, 4.000000, 1.000000, 4.000000, 4.000000, 4.000000, 4.000000, 4.000000, 4.000000, 4.000000
1.000000, 0.000000, 4233.846191, 4153.846191, 4231.794922, 4234.358887, 4201.538574, 4216.410156, 4233.333008, 4231.794922, 4202.563965, 4262.051270, 4246.666504, 4223.076660, 4263.076660, 4233.846191, 3532.000000, 8183.000000, 8043.000000, 0.000000, 0.000000, 0.000000, -20866.000000, 793.846130, 4.000000, 4.000000, 4.000000, 4.000000, 4.000000, 4.000000, 4.000000, 4.000000, 1.000000, 4.000000, 4.000000, 4.000000, 4.000000, 4.000000, 4.000000, 4.000000
2.000000, 0.000000, 4241.538574, 4158.974121, 4234.871582, 4238.974121, 4208.205078, 4216.922852, 4225.641113, 4233.333008, 4200.512695, 4258.974121, 4257.436035, 4230.769043, 4272.820313, 4243.076660, 3557.000000, 8183.000000, 8043.000000, 0.000000, 0.000000, 0.000000, -20866.000000, 801.538452, 4.000000, 4.000000, 4.000000, 4.000000, 4.000000, 4.000000, 4.000000, 4.000000, 1.000000, 4.000000, 4.000000, 4.000000, 4.000000, 4.000000, 4.000000, 4.000000
3.000000, 0.000000, 4247.179199, 4161.538574, 4233.846191, 4243.589844, 4217.948730, 4224.615234, 4228.205078, 4235.384277, 4200.512695, 4265.641113, 4264.615234, 4238.461426, 4280.512695, 4249.743652, 2355.000000, 8197.000000, 8038.000000, 0.000000, 0.000000, 0.000000, -20866.000000, 809.230774, 4.000000, 4.000000, 4.000000, 4.000000, 4.000000, 4.000000, 4.000000, 4.000000, 1.000000, 4.000000, 4.000000, 4.000000, 4.000000, 4.000000, 4.000000, 4.000000
4.000000, 0.000000, 4249.230469, 4167.179199, 4237.436035, 4246.153809, 4216.922852, 4222.051270, 4226.666504, 4236.922852, 4202.051270, 4279.487305, 4267.179199, 4244.615234, 4288.205078, 4256.922852, 3548.000000, 8197.000000, 8038.000000, 0.000000, 0.000000, 0.000000, -20866.000000, 817.435852, 4.000000, 4.000000, 4.000000, 4.000000, 4.000000, 4.000000, 4.000000, 4.000000, 1.000000, 4.000000, 4.000000, 4.000000, 4.000000, 4.000000, 4.000000, 4.000000
5.000000, 0.000000, 4247.179199, 4167.179199, 4234.358887, 4240.000000, 4213.333008, 4216.922852, 4219.487305, 4232.820313, 4202.051270, 4277.436035, 4265.641113, 4241.538574, 4295.384277, 4260.512695, 3607.000000, 8202.000000, 8043.000000, 0.000000, 0.000000, 0.000000, -20866.000000, 825.128174, 4.000000, 4.000000, 4.000000, 4.000000, 4.000000, 4.000000, 4.000000, 4.000000, 1.000000, 4.000000, 4.000000, 4.000000, 4.000000, 4.000000, 4.000000, 4.000000
6.000000, 0.000000, 4235.384277, 4158.461426, 4225.641113, 4229.743652, 4215.897461, 4225.641113, 4227.692383, 4228.717773, 4201.538574, 4262.563965, 4255.384277, 4227.692383, 4282.051270, 4248.717773, 3419.000000, 8202.000000, 8043.000000, 0.000000, 0.000000, 0.000000, -20866.000000, 832.820496, 4.000000, 4.000000, 4.000000, 4.000000, 4.000000, 4.000000, 4.000000, 4.000000, 1.000000, 4.000000, 4.000000, 4.000000, 4.000000, 4.000000, 4.000000, 4.000000
7.000000, 0.000000, 4227.179199, 4151.281738, 4223.589844, 4226.666504, 4215.384277, 4234.358887, 4237.436035, 4238.974121, 4201.025391, 4263.589844, 4243.589844, 4221.538574, 4265.127930, 4235.897461, 3515.000000, 8208.000000, 8041.000000, 0.000000, 0.000000, 0.000000, -20866.000000, 841.025635, 4.000000, 4.000000, 4.000000, 4.000000, 4.000000, 4.000000, 4.000000, 4.000000, 1.000000, 4.000000, 4.000000, 4.000000, 4.000000, 4.000000, 4.000000, 4.000000
8.000000, 0.000000, 4230.256348, 4149.230469, 4226.666504, 4226.666504, 4213.333008, 4234.358887, 4238.461426, 4256.922852, 4201.025391, 4282.051270, 4249.743652, 4228.717773, 4272.820313, 4241.025391, 0.000000, 8208.000000, 8041.000000, 0.000000, 0.000000, 0.000000, -20866.000000, 848.717957, 4.000000, 4.000000, 4.000000, 4.000000, 4.000000, 4.000000, 4.000000, 4.000000, 0.000000, 4.000000, 4.000000, 4.000000, 4.000000, 4.000000, 4.000000, 4.000000
9.000000, 0.000000, 4234.358887, 4153.846191, 4228.205078, 4225.127930, 4211.794922, 4233.333008, 4237.436035, 4255.897461, 4201.538574, 4287.179199, 4260.512695, 4231.281738, 4283.589844, 4248.205078, 3033.000000, 8209.000000, 8042.000000, 0.000000, 0.000000, 0.000000, -20866.000000, 856.410217, 4.000000, 4.000000, 4.000000, 4.000000, 4.000000, 4.000000, 4.000000, 4.000000, 0.000000, 4.000000, 4.000000, 4.000000, 4.000000, 4.000000, 4.000000, 4.000000
10.000000, 0.000000, 4236.922852, 4163.589844, 4229.743652, 4232.307617, 4210.769043, 4228.205078, 4232.820313, 4238.974121, 4202.563965, 4281.538574, 4256.410156, 4228.717773, 4280.512695, 4247.692383, 3595.000000, 8209.000000, 8042.000000, 0.000000, 0.000000, 0.000000, -20866.000000, 864.102539, 4.000000, 4.000000, 4.000000, 4.000000, 4.000000, 4.000000, 4.000000, 4.000000, 0.000000, 4.000000, 4.000000, 4.000000, 4.000000, 4.000000, 4.000000, 4.000000
11.000000, 0.000000, 4238.974121, 4158.461426, 4234.358887, 4233.846191, 4207.179199, 4220.000000, 4230.256348, 4226.666504, 4202.563965, 4276.922852, 4248.717773, 4226.153809, 4277.436035, 4244.102539, 3396.000000, 8211.000000, 8042.000000, 0.000000, 0.000000, 0.000000, -20866.000000, 872.307678, 4.000000, 4.000000, 4.000000, 4.000000, 4.000000, 4.000000, 4.000000, 4.000000, 0.000000, 4.000000, 4.000000, 4.000000, 4.000000, 4.000000, 4.000000, 4.000000
12.000000, 0.000000, 4230.769043, 4143.589844, 4235.384277, 4218.974121, 4202.051270, 4218.974121, 4235.897461, 4219.487305, 4201.025391, 4269.230469, 4247.692383, 4221.025391, 4274.871582, 4236.922852, 3524.000000, 8211.000000, 8042.000000, 0.000000, 0.000000, 0.000000, -20866.000000, 880.000000, 4.000000, 4.000000, 4.000000, 4.000000, 4.000000, 4.000000, 4.000000, 4.000000, 0.000000, 4.000000, 4.000000, 4.000000, 4.000000, 4.000000, 4.000000, 4.000000
13.000000, 0.000000, 4227.179199, 4149.743652, 4228.205078, 4219.487305, 4204.615234, 4217.948730, 4232.820313, 4215.897461, 4200.512695, 4268.205078, 4246.153809, 4214.871582, 4273.333008, 4230.769043, 3258.000000, 8219.000000, 8040.000000, 0.000000, 0.000000, 0.000000, -20866.000000, 888.205078, 4.000000, 4.000000, 4.000000, 4.000000, 4.000000, 4.000000, 4.000000, 4.000000, 0.000000, 4.000000, 4.000000, 4.000000, 4.000000, 4.000000, 4.000000, 4.000000
14.000000, 0.000000, 4234.358887, 4165.127930, 4223.076660, 4232.307617, 4211.794922, 4217.436035, 4222.051270, 4215.897461, 4202.051270, 4276.410156, 4240.512695, 4214.358887, 4277.436035, 4230.769043, 3595.000000, 8219.000000, 8040.000000, 0.000000, 0.000000, 0.000000, -20866.000000, 895.897400, 4.000000, 4.000000, 4.000000, 4.000000, 4.000000, 4.000000, 4.000000, 4.000000, 0.000000, 4.000000, 4.000000, 4.000000, 4.000000, 4.000000, 4.000000, 4.000000
15.000000, 0.000000, 4235.384277, 4166.153809, 4222.563965, 4231.281738, 4213.846191, 4219.487305, 4216.410156, 4217.436035, 4201.538574, 4276.922852, 4235.384277, 4213.846191, 4275.897461, 4231.794922, 3396.000000, 8220.000000, 8037.000000, 0.000000, 0.000000, 0.000000, -20866.000000, 903.589722, 4.000000, 4.000000, 4.000000, 4.000000, 4.000000, 4.000000, 4.000000, 4.000000, 0.000000, 4.000000, 4.000000, 4.000000, 4.000000, 4.000000, 4.000000, 4.000000
16.000000, 0.000000, 4231.281738, 4163.589844, 4220.512695, 4223.589844, 4207.179199, 4215.897461, 4215.897461, 4226.666504, 4200.512695, 4268.717773, 4228.717773, 4207.179199, 4266.666504, 4226.153809, 0.000000, 8220.000000, 8037.000000, 0.000000, 0.000000, 0.000000, -20866.000000, 911.282043, 4.000000, 4.000000, 4.000000, 4.000000, 4.000000, 4.000000, 4.000000, 4.000000, 0.000000, 4.000000, 4.000000, 4.000000, 4.000000, 4.000000, 4.000000, 4.000000
17.000000, 0.000000, 4231.794922, 4165.641113, 4219.487305, 4226.666504, 4202.051270, 4210.769043, 4216.410156, 4226.666504, 4201.025391, 4261.025391, 4220.000000, 4200.512695, 4261.025391, 4217.948730, 0.000000, 8230.000000, 8021.000000, 0.000000, 0.000000, 0.000000, -20866.000000, 919.487183, 4.000000, 4.000000, 4.000000, 4.000000, 4.000000, 4.000000, 4.000000, 4.000000, 0.000000, 4.000000, 4.000000, 4.000000, 4.000000, 4.000000, 4.000000, 4.000000
18.000000, 0.000000, 4231.794922, 4164.102539, 4217.436035, 4229.230469, 4206.153809, 4214.358887, 4214.358887, 4214.871582, 4201.025391, 4262.563965, 4222.051270, 4202.051270, 4261.025391, 4215.897461, 0.000000, 8230.000000, 8021.000000, 0.000000, 0.000000, 0.000000, -20866.000000, 927.179443, 4.000000, 4.000000, 4.000000, 4.000000, 4.000000, 4.000000, 4.000000, 4.000000, 0.000000, 4.000000, 4.000000, 4.000000, 4.000000, 4.000000, 4.000000, 4.000000
19.000000, 0.000000, 4232.820313, 4169.743652, 4219.487305, 4230.769043, 4213.333008, 4222.051270, 4215.897461, 4223.076660, 4200.512695, 4275.897461, 4232.307617, 4213.846191, 4267.179199, 4226.153809, 0.000000, 8230.000000, 8026.000000, 0.000000, 0.000000, 0.000000, -20866.000000, 934.871765, 4.000000, 4.000000, 4.000000, 4.000000, 4.000000, 4.000000, 4.000000, 4.000000, 0.000000, 4.000000, 4.000000, 4.000000, 4.000000, 4.000000, 4.000000, 4.000000
20.000000, 0.000000, 4240.512695, 4183.589844, 4224.615234, 4240.512695, 4219.487305, 4228.205078, 4224.615234, 4230.769043, 4202.051270, 4282.051270, 4235.384277, 4216.922852, 4267.692383, 4231.794922, 0.000000, 8230.000000, 8026.000000, 0.000000, 0.000000, 0.000000, -20866.000000, 943.076904, 4.000000, 4.000000, 4.000000, 4.000000, 4.000000, 4.000000, 4.000000, 4.000000, 0.000000, 4.000000, 4.000000, 4.000000, 4.000000, 4.000000, 4.000000, 4.000000
21.000000, 0.000000, 4247.179199, 4194.358887, 4222.563965, 4248.205078, 4225.127930, 4233.333008, 4231.794922, 4227.692383, 4203.076660, 4274.358887, 4228.717773, 4205.641113, 4255.384277, 4221.538574, 0.000000, 8223.000000, 8026.000000, 0.000000, 0.000000, 0.000000, -20866.000000, 951.282043, 4.000000, 4.000000, 4.000000, 4.000000, 4.000000, 4.000000, 4.000000, 4.000000, 0.000000, 4.000000, 4.000000, 4.000000, 4.000000, 4.000000, 4.000000, 4.000000
22.000000, 0.000000, 4243.076660, 4202.563965, 4221.538574, 4249.230469, 4229.230469, 4231.281738, 4232.820313, 4240.000000, 4202.051270, 4274.358887, 4228.205078, 4205.641113, 4242.563965, 4214.358887, 0.000000, 8223.000000, 8026.000000, 0.000000, 0.000000, 0.000000, -20866.000000, 958.974365, 4.000000, 4.000000, 4.000000, 4.000000, 4.000000, 4.000000, 4.000000, 4.000000, 0.000000, 4.000000, 4.000000, 4.000000, 4.000000, 4.000000, 4.000000, 4.000000
23.000000, 0.000000, 4234.871582, 4205.127930, 4223.589844, 4243.589844, 4230.256348, 4225.127930, 4228.205078, 4246.153809, 4202.051270, 4274.871582, 4231.794922, 4215.897461, 4228.717773, 4216.410156, 0.000000, 8223.000000, 8036.000000, 0.000000, 0.000000, 0.000000, -20866.000000, 966.666626, 4.000000, 4.000000, 4.000000, 4.000000, 4.000000, 4.000000, 4.000000, 4.000000, 0.000000, 4.000000, 4.000000, 4.000000, 4.000000, 4.000000, 4.000000, 4.000000
24.000000, 0.000000, 4235.897461, 4215.897461, 4224.102539, 4242.051270, 4231.281738, 4225.127930, 4222.563965, 4236.410156, 4202.563965, 4266.666504, 4231.281738, 4218.461426, 4210.769043, 4218.974121, 0.000000, 8223.000000, 8036.000000, 0.000000, 0.000000, 0.000000, -20866.000000, 974.871765, 4.000000, 4.000000, 4.000000, 4.000000, 4.000000, 4.000000, 4.000000, 4.000000, 0.000000, 4.000000, 4.000000, 4.000000, 4.000000, 4.000000, 4.000000, 4.000000
25.000000, 0.000000, 4236.922852, 4231.794922, 4220.512695, 4247.692383, 4233.333008, 4226.666504, 4224.102539, 4246.153809, 4201.538574, 4265.127930, 4230.769043, 4214.358887, 4202.051270, 4219.487305, 0.000000, 8218.000000, 8048.000000, 0.000000, 0.000000, 0.000000, -20866.000000, 982.564087, 4.000000, 4.000000, 4.000000, 4.000000, 4.000000, 4.000000, 4.000000, 4.000000, 0.000000, 4.000000, 4.000000, 4.000000, 4.000000, 4.000000, 4.000000, 4.000000
26.000000, 0.000000, 4231.794922, 4235.384277, 4214.358887, 4246.666504, 4232.820313, 4227.179199, 4228.717773, 4250.769043, 4200.512695, 4267.179199, 4226.666504, 4208.717773, 4197.948730, 4218.974121, 0.000000, 8218.000000, 8048.000000, 0.000000, 0.000000, 0.000000, -20866.000000, 990.256409, 4.000000, 4.000000, 4.000000, 4.000000, 4.000000, 4.000000, 4.000000, 4.000000, 0.000000, 4.000000, 4.000000, 4.000000, 4.000000, 4.000000, 4.000000, 4.000000
27.000000, 0.000000, 4230.769043, 4232.307617, 4214.358887, 4242.563965, 4232.820313, 4227.692383, 4221.025391, 4230.256348, 4201.538574, 4256.922852, 4216.922852, 4202.563965, 4185.127930, 4215.897461, 0.000000, 8221.000000, 8057.000000, 0.000000, 0.000000, 0.000000, -20866.000000, 998.461487, 4.000000, 4.000000, 4.000000, 4.000000, 4.000000, 4.000000, 4.000000, 4.000000, 0.000000, 4.000000, 4.000000, 4.000000, 4.000000, 4.000000, 4.000000, 4.000000
28.000000, 0.000000, 4233.846191, 4229.743652, 4214.871582, 4245.641113, 4234.358887, 4228.717773, 4217.436035, 4228.717773, 4202.051270, 4248.205078, 4213.846191, 4201.025391, 4180.512695, 4217.436035, 0.000000, 8221.000000, 8057.000000, 0.000000, 0.000000, 0.000000, -20865.000000, 6.153846, 4.000000, 4.000000, 4.000000, 4.000000, 4.000000, 4.000000, 4.000000, 4.000000, 0.000000, 4.000000, 4.000000, 4.000000, 4.000000, 4.000000, 4.000000, 4.000000
29.000000, 0.000000, 4232.307617, 4232.820313, 4211.281738, 4249.743652, 4235.384277, 4229.230469, 4226.153809, 4240.512695, 4200.512695, 4248.717773, 4218.461426, 4203.076660, 4190.256348, 4221.025391, 0.000000, 8222.000000, 8059.000000, 0.000000, 0.000000, 0.000000, -20865.000000, 14.358974, 4.000000, 4.000000, 4.000000, 4.000000, 4.000000, 4.000000, 4.000000, 4.000000, 0.000000, 4.000000, 4.000000, 4.000000, 4.000000, 4.000000, 4.000000, 4.000000
30.000000, 0.000000, 4227.179199, 4234.871582, 4209.743652, 4246.153809, 4235.384277, 4228.205078, 4224.102539, 4230.769043, 4200.512695, 4246.666504, 4215.384277, 4200.000000, 4191.794922, 4218.461426, 0.000000, 8222.000000, 8059.000000, 0.000000, 0.000000, 0.000000, -20865.000000, 22.051281, 4.000000, 4.000000, 4.000000, 4.000000, 4.000000, 4.000000, 4.000000, 4.000000, 0.000000, 4.000000, 4.000000, 4.000000, 4.000000, 4.000000, 4.000000, 4.000000
31.000000, 0.000000, 4225.127930, 4229.743652, 4212.307617, 4242.563965, 4235.384277, 4227.692383, 4215.897461, 4228.717773, 4201.538574, 4244.102539, 4210.769043, 4196.922852, 4189.230469, 4215.384277, 0.000000, 8221.000000, 8067.000000, 0.000000, 0.000000, 0.000000, -20865.000000, 29.743589, 4.000000, 4.000000, 4.000000, 4.000000, 4.000000, 4.000000, 4.000000, 4.000000, 0.000000, 4.000000, 4.000000, 4.000000, 4.000000, 4.000000, 4.000000, 4.000000
32.000000, 0.000000, 4227.692383, 4230.256348, 4217.436035, 4245.641113, 4235.897461, 4231.794922, 4220.000000, 4243.076660, 4202.051270, 4245.127930, 4213.333008, 4198.461426, 4194.871582, 4218.461426, 0.000000, 8221.000000, 8067.000000, 0.000000, 0.000000, 0.000000, -20865.000000, 37.948715, 4.000000, 4.000000, 4.000000, 4.000000, 4.000000, 4.000000, 4.000000, 4.000000, 0.000000, 4.000000, 4.000000, 4.000000, 4.000000, 4.000000, 4.000000, 4.000000
33.000000, 0.000000, 4229.743652, 4236.922852, 4221.538574, 4245.127930, 4233.846191, 4233.333008, 4221.025391, 4244.102539, 4202.051270, 4241.025391, 4214.358887, 4202.051270, 4198.974121, 4220.000000, 0.000000, 8219.000000, 8067.000000, 0.000000, 0.000000, 0.000000, -20865.000000, 45.641026, 4.000000, 4.000000, 4.000000, 4.000000, 4.000000, 4.000000, 4.000000, 4.000000, 0.000000, 4.000000, 4.000000, 4.000000, 4.000000, 4.000000, 4.000000, 4.000000
34.000000, 0.000000, 4226.666504, 4236.922852, 4223.076660, 4237.948730, 4231.281738, 4221.538574, 4212.820313, 4231.794922, 4202.563965, 4231.794922, 4208.205078, 4201.538574, 4196.922852, 4216.410156, 0.000000, 8219.000000, 8067.000000, 0.000000, 0.000000, 0.000000, -20865.000000, 53.846153, 4.000000, 4.000000, 4.000000, 4.000000, 4.000000, 4.000000, 4.000000, 4.000000, 0.000000, 4.000000, 4.000000, 4.000000, 4.000000, 4.000000, 4.000000, 4.000000
35.000000, 0.000000, 4224.615234, 4235.384277, 4225.641113, 4233.333008, 4231.281738, 4214.871582, 4214.358887, 4229.230469, 4203.589844, 4231.281738, 4203.589844, 4200.512695, 4196.922852, 4213.846191, 0.000000, 8217.000000, 8068.000000, 0.000000, 0.000000, 0.000000, -20865.000000, 61.538460, 4.000000, 4.000000, 4.000000, 4.000000, 4.000000, 4.000000, 4.000000, 4.000000, 0.000000, 4.000000, 4.000000, 4.000000, 4.000000, 4.000000, 4.000000, 4.000000
36.000000, 0.000000, 4227.692383, 4234.358887, 4229.743652, 4236.410156, 4231.794922, 4223.076660, 4224.615234, 4237.436035, 4204.102539, 4234.871582, 4204.102539, 4202.563965, 4200.000000, 4216.410156, 0.000000, 8217.000000, 8068.000000, 0.000000, 0.000000, 0.000000, -20865.000000, 69.743591, 4.000000, 4.000000, 4.000000, 4.000000, 4.000000, 4.000000, 4.000000, 4.000000, 0.000000, 4.000000, 4.000000, 4.000000, 4.000000, 4.000000, 4.000000, 4.000000
37.000000, 0.000000, 4224.615234, 4228.717773, 4230.769043, 4235.384277, 4230.769043, 4230.256348, 4234.358887, 4243.589844, 4203.589844, 4234.358887, 4202.051270, 4204.102539, 4200.512695, 4217.436035, 0.000000, 8225.000000, 8070.000000, 0.000000, 0.000000, 0.000000, -20865.000000, 77.435898, 4.000000, 4.000000, 4.000000, 4.000000, 4.000000, 4.000000, 4.000000, 4.000000, 0.000000, 4.000000, 4.000000, 4.000000, 4.000000, 4.000000, 4.000000, 4.000000
38.000000, 0.000000, 4213.846191, 4221.025391, 4222.051270, 4227.692383, 4229.743652, 4232.820313, 4247.692383, 4244.615234, 4203.589844, 4230.769043, 4198.461426, 4197.948730, 4198.461426, 4209.230469, 0.000000, 8225.000000, 8070.000000, 0.000000, 0.000000, 0.000000, -20865.000000, 85.128204, 4.000000, 4.000000, 4.000000, 4.000000, 4.000000, 4.000000, 4.000000, 4.000000, 0.000000, 4.000000, 4.000000, 4.000000, 4.000000, 4.000000, 4.000000, 4.000000
39.000000, 0.000000, 4213.333008, 4217.436035, 4220.000000, 4228.717773, 4233.846191, 4235.897461, 4253.846191, 4243.589844, 4204.615234, 4236.410156, 4202.051270, 4197.948730, 4202.051270, 4207.692383, 0.000000, 8232.000000, 8074.000000, 0.000000, 0.000000, 0.000000, -20865.000000, 93.333328, 4.000000, 4.000000, 4.000000, 4.000000, 4.000000, 4.000000, 4.000000, 4.000000, 0.000000, 4.000000, 4.000000, 4.000000, 4.000000, 4.000000, 4.000000, 4.000000
40.000000, 0.000000, 4225.641113, 4221.538574, 4229.230469, 4233.333008, 4242.051270, 4237.436035, 4249.743652, 4244.615234, 4204.102539, 4251.794922, 4213.846191, 4210.769043, 4216.922852, 4222.051270, 0.000000, 8232.000000, 8074.000000, 0.000000, 0.000000, 0.000000, -20865.000000, 101.025635, 4.000000, 4.000000, 4.000000, 4.000000, 4.000000, 4.000000, 4.000000, 4.000000, 0.000000, 4.000000, 4.000000, 4.000000, 4.000000, 4.000000, 4.000000, 4.000000
41.000000, 0.000000, 4233.333008, 4222.563965, 4232.820313, 4234.871582, 4246.153809, 4235.384277, 4242.051270, 4248.205078, 4202.563965, 4262.051270, 4225.641113, 4217.948730, 4228.717773, 4232.307617, 0.000000, 8245.000000, 8084.000000, 0.000000, 0.000000, 0.000000, -20865.000000, 108.717949, 4.000000, 4.000000, 4.000000, 4.000000, 4.000000, 4.000000, 4.000000, 4.000000, 0.000000, 4.000000, 4.000000, 4.000000, 4.000000, 4.000000, 4.000000, 4.000000
42.000000, 0.000000, 4234.358887, 4220.512695, 4233.333008, 4241.538574, 4242.563965, 4235.384277, 4237.436035, 4252.820313, 4202.051270, 4263.076660, 4231.281738, 4218.461426, 4232.820313, 4235.384277, 0.000000, 8245.000000, 8084.000000, 0.000000, 0.000000, 0.000000, -20865.000000, 116.923073, 4.000000, 4.000000, 4.000000, 4.000000, 4.000000, 4.000000, 4.000000, 4.000000, 0.000000, 4.000000, 4.000000, 4.000000, 4.000000, 4.000000, 4.000000, 4.000000
43.000000, 0.000000, 4235.384277, 4215.897461, 4234.358887, 4244.102539, 4236.922852, 4236.410156, 4235.384277, 4253.846191, 4202.051270, 4265.127930, 4228.717773, 4220.000000, 4231.794922, 4234.871582, 0.000000, 8251.000000, 8082.000000, 0.000000, 0.000000, 0.000000, -20865.000000, 124.615379, 4.000000, 4.000000, 4.000000, 4.000000, 4.000000, 4.000000, 4.000000, 4.000000, 0.000000, 4.000000, 4.000000, 4.000000, 4.000000, 4.000000, 4.000000, 4.000000
44.000000, 0.000000, 4230.769043, 4209.743652, 4226.666504, 4232.820313, 4232.820313, 4234.358887, 4230.769043, 4234.871582, 4201.538574, 4263.076660, 4216.410156, 4207.692383, 4222.563965, 4221.538574, 0.000000, 8251.000000, 8082.000000, 0.000000, 0.000000, 0.000000, -20865.000000, 132.820511, 4.000000, 4.000000, 4.000000, 4.000000, 4.000000, 4.000000, 4.000000, 4.000000, 0.000000, 4.000000, 4.000000, 4.000000, 4.000000, 4.000000, 4.000000, 4.000000
45.000000, 0.000000, 4225.641113, 4207.692383, 4221.025391, 4227.179199, 4230.769043, 4228.717773, 4222.563965, 4218.974121, 4201.538574, 4258.461426, 4210.256348, 4197.948730, 4217.436035, 4210.769043, 0.000000, 8253.000000, 8087.000000, 0.000000, 0.000000, 0.000000, -20865.000000, 140.512817, 4.000000, 4.000000, 4.000000, 4.000000, 4.000000, 4.000000, 4.000000, 4.000000, 0.000000, 4.000000, 4.000000, 4.000000, 4.000000, 4.000000, 4.000000, 4.000000
46.000000, 0.000000, 4232.820313, 4213.333008, 4230.256348, 4239.487305, 4233.333008, 4227.692383, 4221.025391, 4227.179199, 4203.076660, 4266.666504, 4224.102539, 4212.820313, 4232.307617, 4224.102539, 0.000000, 8253.000000, 8087.000000, 0.000000, 0.000000, 0.000000, -20865.000000, 148.717941, 4.000000, 4.000000, 4.000000, 4.000000, 4.000000, 4.000000, 4.000000, 4.000000, 0.000000, 4.000000, 4.000000, 4.000000, 4.000000, 4.000000, 4.000000, 4.000000
47.000000, 0.000000, 4238.974121, 4219.487305, 4237.948730, 4246.666504, 4233.846191, 4232.820313, 4230.256348, 4238.974121, 4203.076660, 4279.487305, 4234.358887, 4224.615234, 4246.153809, 4237.436035, 0.000000, 8265.000000, 8096.000000, 0.000000, 0.000000, 0.000000, -20865.000000, 156.410248, 4.000000, 4.000000, 4.000000, 4.000000, 4.000000, 4.000000, 4.000000, 4.000000, 0.000000, 4.000000, 4.000000, 4.000000, 4.000000, 4.000000, 4.000000, 4.000000
48.000000, 0.000000, 4231.794922, 4214.871582, 4232.307617, 4238.461426, 4232.307617, 4233.846191, 4232.820313, 4233.846191, 4202.563965, 4278.974121, 4229.743652, 4216.410156, 4245.641113, 4228.717773, 0.000000, 8265.000000, 8096.000000, 0.000000, 0.000000, 0.000000, -20865.000000, 164.615387, 4.000000, 4.000000, 4.000000, 4.000000, 4.000000, 4.000000, 4.000000, 4.000000, 0.000000, 4.000000, 4.000000, 4.000000, 4.000000, 4.000000, 4.000000, 4.000000
49.000000, 0.000000, 4229.743652, 4211.281738, 4227.179199, 4233.333008, 4236.410156, 4231.281738, 4227.179199, 4226.153809, 4201.538574, 4273.333008, 4226.666504, 4212.307617, 4245.127930, 4220.512695, 0.000000, 8268.000000, 8113.000000, 0.000000, 0.000000, 0.000000, -20865.000000, 172.820511, 4.000000, 4.000000, 4.000000, 4.000000, 4.000000, 4.000000, 4.000000, 4.000000, 0.000000, 4.000000, 4.000000, 4.000000, 4.000000, 4.000000, 4.000000, 4.000000
50.000000, 0.000000, 4234.358887, 4211.794922, 4230.256348, 4235.384277, 4238.974121, 4231.794922, 4231.281738, 4230.769043, 4201.538574, 4274.871582, 4226.153809, 4215.897461, 4244.615234, 4222.563965, 0.000000, 8268.000000, 8113.000000, 0.000000, 0.000000, 0.000000, -20865.000000, 180.512817, 4.000000, 4.000000, 4.000000, 4.000000, 4.000000, 4.000000, 4.000000, 4.000000, 0.000000, 4.000000, 4.000000, 4.000000, 4.000000, 4.000000, 4.000000, 4.000000
51.000000, 0.000000, 4223.589844, 4196.410156, 4229.743652, 4230.769043, 4233.333008, 4235.384277, 4238.974121, 4238.461426, 4202.051270, 4275.897461, 4218.974121, 4213.846191, 4234.358887, 4216.410156, 0.000000, 8270.000000, 8149.000000, 0.000000, 0.000000, 0.000000, -20865.000000, 188.717941, 4.000000, 4.000000, 4.000000, 4.000000, 4.000000, 4.000000, 4.000000, 4.000000, 0.000000, 4.000000, 4.000000, 4.000000, 4.000000, 4.000000, 4.000000, 4.000000
52.000000, 0.000000, 4212.820313, 4187.179199, 4224.102539, 4223.589844, 4230.256348, 4229.743652, 4232.820313, 4231.281738, 4202.563965, 4269.230469, 4213.846191, 4207.179199, 4222.563965, 4207.692383, 0.000000, 8270.000000, 8149.000000, 0.000000, 0.000000, 0.000000, -20865.000000, 196.410248, 4.000000, 4.000000, 4.000000, 4.000000, 4.000000, 4.000000, 4.000000, 4.000000, 0.000000, 4.000000, 4.000000, 4.000000, 4.000000, 4.000000, 4.000000, 4.000000
53.000000, 0.000000, 4219.487305, 4199.487305, 4222.563965, 4227.179199, 4230.769043, 4218.461426, 4224.102539, 4214.871582, 4202.051270, 4261.538574, 4211.281738, 4200.512695, 4217.948730, 4207.692383, 0.000000, 8270.000000, 8155.000000, 0.000000, 0.000000, 0.000000, -20865.000000, 204.615387, 4.000000, 4.000000, 4.000000, 4.000000, 4.000000, 4.000000, 4.000000, 4.000000, 0.000000, 4.000000, 4.000000, 4.000000, 4.000000, 4.000000, 4.000000, 4.000000
54.000000, 0.000000, 4230.769043, 4212.820313, 4227.692383, 4238.461426, 4232.820313, 4218.974121, 4228.205078, 4210.256348, 4201.025391, 4260.512695, 4206.153809, 4198.461426, 4218.461426, 4211.794922, 0.000000, 8270.000000, 8155.000000, 0.000000, 0.000000, 0.000000, -20865.000000, 212.307693, 4.000000, 4.000000, 4.000000, 4.000000, 4.000000, 4.000000, 4.000000, 4.000000, 0.000000, 4.000000, 4.000000, 4.000000, 4.000000, 4.000000, 4.000000, 4.000000
55.000000, 0.000000, 4237.436035, 4223.589844, 4235.897461, 4248.717773, 4239.487305, 4228.205078, 4234.871582, 4218.974121, 4203.076660, 4264.102539, 4207.692383, 4203.076660, 4218.461426, 4213.333008, 0.000000, 8267.000000, 8171.000000, 0.000000, 0.000000, 0.000000, -20865.000000, 220.512817, 4.000000, 4.000000, 4.000000, 4.000000, 4.000000, 4.000000, 4.000000, 4.000000, 0.000000, 4.000000, 4.000000, 4.000000, 4.000000, 4.000000, 4.000000, 4.000000
56.000000, 0.000000, 4245.641113, 4231.794922, 4237.948730, 4252.820313, 4246.153809, 4229.743652, 4235.384277, 4227.692383, 4204.615234, 4264.615234, 4212.307617, 4211.281738, 4216.922852, 4219.487305, 0.000000, 8267.000000, 8171.000000, 0.000000, 0.000000, 0.000000, -20865.000000, 228.205124, 4.000000, 4.000000, 4.000000, 4.000000, 4.000000, 4.000000, 4.000000, 4.000000, 0.000000, 4.000000, 4.000000, 4.000000, 4.000000, 4.000000, 4.000000, 4.000000
57.000000, 0.000000, 4249.743652, 4226.666504, 4236.922852, 4248.205078, 4242.051270, 4225.641113, 4232.307617, 4228.717773, 4202.563965, 4263.076660, 4213.846191, 4217.948730, 4216.922852, 4225.641113, 0.000000, 8267.000000, 8176.000000, 0.000000, 0.000000, 0.000000, -20865.000000, 236.410248, 4.000000, 4.000000, 4.000000, 4.000000, 4.000000, 4.000000, 4.000000, 4.000000, 0.000000, 4.000000, 4.000000, 4.000000, 4.000000, 4.000000, 4.000000, 4.000000
58.000000, 0.000000, 4246.666504, 4216.922852, 4240.000000, 4246.666504, 4235.897461, 4226.666504, 4232.307617, 4226.153809, 4201.538574, 4263.589844, 4216.410156, 4221.538574, 4218.974121, 4228.205078, 0.000000, 8267.000000, 8176.000000, 0.000000, 0.000000, 0.000000, -20865.000000, 244.615372, 4.000000, 4.000000, 4.000000, 4.000000, 4.000000, 4.000000, 4.000000, 4.000000, 0.000000, 4.000000, 4.000000, 4.000000, 4.000000, 4.000000, 4.000000, 4.000000
59.000000, 0.000000, 4247.179199, 4218.461426, 4242.563965, 4249.230469, 4236.410156, 4232.307617, 4234.358887, 4226.666504, 4202.563965, 4266.153809, 4220.000000, 4224.102539, 4221.538574, 4232.307617, 0.000000, 8262.000000, 8177.000000, 0.000000, 0.000000, 0.000000, -20865.000000, 252.307693, 4.000000, 4.000000, 4.000000, 4.000000, 4.000000, 4.000000, 4.000000, 4.000000, 0.000000, 4.000000, 4.000000, 4.000000, 4.000000, 4.000000, 4.000000, 4.000000
60.000000, 0.000000, 4243.076660, 4220.512695, 4238.974121, 4240.512695, 4234.358887, 4227.692383, 4228.717773, 4224.615234, 4202.563965, 4264.615234, 4216.410156, 4220.512695, 4220.000000, 4227.179199, 0.000000, 8262.000000, 8177.000000, 0.000000, 0.000000, 0.000000, -20865.000000, 260.512817, 4.000000, 4.000000, 4.000000, 4.000000, 4.000000, 4.000000, 4.000000, 4.000000, 0.000000, 4.000000, 4.000000, 4.000000, 4.000000, 4.000000, 4.000000, 4.000000
61.000000, 0.000000, 4233.846191, 4214.358887, 4232.820313, 4236.410156, 4229.743652, 4216.922852, 4220.000000, 4220.512695, 4202.563965, 4261.025391, 4212.820313, 4215.384277, 4217.436035, 4216.922852, 0.000000, 8264.000000, 8177.000000, 0.000000, 0.000000, 0.000000, -20865.000000, 268.205109, 4.000000, 4.000000, 4.000000, 4.000000, 4.000000, 4.000000, 4.000000, 4.000000, 0.000000, 4.000000, 4.000000, 4.000000, 4.000000, 4.000000, 4.000000, 4.000000
62.000000, 0.000000, 4232.307617, 4212.307617, 4234.871582, 4245.127930, 4234.358887, 4221.538574, 4226.153809, 4227.179199, 4203.589844, 4261.025391, 4215.384277, 4216.410156, 4218.974121, 4216.922852, 0.000000, 8264.000000, 8177.000000, 0.000000, 0.000000, 0.000000, -20865.000000, 276.410248, 4.000000, 4.000000, 4.000000, 4.000000, 4.000000, 4.000000, 4.000000, 4.000000, 0.000000, 4.000000, 4.000000, 4.000000, 4.000000, 4.000000, 4.000000, 4.000000
63.000000, 0.000000, 4234.871582, 4212.307617, 4235.384277, 4241.025391, 4233.333008, 4227.692383, 4234.871582, 4235.897461, 4203.076660, 4262.051270, 4212.307617, 4216.410156, 4218.461426, 4218.974121, 0.000000, 8271.000000, 8172.000000, 0.000000, 0.000000, 0.000000, -20865.000000, 284.102570, 4.000000, 4.000000, 4.000000, 4.000000, 4.000000, 4.000000, 4.000000, 4.000000, 0.000000, 4.000000, 4.000000, 4.000000, 4.000000, 4.000000, 4.000000, 4.000000
64.000000, 0.000000, 4231.794922, 4209.743652, 4226.666504, 4230.256348, 4220.000000, 4217.436035, 4223.076660, 4226.153809, 4201.025391, 4262.051270, 4210.769043, 4210.769043, 4217.948730, 4213.846191, 3184.000000, 8271.000000, 8172.000000, 0.000000, 0.000000, 0.000000, -20865.000000, 292.307678, 4.000000, 4.000000, 4.000000, 4.000000, 4.000000, 4.000000, 4.000000, 4.000000, 0.000000, 4.000000, 4.000000, 4.000000, 4.000000, 4.000000, 4.000000, 4.000000
65.000000, 0.000000, 4228.205078, 4206.666504, 4223.589844, 4233.846191, 4218.974121, 4212.307617, 4214.358887, 4212.820313, 4202.051270, 4262.563965, 4211.281738, 4208.717773, 4217.948730, 4210.769043, 3535.000000, 8294.000000, 8162.000000, 0.000000, 0.000000, 0.000000, -20865.000000, 300.512817, 4.000000, 4.000000, 4.000000, 4.000000, 4.000000, 4.000000, 4.000000, 4.000000, 0.000000, 4.000000, 4.000000, 4.000000, 4.000000, 4.000000, 4.000000, 4.000000
66.000000, 0.000000, 4230.256348, 4203.589844, 4223.076660, 4236.922852, 4230.256348, 4221.025391, 4225.641113, 4212.820313, 4203.076660, 4263.076660, 4206.153809, 4205.641113, 4217.948730, 4212.820313, 3559.000000, 8294.000000, 8162.000000, 0.000000, 0.000000, 0.000000, -20865.000000, 308.205109, 4.000000, 4.000000, 4.000000, 4.000000, 4.000000, 4.000000, 4.000000, 4.000000, 0.000000, 4.000000, 4.000000, 4.000000, 4.000000, 4.000000, 4.000000, 4.000000
67.000000, 0.000000, 4231.794922, 4202.563965, 4220.512695, 4231.794922, 4231.794922, 4221.025391, 4230.769043, 4221.538574, 4202.563965, 4262.563965, 4207.179199, 4202.051270, 4222.051270, 4214.358887, 2353.000000, 8306.000000, 8163.000000, 0.000000, 0.000000, 0.000000, -20865.000000, 316.410248, 4.000000, 4.000000, 4.000000, 4.000000, 4.000000, 4.000000, 4.000000, 4.000000, 0.000000, 4.000000, 4.000000, 4.000000, 4.000000, 4.000000, 4.000000, 4.000000
68.000000, 0.000000, 4232.307617, 4203.076660, 4225.641113, 4238.974121, 4230.256348, 4216.922852, 4228.205078, 4226.666504, 4203.076660, 4262.563965, 4211.794922, 4205.641113, 4228.205078, 4215.897461, 3548.000000, 8306.000000, 8163.000000, 0.000000, 0.000000, 0.000000, -20865.000000, 324.102570, 4.000000, 4.000000, 4.000000, 4.000000, 4.000000, 4.000000, 4.000000, 4.000000, 0.000000, 4.000000, 4.000000, 4.000000, 4.000000, 4.000000, 4.000000, 4.000000
69.000000, 0.000000, 4231.281738, 4198.461426, 4229.230469, 4245.641113, 4231.794922, 4222.051270, 4231.281738, 4230.256348, 4203.076660, 4266.153809, 4208.205078, 4206.666504, 4230.256348, 4215.384277, 3577.000000, 8319.000000, 8168.000000, 0.000000, 0.000000, 0.000000, -20865.000000, 332.307678, 4.000000, 4.000000, 4.000000, 4.000000, 4.000000, 4.000000, 4.000000, 4.000000, 0.000000, 4.000000, 4.000000, 4.000000, 4.000000, 4.000000, 4.000000, 4.000000
70.000000, 0.000000, 4228.717773, 4193.846191, 4221.538574, 4235.384277, 4229.230469, 4226.666504, 4235.897461, 4240.512695, 4202.563965, 4274.871582, 4205.641113, 4203.076660, 4226.666504, 4212.307617, 3415.000000, 8319.000000, 8168.000000, 0.000000, 0.000000, 0.000000, -20865.000000, 340.000000, 4.000000, 4.000000, 4.000000, 4.000000, 4.000000, 4.000000, 4.000000, 4.000000, 0.000000, 4.000000, 4.000000, 4.000000, 4.000000, 4.000000, 4.000000, 4.000000
71.000000, 0.000000, 4228.717773, 4195.897461, 4216.410156, 4231.281738, 4229.743652, 4229.743652, 4242.563965, 4251.281738, 4202.051270, 4281.025391, 4213.333008, 4205.641113, 4227.179199, 4215.384277, 3514.000000, 8348.000000, 8158.000000, 0.000000, 0.000000, 0.000000, -20865.000000, 348.205109, 4.000000, 4.000000, 4.000000, 4.000000, 4.000000, 4.000000, 4.000000, 4.000000, 0.000000, 4.000000, 4.000000, 4.000000, 4.000000, 4.000000, 4.000000, 4.000000
72.000000, 0.000000, 4230.769043, 4196.922852, 4222.563965, 4243.076660, 4235.384277, 4232.820313, 4250.769043, 4250.769043, 4201.538574, 4281.025391, 4216.410156, 4211.281738, 4232.307617, 4218.974121, 19.000000, 8348.000000, 8158.000000, 0.000000, 0.000000, 0.000000, -20865.000000, 355.897430, 4.000000, 4.000000, 4.000000, 4.000000, 4.000000, 4.000000, 4.000000, 4.000000, 0.000000, 4.000000, 4.000000, 4.000000, 4.000000, 4.000000, 4.000000, 4.000000
73.000000, 0.000000, 4231.794922, 4196.410156, 4225.127930, 4247.179199, 4234.358887, 4232.307617, 4248.717773, 4243.076660, 4202.051270, 4283.589844, 4215.897461, 4215.384277, 4234.871582, 4220.000000, 3033.000000, 8357.000000, 8151.000000, 0.000000, 0.000000, 0.000000, -20865.000000, 364.102570, 4.000000, 4.000000, 4.000000, 4.000000, 4.000000, 4.000000, 4.000000, 4.000000, 0.000000, 4.000000, 4.000000, 4.000000, 4.000000, 4.000000, 4.000000, 4.000000
74.000000, 0.000000, 4232.307617, 4193.846191, 4221.025391, 4237.948730, 4230.769043, 4230.769043, 4246.153809, 4245.127930, 4202.051270, 4291.794922, 4218.974121, 4213.333008, 4235.384277, 4220.512695, 3596.000000, 8357.000000, 8151.000000, 0.000000, 0.000000, 0.000000, -20865.000000, 371.794861, 4.000000, 4.000000, 4.000000, 4.000000, 4.000000, 4.000000, 4.000000, 4.000000, 0.000000, 4.000000, 4.000000, 4.000000, 4.000000, 4.000000, 4.000000, 4.000000
75.000000, 0.000000, 4226.666504, 4188.205078, 4217.436035, 4231.281738, 4227.179199, 4230.769043, 4249.230469, 4245.127930, 4202.051270, 4290.256348, 4210.769043, 4198.461426, 4231.281738, 4212.820313, 3546.000000, 8367.000000, 8126.000000, 0.000000, 0.000000, 0.000000, -20865.000000, 380.000000, 4.000000, 4.000000, 4.000000, 4.000000, 4.000000, 4.000000, 4.000000, 4.000000, 0.000000, 4.000000, 4.000000, 4.000000, 4.000000, 4.000000, 4.000000, 4.000000
76.000000, 0.000000, 4220.000000, 4185.127930, 4212.820313, 4232.820313, 4226.666504, 4229.743652, 4242.051270, 4230.256348, 4202.051270, 4285.127930, 4203.076660, 4188.205078, 4231.281738, 4203.589844, 3524.000000, 8367.000000, 8126.000000, 0.000000, 0.000000, 0.000000, -20865.000000, 388.205109, 4.000000, 4.000000, 4.000000, 4.000000, 4.000000, 4.000000, 4.000000, 4.000000, 0.000000, 4.000000, 4.000000, 4.000000, 4.000000, 4.000000, 4.000000, 4.000000
77.000000, 0.000000, 4226.153809, 4186.666504, 4214.871582, 4234.358887, 4230.256348, 4228.205078, 4232.307617, 4218.461426, 4202.051270, 4289.230469, 4210.256348, 4195.897461, 4239.487305, 4210.769043, 3414.000000, 8359.000000, 8119.000000, 0.000000, 0.000000, 0.000000, -20865.000000, 395.897430, 4.000000, 4.000000, 4.000000, 4.000000, 4.000000, 4.000000, 4.000000, 4.000000, 0.000000, 4.000000, 4.000000, 4.000000, 4.000000, 4.000000, 4.000000, 4.000000
78.000000, 0.000000, 4232.307617, 4187.692383, 4220.000000, 4232.820313, 4227.179199, 4225.641113, 4232.820313, 4220.000000, 4202.051270, 4290.256348, 4218.461426, 4204.102539, 4244.615234, 4218.461426, 3596.000000, 8359.000000, 8119.000000, 0.000000, 0.000000, 0.000000, -20865.000000, 404.102539, 4.000000, 4.000000, 4.000000, 4.000000, 4.000000, 4.000000, 4.000000, 4.000000, 0.000000, 4.000000, 4.000000, 4.000000, 4.000000, 4.000000, 4.000000, 4.000000
79.000000, 0.000000, 4232.307617, 4184.615234, 4222.051270, 4236.922852, 4223.589844, 4224.615234, 4233.333008, 4221.538574, 4202.563965, 4288.717773, 4223.076660, 4207.692383, 4246.666504, 4218.461426, 3546.000000, 8338.000000, 8117.000000, 0.000000, 0.000000, 0.000000, -20865.000000, 411.794861, 4.000000, 4.000000, 4.000000, 4.000000, 4.000000, 4.000000, 4.000000, 4.000000, 0.000000, 4.000000, 4.000000, 4.000000, 4.000000, 4.000000, 4.000000, 4.000000
80.000000, 0.000000, 4237.948730, 4188.717773, 4228.205078, 4246.153809, 4230.256348, 4229.743652, 4231.794922, 4225.127930, 4203.076660, 4292.820313, 4229.230469, 4213.846191, 4252.820313, 4225.127930, 3524.000000, 8338.000000, 8117.000000, 0.000000, 0.000000, 0.000000, -20865.000000, 420.000000, 4.000000, 4.000000, 4.000000, 4.000000, 4.000000, 4.000000, 4.000000, 4.000000, 0.000000, 4.000000, 4.000000, 4.000000, 4.000000, 4.000000, 4.000000, 4.000000
81.000000, 0.000000, 4235.384277, 4187.179199, 4234.871582, 4242.563965, 4229.230469, 4233.846191, 4236.922852, 4230.256348, 4202.051270, 4290.769043, 4224.102539, 4210.769043, 4242.563965, 4224.102539, 3414.000000, 8319.000000, 8119.000000, 0.000000, 0.000000, 0.000000, -20865.000000, 427.692291, 4.000000, 4.000000, 4.000000, 4.000000, 4.000000, 4.000000, 4.000000, 4.000000, 0.000000, 4.000000, 4.000000, 4.000000, 4.000000, 4.000000, 4.000000, 4.000000
82.000000, 0.000000, 4219.487305, 4172.820313, 4227.179199, 4230.769043, 4218.974121, 4231.794922, 4240.512695, 4224.102539, 4200.512695, 4278.461426, 4208.717773, 4199.487305, 4221.025391, 4209.230469, 3596.000000, 8319.000000, 8119.000000, 0.000000, 0.000000, 0.000000, -20865.000000, 435.897430, 4.000000, 4.000000, 4.000000, 4.000000, 4.000000, 4.000000, 4.000000, 4.000000, 0.000000, 4.000000, 4.000000, 4.000000, 4.000000, 4.000000, 4.000000, 4.000000
83.000000, 0.000000, 4220.512695, 4173.846191, 4220.512695, 4230.256348, 4223.589844, 4230.256348, 4236.922852, 4213.333008, 4201.025391, 4276.410156, 4210.769043, 4201.538574, 4223.076660, 4210.769043, 3546.000000, 8311.000000, 8125.000000, 0.000000, 0.000000, 0.000000, -20865.000000, 443.589722, 4.000000, 4.000000, 4.000000, 4.000000, 4.000000, 4.000000, 4.000000, 4.000000, 0.000000, 4.000000, 4.000000, 4.000000, 4.000000, 4.000000, 4.000000, 4.000000
84.000000, 0.000000, 4232.307617, 4181.538574, 4225.641113, 4235.384277, 4232.820313, 4229.230469, 4232.307617, 4214.358887, 4202.563965, 4279.487305, 4219.487305, 4208.717773, 4238.461426, 4221.538574, 3524.000000, 8311.000000, 8125.000000, 0.000000, 0.000000, 0.000000, -20865.000000, 451.794861, 4.000000, 4.000000, 4.000000, 4.000000, 4.000000, 4.000000, 4.000000, 4.000000, 0.000000, 4.000000, 4.000000, 4.000000, 4.000000, 4.000000, 4.000000, 4.000000
85.000000, 0.000000, 4230.256348, 4177.948730, 4224.615234, 4233.846191, 4227.692383, 4228.717773, 4231.794922, 4216.410156, 4201.538574, 4281.025391, 4216.410156, 4205.641113, 4242.563965, 4217.436035, 3414.000000, 8276.000000, 8129.000000, 0.000000, 0.000000, 0.000000, -20865.000000, 459.487183, 4.000000, 4.000000, 4.000000, 4.000000, 4.000000, 4.000000, 4.000000, 4.000000, 0.000000, 4.000000, 4.000000, 4.000000, 4.000000, 4.000000, 4.000000, 4.000000
86.000000, 0.000000, 4226.153809, 4173.333008, 4216.410156, 4231.794922, 4220.000000, 4233.846191, 4233.846191, 4208.205078, 4201.025391, 4290.769043, 4222.563965, 4201.025391, 4248.205078, 4212.820313, 3596.000000, 8276.000000, 8129.000000, 0.000000, 0.000000, 0.000000, -20865.000000, 467.692291, 4.000000, 4.000000, 4.000000, 4.000000, 4.000000, 4.000000, 4.000000, 4.000000, 0.000000, 4.000000, 4.000000, 4.000000, 4.000000, 4.000000, 4.000000, 4.000000
87.000000, 0.000000, 4227.692383, 4168.717773, 4213.333008, 4230.256348, 4219.487305, 4232.820313, 4226.153809, 4203.589844, 4203.076660, 4297.948730, 4229.743652, 4202.051270, 4253.846191, 4216.410156, 3546.000000, 8261.000000, 8131.000000, 0.000000, 0.000000, 0.000000, -20865.000000, 475.384613, 4.000000, 4.000000, 4.000000, 4.000000, 4.000000, 4.000000, 4.000000, 4.000000, 0.000000, 4.000000, 4.000000, 4.000000, 4.000000, 4.000000, 4.000000, 4.000000
88.000000, 0.000000, 4223.589844, 4163.589844, 4214.871582, 4227.692383, 4217.436035, 4221.538574, 4216.922852, 4203.076660, 4202.563965, 4291.794922, 4220.512695, 4200.000000, 4247.692383, 4213.333008, 3524.000000, 8261.000000, 8131.000000, 0.000000, 0.000000, 0.000000, -20865.000000, 483.589722, 4.000000, 4.000000, 4.000000, 4.000000, 4.000000, 4.000000, 4.000000, 4.000000, 0.000000, 4.000000, 4.000000, 4.000000, 4.000000, 4.000000, 4.000000, 4.000000
89.000000, 0.000000, 4215.897461, 4162.051270, 4212.307617, 4225.127930, 4214.358887, 4218.461426, 4214.358887, 4201.025391, 4202.051270, 4289.743652, 4212.820313, 4191.281738, 4241.025391, 4206.153809, 3414.000000, 8222.000000, 8137.000000, 0.000000, 0.000000, 0.000000, -20865.000000, 491.282043, 4.000000, 4.000000, 4.000000, 4.000000, 4.000000, 4.000000, 4.000000, 4.000000, 0.000000, 4.000000, 4.000000, 4.000000, 4.000000, 4.000000, 4.000000, 4.000000
90.000000, 0.000000, 4216.922852, 4162.563965, 4210.256348, 4225.127930, 4214.871582, 4222.563965, 4216.922852, 4204.615234, 4204.102539, 4294.871582, 4217.948730, 4190.769043, 4243.589844, 4208.717773, 3596.000000, 8222.000000, 8137.000000, 0.000000, 0.000000, 0.000000, -20865.000000, 499.487152, 4.000000, 4.000000, 4.000000, 4.000000, 4.000000, 4.000000, 4.000000, 4.000000, 0.000000, 4.000000, 4.000000, 4.000000, 4.000000, 4.000000, 4.000000, 4.000000
91.000000, 0.000000, 4218.974121, 4156.410156, 4213.846191, 4226.666504, 4212.820313, 4220.512695, 4223.076660, 4205.127930, 4204.615234, 4295.897461, 4219.487305, 4199.487305, 4245.127930, 4211.794922, 3546.000000, 8209.000000, 8137.000000, 0.000000, 0.000000, 0.000000, -20865.000000, 507.179474, 4.000000, 4.000000, 4.000000, 4.000000, 4.000000, 4.000000, 4.000000, 4.000000, 0.000000, 4.000000, 4.000000, 4.000000, 4.000000, 4.000000, 4.000000, 4.000000
92.000000, 0.000000, 4216.410156, 4154.358887, 4214.358887, 4227.692383, 4207.692383, 4220.512695, 4228.717773, 4203.076660, 4202.563965, 4292.820313, 4216.922852, 4200.512695, 4244.102539, 4205.127930, 3524.000000, 8209.000000, 8137.000000, 0.000000, 0.000000, 0.000000, -20865.000000, 515.384583, 4.000000, 4.000000, 4.000000, 4.000000, 4.000000, 4.000000, 4.000000, 4.000000, 0.000000, 4.000000, 4.000000, 4.000000, 4.000000, 4.000000, 4.000000, 4.000000
93.000000, 0.000000, 4220.512695, 4157.948730, 4217.948730, 4229.230469, 4209.743652, 4228.717773, 4226.666504, 4210.769043, 4202.563965, 4293.846191, 4216.922852, 4196.922852, 4245.641113, 4202.051270, 3414.000000, 8197.000000, 8144.000000, 0.000000, 0.000000, 0.000000, -20865.000000, 523.076904, 4.000000, 4.000000, 4.000000, 4.000000, 4.000000, 4.000000, 4.000000, 4.000000, 0.000000, 4.000000, 4.000000, 4.000000, 4.000000, 4.000000, 4.000000, 4.000000
94.000000, 0.000000, 4227.692383, 4154.358887, 4222.563965, 4230.256348, 4215.384277, 4226.153809, 4220.512695, 4215.897461, 4203.589844, 4296.410156, 4218.974121, 4198.461426, 4248.717773, 4210.256348, 3596.000000, 8197.000000, 8144.000000, 0.000000, 0.000000, 0.000000, -20865.000000, 531.282043, 4.000000, 4.000000, 4.000000, 4.000000, 4.000000, 4.000000, 4.000000, 4.000000, 0.000000, 4.000000, 4.000000, 4.000000, 4.000000, 4.000000, 4.000000, 4.000000
95.000000, 0.000000, 4223.589844, 4152.307617, 4224.102539, 4228.205078, 4214.871582, 4218.974121, 4216.922852, 4207.692383, 4202.563965, 4297.436035, 4218.974121, 4200.512695, 4246.666504, 4211.281738, 3546.000000, 8174.000000, 8158.000000, 0.000000, 0.000000, 0.000000, -20865.000000, 539.487183, 4.000000, 4.000000, 4.000000, 4.000000, 4.000000, 4.000000, 4.000000, 4.000000, 0.000000, 4.000000, 4.000000, 4.000000, 4.000000, 4.000000, 4.000000, 4.000000
96.000000, 0.000000, 4221.025391, 4151.794922, 4218.974121, 4228.205078, 4214.358887, 4221.538574, 4218.461426, 4209.743652, 4201.025391, 4301.538574, 4216.410156, 4200.000000, 4244.615234, 4205.127930, 3524.000000, 8174.000000, 8158.000000, 0.000000, 0.000000, 0.000000, -20865.000000, 547.179443, 4.000000, 4.000000, 4.000000, 4.000000, 4.000000, 4.000000, 4.000000, 4.000000, 0.000000, 4.000000, 4.000000, 4.000000, 4.000000, 4.000000, 4.000000, 4.000000
97.000000, 0.000000, 4230.769043, 4151.794922, 4216.410156, 4231.281738, 4217.436035, 4223.589844, 4226.153809, 4229.743652, 4201.538574, 4307.179199, 4222.051270, 4201.538574, 4248.205078, 4208.717773, 3414.000000, 8162.000000, 8170.000000, 0.000000, 0.000000, 0.000000, -20865.000000, 555.384583, 4.000000, 4.000000, 4.000000, 4.000000, 4.000000, 4.000000, 4.000000, 4.000000, 0.000000, 4.000000, 4.000000, 4.000000, 4.000000, 4.000000, 4.000000, 4.000000
98.000000, 0.000000, 4235.384277, 4155.897461, 4220.512695, 4232.820313, 4216.410156, 4218.461426, 4225.641113, 4236.410156, 4203.076660, 4312.307617, 4232.820313, 4204.102539, 4251.281738, 4217.436035, 3596.000000, 8162.000000, 8170.000000, 0.000000, 0.000000, 0.000000, -20865.000000, 563.076904, 4.000000, 4.000000, 4.000000, 4.000000, 4.000000, 4.000000, 4.000000, 4.000000, 0.000000, 4.000000, 4.000000, 4.000000, 4.000000, 4.000000, 4.000000, 4.000000
99.000000, 0.000000, 4234.358887, 4160.000000, 4219.487305, 4234.871582, 4213.846191, 4213.333008, 4212.820313, 4219.487305, 4203.076660, 4310.769043, 4229.230469, 4207.179199, 4248.717773, 4223.076660, 3546.000000, 8157.000000, 8177.000000, 0.000000, 0.000000, 0.000000, -20865.000000, 571.282043, 4.000000, 4.000000, 4.000000, 4.000000, 4.000000, 4.000000, 4.000000, 4.000000, 0.000000, 4.000000, 4.000000, 4.000000, 4.000000, 4.000000, 4.000000, 4.000000
100.000000, 0.000000, 4229.230469, 4152.307617, 4211.794922, 4230.769043, 4214.358887, 4215.897461, 4214.871582, 4206.153809, 4202.563965, 4299.487305, 4217.436035, 4202.563965, 4236.922852, 4214.871582, 3524.000000, 8157.000000, 8177.000000, 0.000000, 0.000000, 0.000000, -20865.000000, 578.974365, 4.000000, 4.000000, 4.000000, 4.000000, 4.000000, 4.000000, 4.000000, 4.000000, 0.000000, 4.000000, 4.000000, 4.000000, 4.000000, 4.000000, 4.000000, 4.000000
101.000000, 0.000000, 4216.922852, 4143.589844, 4204.102539, 4218.974121, 4215.897461, 4228.205078, 4231.281738, 4216.410156, 4203.076660, 4289.743652, 4208.717773, 4192.307617, 4220.000000, 4198.461426, 3414.000000, 8153.000000, 8183.000000, 0.000000, 0.000000, 0.000000, -20865.000000, 587.179443, 4.000000, 4.000000, 4.000000, 4.000000, 4.000000, 4.000000, 4.000000, 4.000000, 0.000000, 4.000000, 4.000000, 4.000000, 4.000000, 4.000000, 4.000000, 4.000000
102.000000, 0.000000, 4211.281738, 4141.025391, 4200.000000, 4211.794922, 4215.897461, 4234.871582, 4234.871582, 4227.179199, 4203.076660, 4294.358887, 4204.102539, 4189.230469, 4215.897461, 4194.358887, 3596.000000, 8153.000000, 8183.000000, 0.000000, 0.000000, 0.000000, -20865.000000, 595.384583, 4.000000, 4.000000, 4.000000, 4.000000, 4.000000, 4.000000, 4.000000, 4.000000, 0.000000, 4.000000, 4.000000, 4.000000, 4.000000, 4.000000, 4.000000, 4.000000
103.000000, 0.000000, 4216.410156, 4143.589844, 4207.179199, 4215.897461, 4213.846191, 4231.794922, 4234.871582, 4233.846191, 4203.076660, 4312.820313, 4214.358887, 4200.000000, 4232.307617, 4207.179199, 3546.000000, 8154.000000, 8188.000000, 0.000000, 0.000000, 0.000000, -20865.000000, 603.076904, 4.000000, 4.000000, 4.000000, 4.000000, 4.000000, 4.000000, 4.000000, 4.000000, 0.000000, 4.000000, 4.000000, 4.000000, 4.000000, 4.000000, 4.000000, 4.000000
104.000000, 0.000000, 4229.743652, 4151.281738, 4221.538574, 4226.666504, 4214.358887, 4232.307617, 4238.974121, 4252.307617, 4203.589844, 4330.769043, 4238.461426, 4218.461426, 4254.871582, 4226.153809, 3524.000000, 8154.000000, 8188.000000, 0.000000, 0.000000, 0.000000, -20865.000000, 611.282043, 4.000000, 4.000000, 4.000000, 4.000000, 4.000000, 4.000000, 4.000000, 4.000000, 0.000000, 4.000000, 4.000000, 4.000000, 4.000000, 4.000000, 4.000000, 4.000000
105.000000, 0.000000, 4244.615234, 4156.922852, 4229.743652, 4234.871582, 4218.461426, 4235.384277, 4229.743652, 4248.717773, 4202.051270, 4333.333008, 4251.794922, 4231.281738, 4268.205078, 4236.922852, 3414.000000, 8147.000000, 8201.000000, 0.000000, 0.000000, 0.000000, -20865.000000, 618.974365, 4.000000, 4.000000, 4.000000, 4.000000, 4.000000, 4.000000, 4.000000, 4.000000, 0.000000, 4.000000, 4.000000, 4.000000, 4.000000, 4.000000, 4.000000, 4.000000
106.000000, 0.000000, 4246.153809, 4157.948730, 4231.281738, 4233.846191, 4218.974121, 4228.717773, 4223.589844, 4221.538574, 4202.051270, 4326.153809, 4246.666504, 4231.281738, 4266.666504, 4236.922852, 3596.000000, 8147.000000, 8201.000000, 0.000000, 0.000000, 0.000000, -20865.000000, 627.179443, 4.000000, 4.000000, 4.000000, 4.000000, 4.000000, 4.000000, 4.000000, 4.000000, 0.000000, 4.000000, 4.000000, 4.000000, 4.000000, 4.000000, 4.000000, 4.000000
107.000000, 0.000000, 4232.307617, 4152.820313, 4226.153809, 4230.256348, 4215.897461, 4220.000000, 4228.717773, 4213.846191, 4203.589844, 4322.051270, 4238.461426, 4222.563965, 4256.410156, 4228.717773, 3546.000000, 8147.000000, 8201.000000, 0.000000, 0.000000, 0.000000, -20865.000000, 634.871765, 4.000000, 4.000000, 4.000000, 4.000000, 4.000000, 4.000000, 4.000000, 4.000000, 0.000000, 4.000000, 4.000000, 4.000000, 4.000000, 4.000000, 4.000000, 4.000000
108.000000, 0.000000, 4223.076660, 4149.230469, 4219.487305, 4231.281738, 4215.384277, 4219.487305, 4224.102539, 4216.410156, 4202.563965, 4321.025391, 4232.820313, 4216.410156, 4247.179199, 4223.076660, 3524.000000, 8147.000000, 8201.000000, 0.000000, 0.000000, 0.000000, -20865.000000, 643.076904, 4.000000, 4.000000, 4.000000, 4.000000, 4.000000, 4.000000, 4.000000, 4.000000, 0.000000, 4.000000, 4.000000, 4.000000, 4.000000, 4.000000, 4.000000, 4.000000
109.000000, 0.000000, 4226.153809, 4151.281738, 4223.589844, 4233.846191, 4218.461426, 4223.076660, 4218.974121, 4210.256348, 4202.563965, 4320.000000, 4231.794922, 4217.436035, 4246.153809, 4226.666504, 3414.000000, 8151.000000, 8197.000000, 0.000000, 0.000000, 0.000000, -20865.000000, 650.769226, 4.000000, 4.000000, 4.000000, 4.000000, 4.000000, 4.000000, 4.000000, 4.000000, 0.000000, 4.000000, 4.000000, 4.000000, 4.000000, 4.000000, 4.000000, 4.000000
110.000000, 0.000000, 4233.333008, 4149.743652, 4231.281738, 4232.820313, 4219.487305, 4221.538574, 4225.641113, 4215.897461, 4203.589844, 4321.538574, 4234.871582, 4224.102539, 4249.743652, 4233.333008, 3596.000000, 8151.000000, 8197.000000, 0.000000, 0.000000, 0.000000, -20865.000000, 658.974365, 4.000000, 4.000000, 4.000000, 4.000000, 4.000000, 4.000000, 4.000000, 4.000000, 0.000000, 4.000000, 4.000000, 4.000000, 4.000000, 4.000000, 4.000000, 4.000000
111.000000, 0.000000, 4232.307617, 4147.692383, 4234.871582, 4231.794922, 4216.922852, 4217.436035, 4224.615234, 4221.538574, 4203.076660, 4320.000000, 4237.948730, 4232.820313, 4251.794922, 4235.384277, 3546.000000, 8157.000000, 8191.000000, 0.000000, 0.000000, 0.000000, -20865.000000, 666.666626, 4.000000, 4.000000, 4.000000, 4.000000, 4.000000, 4.000000, 4.000000, 4.000000, 0.000000, 4.000000, 4.000000, 4.000000, 4.000000, 4.000000, 4.000000, 4.000000
112.000000, 0.000000, 4222.563965, 4144.102539, 4231.794922, 4231.794922, 4211.794922, 4217.436035, 4215.384277, 4206.666504, 4203.076660, 4312.820313, 4237.948730, 4229.230469, 4252.307617, 4234.871582, 3524.000000, 8157.000000, 8191.000000, 0.000000, 0.000000, 0.000000, -20865.000000, 674.871765, 4.000000, 4.000000, 4.000000, 4.000000, 4.000000, 4.000000, 4.000000, 4.000000, 0.000000, 4.000000, 4.000000, 4.000000, 4.000000, 4.000000, 4.000000, 4.000000
113.000000, 0.000000, 4215.897461, 4139.487305, 4226.666504, 4229.230469, 4208.717773, 4217.436035, 4221.025391, 4199.487305, 4203.589844, 4308.717773, 4228.205078, 4217.436035, 4246.666504, 4229.230469, 3414.000000, 8161.000000, 8181.000000, 0.000000, 0.000000, 0.000000, -20865.000000, 682.564087, 4.000000, 4.000000, 4.000000, 4.000000, 4.000000, 4.000000, 4.000000, 4.000000, 0.000000, 4.000000, 4.000000, 4.000000, 4.000000, 4.000000, 4.000000, 4.000000
114.000000, 0.000000, 4214.871582, 4141.025391, 4225.641113, 4228.205078, 4210.769043, 4217.948730, 4232.307617, 4209.743652, 4201.538574, 4310.256348, 4218.461426, 4211.281738, 4240.512695, 4220.000000, 3596.000000, 8161.000000, 8181.000000, 0.000000, 0.000000, 0.000000, -20865.000000, 690.769226, 4.000000, 4.000000, 4.000000, 4.000000, 4.000000, 4.000000, 4.000000, 4.000000, 0.000000, 4.000000, 4.000000, 4.000000, 4.000000, 4.000000, 4.000000, 4.000000
115.000000, 0.000000, 4214.358887, 4146.666504, 4224.102539, 4229.230469, 4214.871582, 4219.487305, 4228.205078, 4215.897461, 4202.051270, 4309.743652, 4221.025391, 4212.820313, 4242.051270, 4221.025391, 3546.000000, 8154.000000, 8176.000000, 0.000000, 0.000000, 0.000000, -20865.000000, 698.461548, 4.000000, 4.000000, 4.000000, 4.000000, 4.000000, 4.000000, 4.000000, 4.000000, 0.000000, 4.000000, 4.000000, 4.000000, 4.000000, 4.000000, 4.000000, 4.000000
116.000000, 0.000000, 4215.384277, 4149.743652, 4222.563965, 4226.153809, 4216.410156, 4219.487305, 4218.974121, 4215.384277, 4204.615234, 4311.281738, 4229.230469, 4215.384277, 4242.563965, 4227.179199, 3524.000000, 8154.000000, 8176.000000, 0.000000, 0.000000, 0.000000, -20865.000000, 706.666626, 4.000000, 4.000000, 4.000000, 4.000000, 4.000000, 4.000000, 4.000000, 4.000000, 0.000000, 4.000000, 4.000000, 4.000000, 4.000000, 4.000000, 4.000000, 4.000000
117.000000, 0.000000, 4215.897461, 4153.846191, 4220.512695, 4225.127930, 4216.922852, 4217.436035, 4221.538574, 4217.436035, 4204.102539, 4312.307617, 4231.794922, 4217.436035, 4231.794922, 4229.230469, 3414.000000, 8149.000000, 8176.000000, 0.000000, 0.000000, 0.000000, -20865.000000, 714.358948, 4.000000, 4.000000, 4.000000, 4.000000, 4.000000, 4.000000, 4.000000, 4.000000, 0.000000, 4.000000, 4.000000, 4.000000, 4.000000, 4.000000, 4.000000, 4.000000
118.000000, 0.000000, 4216.922852, 4167.179199, 4222.563965, 4229.230469, 4216.922852, 4217.948730, 4223.589844, 4217.948730, 4202.563965, 4303.589844, 4231.281738, 4216.410156, 4216.410156, 4229.743652, 3596.000000, 8149.000000, 8176.000000, 0.000000, 0.000000, 0.000000, -20865.000000, 722.564087, 4.000000, 4.000000, 4.000000, 4.000000, 4.000000, 4.000000, 4.000000, 4.000000, 0.000000, 4.000000, 4.000000, 4.000000, 4.000000, 4.000000, 4.000000, 4.000000
119.000000, 0.000000, 4220.000000, 4179.487305, 4227.692383, 4233.846191, 4216.922852, 4223.076660, 4216.922852, 4216.922852, 4203.076660, 4293.846191, 4231.281738, 4213.333008, 4201.025391, 4231.281738, 3546.000000, 8148.000000, 8185.000000, 0.000000, 0.000000, 0.000000, -20865.000000, 730.769226, 4.000000, 4.000000, 4.000000, 4.000000, 4.000000, 4.000000, 4.000000, 4.000000, 0.000000, 4.000000, 4.000000, 4.000000, 4.000000, 4.000000, 4.000000, 4.000000
120.000000, 0.000000, 4222.051270, 4184.615234, 4230.769043, 4241.025391, 4223.589844, 4229.230469, 4218.974121, 4217.948730, 4203.076660, 4290.256348, 4230.256348, 4214.871582, 4187.692383, 4231.794922, 3524.000000, 8148.000000, 8185.000000, 0.000000, 0.000000, 0.000000, -20865.000000, 738.461548, 4.000000, 4.000000, 4.000000, 4.000000, 4.000000, 4.000000, 4.000000, 4.000000, 0.000000, 4.000000, 4.000000, 4.000000, 4.000000, 4.000000, 4.000000, 4.000000
121.000000, 0.000000, 4223.076660, 4192.307617, 4233.846191, 4249.230469, 4229.230469, 4231.794922, 4230.256348, 4217.436035, 4202.563965, 4286.153809, 4231.794922, 4218.974121, 4180.000000, 4234.871582, 3414.000000, 8146.000000, 8187.000000, 0.000000, 0.000000, 0.000000, -20865.000000, 746.666626, 4.000000, 4.000000, 4.000000, 4.000000, 4.000000, 4.000000, 4.000000, 4.000000, 0.000000, 4.000000, 4.000000, 4.000000, 4.000000, 4.000000, 4.000000, 4.000000
122.000000, 0.000000, 4218.974121, 4197.436035, 4228.717773, 4240.000000, 4226.153809, 4231.794922, 4231.794922, 4218.461426, 4204.102539, 4278.461426, 4229.230469, 4218.974121, 4170.256348, 4233.333008, 3596.000000, 8146.000000, 8187.000000, 0.000000, 0.000000, 0.000000, -20865.000000, 754.358948, 4.000000, 4.000000, 4.000000, 4.000000, 4.000000, 4.000000, 4.000000, 4.000000, 0.000000, 4.000000, 4.000000, 4.000000, 4.000000, 4.000000, 4.000000, 4.000000
123.000000, 0.000000, 4213.333008, 4199.487305, 4223.076660, 4231.794922, 4226.153809, 4233.333008, 4227.179199, 4225.127930, 4203.589844, 4277.436035, 4227.179199, 4216.410156, 4167.692383, 4231.794922, 3546.000000, 8149.000000, 8179.000000, 0.000000, 0.000000, 0.000000, -20865.000000, 762.564087, 4.000000, 4.000000, 4.000000, 4.000000, 4.000000, 4.000000, 4.000000, 4.000000, 0.000000, 4.000000, 4.000000, 4.000000, 4.000000, 4.000000, 4.000000, 4.000000
124.000000, 0.000000, 4216.922852, 4200.512695, 4228.205078, 4241.025391, 4233.333008, 4234.358887, 4231.794922, 4230.256348, 4203.076660, 4277.436035, 4232.820313, 4216.922852, 4177.948730, 4238.461426, 3524.000000, 8149.000000, 8179.000000, 0.000000, 0.000000, 0.000000, -20865.000000, 770.256409, 4.000000, 4.000000, 4.000000, 4.000000, 4.000000, 4.000000, 4.000000, 4.000000, 0.000000, 4.000000, 4.000000, 4.000000, 4.000000, 4.000000, 4.000000, 4.000000
125.000000, 0.000000, 4216.410156, 4197.948730, 4231.281738, 4241.025391, 4234.358887, 4232.820313, 4236.922852, 4235.384277, 4203.076660, 4270.769043, 4227.179199, 4218.461426, 4168.205078, 4238.974121, 3414.000000, 8149.000000, 8171.000000, 0.000000, 0.000000, 0.000000, -20865.000000, 778.461548, 4.000000, 4.000000, 4.000000, 4.000000, 4.000000, 4.000000, 4.000000, 4.000000, 0.000000, 4.000000, 4.000000, 4.000000, 4.000000, 4.000000, 4.000000, 4.000000
126.000000, 0.000000, 4204.102539, 4196.922852, 4223.076660, 4231.794922, 4228.717773, 4232.307617, 4228.205078, 4231.281738, 4202.563965, 4262.563965, 4215.384277, 4214.871582, 4150.769043, 4228.205078, 3596.000000, 8149.000000, 8171.000000, 0.000000, 0.000000, 0.000000, -20865.000000, 786.153809, 4.000000, 4.000000, 4.000000, 4.000000, 4.000000, 4.000000, 4.000000, 4.000000, 0.000000, 4.000000, 4.000000, 4.000000, 4.000000, 4.000000, 4.000000, 4.000000
127.000000, 0.000000, 4198.461426, 4194.871582, 4214.358887, 4231.281738, 4222.051270, 4227.692383, 4213.846191, 4209.743652, 4203.076660, 4251.794922, 4214.358887, 4206.666504, 4159.487305, 4218.461426, 57.000000, 8143.000000, 8168.000000, 0.000000, 0.000000, 0.000000, -20865.000000, 794.358948, 4.000000, 4.000000, 4.000000, 4.000000, 4.000000, 4.000000, 4.000000, 4.000000, 0.000000, 4.000000, 4.000000, 4.000000, 4.000000, 4.000000, 4.000000, 4.000000
0.000000, 0.000000, 4203.076660, 4191.794922, 4216.922852, 4234.871582, 4219.487305, 4225.641113, 4212.820313, 4201.538574, 4203.589844, 4246.666504, 4216.410156, 4198.974121, 4173.333008, 4218.461426, 3185.000000, 8143.000000, 8168.000000, 0.000000, 0.000000, 0.000000, -20865.000000, 802.564087, 4.000000, 4.000000, 4.000000, 4.000000, 4.000000, 4.000000, 4.000000, 4.000000, 0.000000, 4.000000, 4.000000, 4.000000, 4.000000, 4.000000, 4.000000, 4.000000
1.000000, 0.000000, 4202.051270, 4186.153809, 4218.461426, 4231.794922, 4221.538574, 4229.743652, 4226.153809, 4217.436035, 4202.563965, 4247.179199, 4215.897461, 4197.436035, 4172.820313, 4222.563965, 3535.000000, 8145.000000, 8164.000000, 0.000000, 0.000000, 0.000000, -20865.000000, 810.256409, 4.000000, 4.000000, 4.000000, 4.000000, 4.000000, 4.000000, 4.000000, 4.000000, 0.000000, 4.000000, 4.000000, 4.000000, 4.000000, 4.000000, 4.000000, 4.000000
2.000000, 0.000000, 4197.436035, 4177.436035, 4213.846191, 4227.692383, 4221.538574, 4230.769043, 4231.281738, 4221.025391, 4202.051270, 4247.692383, 4222.563965, 4203.076660, 4181.538574, 4227.179199, 3562.000000, 8145.000000, 8164.000000, 0.000000, 0.000000, 0.000000, -20865.000000, 818.461548, 4.000000, 4.000000, 4.000000, 4.000000, 4.000000, 4.000000, 4.000000, 4.000000, 0.000000, 4.000000, 4.000000, 4.000000, 4.000000, 4.000000, 4.000000, 4.000000
3.000000, 0.000000, 4207.692383, 4176.922852, 4220.000000, 4228.717773, 4224.102539, 4231.794922, 4231.794922, 4217.436035, 4204.615234, 4253.333008, 4237.436035, 4215.384277, 4207.692383, 4239.487305, 2360.000000, 8150.000000, 8166.000000, 0.000000, 0.000000, 0.000000, -20865.000000, 826.153809, 4.000000, 4.000000, 4.000000, 4.000000, 4.000000, 4.000000, 4.000000, 4.000000, 0.000000, 4.000000, 4.000000, 4.000000, 4.000000, 4.000000, 4.000000, 4.000000
4.000000, 0.000000, 4219.487305, 4178.461426, 4227.692383, 4232.820313, 4230.769043, 4241.025391, 4243.589844, 4230.256348, 4205.641113, 4263.589844, 4246.153809, 4223.076660, 4222.051270, 4249.230469, 3548.000000, 8150.000000, 8166.000000, 0.000000, 0.000000, 0.000000, -20865.000000, 834.358948, 4.000000, 4.000000, 4.000000, 4.000000, 4.000000, 4.000000, 4.000000, 4.000000, 0.000000, 4.000000, 4.000000, 4.000000, 4.000000, 4.000000, 4.000000, 4.000000
5.000000, 0.000000, 4211.281738, 4174.358887, 4220.512695, 4233.846191, 4232.307617, 4249.230469, 4249.743652, 4235.897461, 4205.127930, 4264.615234, 4240.512695, 4211.281738, 4220.000000, 4237.948730, 3576.000000, 8154.000000, 8165.000000, 0.000000, 0.000000, 0.000000, -20865.000000, 842.051270, 4.000000, 4.000000, 4.000000, 4.000000, 4.000000, 4.000000, 4.000000, 4.000000, 0.000000, 4.000000, 4.000000, 4.000000, 4.000000, 4.000000, 4.000000, 4.000000
6.000000, 0.000000, 4196.410156, 4168.205078, 4213.333008, 4229.743652, 4229.743652, 4243.589844, 4238.974121, 4231.281738, 4204.102539, 4259.487305, 4230.256348, 4198.974121, 4213.846191, 4221.538574, 3415.000000, 8154.000000, 8165.000000, 0.000000, 0.000000, 0.000000, -20865.000000, 850.256409, 4.000000, 4.000000, 4.000000, 4.000000, 4.000000, 4.000000, 4.000000, 4.000000, 0.000000, 4.000000, 4.000000, 4.000000, 4.000000, 4.000000, 4.000000, 4.000000
7.000000, 0.000000, 4202.051270, 4164.615234, 4219.487305, 4229.230469, 4225.641113, 4233.333008, 4230.256348, 4234.871582, 4204.102539, 4262.051270, 4233.333008, 4206.153809, 4215.897461, 4227.692383, 3511.000000, 8159.000000, 8170.000000, 0.000000, 0.000000, 0.000000, -20865.000000, 857.948669, 4.000000, 4.000000, 4.000000, 4.000000, 4.000000, 4.000000, 4.000000, 4.000000, 0.000000, 4.000000, 4.000000, 4.000000, 4.000000, 4.000000, 4.000000, 4.000000
8.000000, 0.000000, 4215.897461, 4166.153809, 4229.230469, 4231.281738, 4226.153809, 4231.794922, 4234.358887, 4236.410156, 4202.563965, 4265.641113, 4244.102539, 4220.512695, 4226.153809, 4243.076660, 34.000000, 8159.000000, 8170.000000, 0.000000, 0.000000, 0.000000, -20865.000000, 866.153809, 4.000000, 4.000000, 4.000000, 4.000000, 4.000000, 4.000000, 4.000000, 4.000000, 0.000000, 4.000000, 4.000000, 4.000000, 4.000000, 4.000000, 4.000000, 4.000000
9.000000, 0.000000, 4216.922852, 4168.205078, 4231.794922, 4230.769043, 4227.692383, 4233.846191, 4234.358887, 4233.333008, 4204.102539, 4266.153809, 4249.230469, 4229.743652, 4232.820313, 4248.205078, 3030.000000, 8168.000000, 8177.000000, 0.000000, 0.000000, 0.000000, -20865.000000, 873.846130, 4.000000, 4.000000, 4.000000, 4.000000, 4.000000, 4.000000, 4.000000, 4.000000, 0.000000, 4.000000, 4.000000, 4.000000, 4.000000, 4.000000, 4.000000, 4.000000
10.000000, 0.000000, 4212.307617, 4168.205078, 4228.717773, 4225.127930, 4222.563965, 4230.769043, 4229.230469, 4233.333008, 4205.127930, 4266.666504, 4249.230469, 4229.230469, 4231.281738, 4244.102539, 3596.000000, 8168.000000, 8177.000000, 0.000000, 0.000000, 0.000000, -20865.000000, 881.538452, 4.000000, 4.000000, 4.000000, 4.000000, 4.000000, 4.000000, 4.000000, 4.000000, 0.000000, 4.000000, 4.000000, 4.000000, 4.000000, 4.000000, 4.000000, 4.000000
11.000000, 0.000000, 4213.333008, 4165.641113, 4229.743652, 4222.563965, 4220.000000, 4229.743652, 4229.743652, 4231.794922, 4202.563965, 4263.589844, 4246.666504, 4226.666504, 4226.666504, 4237.436035, 3571.000000, 8171.000000, 8175.000000, 0.000000, 0.000000, 0.000000, -20865.000000, 889.743591, 4.000000, 4.000000, 4.000000, 4.000000, 4.000000, 4.000000, 4.000000, 4.000000, 0.000000, 4.000000, 4.000000, 4.000000, 4.000000, 4.000000, 4.000000, 4.000000
12.000000, 0.000000, 4216.922852, 4164.102539, 4236.922852, 4230.256348, 4229.230469, 4233.846191, 4233.846191, 4231.794922, 4201.025391, 4266.153809, 4248.717773, 4229.230469, 4230.769043, 4241.538574, 3524.000000, 8171.000000, 8175.000000, 0.000000, 0.000000, 0.000000, -20865.000000, 897.948669, 4.000000, 4.000000, 4.000000, 4.000000, 4.000000, 4.000000, 4.000000, 4.000000, 0.000000, 4.000000, 4.000000, 4.000000, 4.000000, 4.000000, 4.000000, 4.000000
13.000000, 0.000000, 4221.025391, 4165.641113, 4242.563965, 4235.384277, 4234.358887, 4235.897461, 4236.922852, 4243.076660, 4202.563965, 4273.846191, 4256.922852, 4235.384277, 4242.051270, 4250.256348, 3443.000000, 8174.000000, 8171.000000, 0.000000, 0.000000, 0.000000, -20865.000000, 905.640991, 4.000000, 4.000000, 4.000000, 4.000000, 4.000000, 4.000000, 4.000000, 4.000000, 0.000000, 4.000000, 4.000000, 4.000000, 4.000000, 4.000000, 4.000000, 4.000000
14.000000, 0.000000, 4224.102539, 4165.127930, 4238.461426, 4232.820313, 4231.794922, 4233.333008, 4233.846191, 4248.717773, 4203.589844, 4277.436035, 4261.538574, 4235.384277, 4247.692383, 4249.230469, 3596.000000, 8174.000000, 8171.000000, 0.000000, 0.000000, 0.000000, -20865.000000, 913.333313, 4.000000, 4.000000, 4.000000, 4.000000, 4.000000, 4.000000, 4.000000, 4.000000, 0.000000, 4.000000, 4.000000, 4.000000, 4.000000, 4.000000, 4.000000, 4.000000
15.000000, 0.000000, 4222.563965, 4160.000000, 4234.871582, 4229.230469, 4224.615234, 4230.256348, 4231.281738, 4244.102539, 4202.563965, 4276.410156, 4262.051270, 4233.846191, 4245.127930, 4248.205078, 3571.000000, 8169.000000, 8166.000000, 0.000000, 0.000000, 0.000000, -20865.000000, 921.538452, 4.000000, 4.000000, 4.000000, 4.000000, 4.000000, 4.000000, 4.000000, 4.000000, 0.000000, 4.000000, 4.000000, 4.000000, 4.000000, 4.000000, 4.000000, 4.000000
16.000000, 0.000000, 4217.948730, 4155.384277, 4233.846191, 4224.615234, 4218.974121, 4230.769043, 4231.281738, 4243.076660, 4202.563965, 4274.871582, 4260.000000, 4236.922852, 4245.127930, 4248.205078, 0.000000, 8169.000000, 8166.000000, 0.000000, 0.000000, 0.000000, -20865.000000, 929.230774, 4.000000, 4.000000, 4.000000, 4.000000, 4.000000, 4.000000, 4.000000, 4.000000, 0.000000, 4.000000, 4.000000, 4.000000, 4.000000, 4.000000, 4.000000, 4.000000
17.000000, 0.000000, 4215.897461, 4151.281738, 4229.743652, 4218.461426, 4223.589844, 4234.358887, 4232.820313, 4246.666504, 4202.051270, 4271.794922, 4255.897461, 4230.256348, 4249.743652, 4238.461426, 0.000000, 8169.000000, 8169.000000, 0.000000, 0.000000, 0.000000, -20865.000000, 937.435852, 4.000000, 4.000000, 4.000000, 4.000000, 4.000000, 4.000000, 4.000000, 4.000000, 0.000000, 4.000000, 4.000000, 4.000000, 4.000000, 4.000000, 4.000000, 4.000000
18.000000, 0.000000, 4216.922852, 4147.179199, 4230.769043, 4217.436035, 4223.589844, 4233.846191, 4242.051270, 4246.153809, 4201.538574, 4267.179199, 4248.205078, 4218.461426, 4248.717773, 4231.281738, 0.000000, 8169.000000, 8169.000000, 0.000000, 0.000000, 0.000000, -20865.000000, 945.128174, 4.000000, 4.000000, 4.000000, 4.000000, 4.000000, 4.000000, 4.000000, 4.000000, 0.000000, 4.000000, 4.000000, 4.000000, 4.000000, 4.000000, 4.000000, 4.000000
19.000000, 0.000000, 4223.589844, 4147.179199, 4238.461426, 4224.615234, 4218.974121, 4230.256348, 4244.102539, 4242.563965, 4201.538574, 4265.127930, 4248.205078, 4221.538574, 4246.153809, 4240.512695, 0.000000, 8168.000000, 8157.000000, 0.000000, 0.000000, 0.000000, -20865.000000, 952.820496, 4.000000, 4.000000, 4.000000, 4.000000, 4.000000, 4.000000, 4.000000, 4.000000, 0.000000, 4.000000, 4.000000, 4.000000, 4.000000, 4.000000, 4.000000, 4.000000
20.000000, 0.000000, 4231.281738, 4153.846191, 4245.127930, 4229.743652, 4226.153809, 4232.307617, 4236.410156, 4248.205078, 4203.589844, 4271.794922, 4256.922852, 4233.333008, 4247.179199, 4247.179199, 0.000000, 8168.000000, 8157.000000, 0.000000, 0.000000, 0.000000, -20865.000000, 961.025635, 4.000000, 4.000000, 4.000000, 4.000000, 4.000000, 4.000000, 4.000000, 4.000000, 0.000000, 4.000000, 4.000000, 4.000000, 4.000000, 4.000000, 4.000000, 4.000000
21.000000, 0.000000, 4235.384277, 4157.436035, 4249.743652, 4231.281738, 4234.358887, 4236.922852, 4238.461426, 4257.436035, 4205.127930, 4279.487305, 4264.102539, 4236.410156, 4250.256348, 4247.692383, 0.000000, 8162.000000, 8160.000000, 0.000000, 0.000000, 0.000000, -20865.000000, 968.717896, 4.000000, 4.000000, 4.000000, 4.000000, 4.000000, 4.000000, 4.000000, 4.000000, 0.000000, 4.000000, 4.000000, 4.000000, 4.000000, 4.000000, 4.000000, 4.000000
22.000000, 0.000000, 4236.410156, 4154.871582, 4249.743652, 4236.410156, 4228.717773, 4232.820313, 4241.025391, 4247.692383, 4203.589844, 4275.897461, 4263.589844, 4233.333008, 4250.256348, 4252.307617, 0.000000, 8162.000000, 8160.000000, 0.000000, 0.000000, 0.000000, -20865.000000, 976.923035, 4.000000, 4.000000, 4.000000, 4.000000, 4.000000, 4.000000, 4.000000, 4.000000, 0.000000, 4.000000, 4.000000, 4.000000, 4.000000, 4.000000, 4.000000, 4.000000
23.000000, 0.000000, 4227.692383, 4149.230469, 4241.538574, 4229.743652, 4218.974121, 4222.051270, 4229.230469, 4226.153809, 4202.563965, 4261.025391, 4252.820313, 4224.615234, 4239.487305, 4245.127930, 0.000000, 8161.000000, 8156.000000, 0.000000, 0.000000, 0.000000, -20865.000000, 985.128174, 4.000000, 4.000000, 4.000000, 4.000000, 4.000000, 4.000000, 4.000000, 4.000000, 0.000000, 4.000000, 4.000000, 4.000000, 4.000000, 4.000000, 4.000000, 4.000000
24.000000, 0.000000, 4213.333008, 4144.615234, 4227.692383, 4214.358887, 4211.281738, 4213.333008, 4221.538574, 4224.102539, 4203.076660, 4248.717773, 4243.589844, 4212.307617, 4225.641113, 4227.692383, 0.000000, 8161.000000, 8156.000000, 0.000000, 0.000000, 0.000000, -20865.000000, 992.820496, 4.000000, 4.000000, 4.000000, 4.000000, 4.000000, 4.000000, 4.000000, 4.000000, 0.000000, 4.000000, 4.000000, 4.000000, 4.000000, 4.000000, 4.000000, 4.000000
25.000000, 0.000000, 4218.974121, 4150.256348, 4230.769043, 4220.512695, 4215.897461, 4217.948730, 4224.102539, 4231.794922, 4203.589844, 4248.205078, 4247.179199, 4216.922852, 4229.743652, 4233.846191, 0.000000, 8154.000000, 8156.000000, 0.000000, 0.000000, 0.000000, -20864.000000, 1.025641, 4.000000, 4.000000, 4.000000, 4.000000, 4.000000, 4.000000, 4.000000, 4.000000, 0.000000, 4.000000, 4.000000, 4.000000, 4.000000, 4.000000, 4.000000, 4.000000
26.000000, 0.000000, 4236.410156, 4159.487305, 4246.666504, 4237.436035, 4225.127930, 4224.615234, 4221.025391, 4227.179199, 4202.563965, 4251.281738, 4252.307617, 4230.769043, 4242.563965, 4250.769043, 0.000000, 8154.000000, 8156.000000, 0.000000, 0.000000, 0.000000, -20864.000000, 8.717949, 4.000000, 4.000000, 4.000000, 4.000000, 4.000000, 4.000000, 4.000000, 4.000000, 0.000000, 4.000000, 4.000000, 4.000000, 4.000000, 4.000000, 4.000000, 4.000000
27.000000, 0.000000, 4236.410156, 4159.487305, 4249.230469, 4234.871582, 4223.589844, 4220.512695, 4216.410156, 4223.076660, 4202.563965, 4249.743652, 4249.743652, 4230.256348, 4238.461426, 4248.205078, 0.000000, 8149.000000, 8154.000000, 0.000000, 0.000000, 0.000000, -20864.000000, 16.923077, 4.000000, 4.000000, 4.000000, 4.000000, 4.000000, 4.000000, 4.000000, 4.000000, 0.000000, 4.000000, 4.000000, 4.000000, 4.000000, 4.000000, 4.000000, 4.000000
28.000000, 0.000000, 4231.281738, 4159.487305, 4242.563965, 4231.794922, 4223.589844, 4219.487305, 4217.436035, 4224.615234, 4204.102539, 4247.692383, 4249.743652, 4223.076660, 4232.307617, 4243.589844, 0.000000, 8149.000000, 8154.000000, 0.000000, 0.000000, 0.000000, -20864.000000, 24.615383, 4.000000, 4.000000, 4.000000, 4.000000, 4.000000, 4.000000, 4.000000, 4.000000, 0.000000, 4.000000, 4.000000, 4.000000, 4.000000, 4.000000, 4.000000, 4.000000
29.000000, 0.000000, 4230.256348, 4157.436035, 4239.487305, 4233.333008, 4230.256348, 4227.692383, 4216.410156, 4217.948730, 4204.102539, 4246.666504, 4247.692383, 4216.410156, 4233.333008, 4245.127930, 0.000000, 8144.000000, 8147.000000, 0.000000, 0.000000, 0.000000, -20864.000000, 32.820511, 4.000000, 4.000000, 4.000000, 4.000000, 4.000000, 4.000000, 4.000000, 4.000000, 0.000000, 4.000000, 4.000000, 4.000000, 4.000000, 4.000000, 4.000000, 4.000000
30.000000, 0.000000, 4230.769043, 4151.794922, 4241.025391, 4232.307617, 4232.820313, 4230.769043, 4213.846191, 4211.794922, 4202.051270, 4247.692383, 4245.127930, 4213.846191, 4234.871582, 4244.615234, 0.000000, 8144.000000, 8147.000000, 0.000000, 0.000000, 0.000000, -20864.000000, 40.512821, 4.000000, 4.000000, 4.000000, 4.000000, 4.000000, 4.000000, 4.000000, 4.000000, 0.000000, 4.000000, 4.000000, 4.000000, 4.000000, 4.000000, 4.000000, 4.000000
31.000000, 0.000000, 4246.153809, 4162.563965, 4251.281738, 4245.641113, 4233.333008, 4229.230469, 4223.076660, 4223.589844, 4202.563965, 4255.897461, 4260.000000, 4226.153809, 4247.692383, 4255.897461, 0.000000, 8148.000000, 8150.000000, 0.000000, 0.000000, 0.000000, -20864.000000, 48.205128, 4.000000, 4.000000, 4.000000, 4.000000, 4.000000, 4.000000, 4.000000, 4.000000, 0.000000, 4.000000, 4.000000, 4.000000, 4.000000, 4.000000, 4.000000, 4.000000
32.000000, 0.000000, 4253.846191, 4167.179199, 4252.820313, 4252.820313, 4235.384277, 4232.820313, 4233.333008, 4234.358887, 4203.589844, 4257.436035, 4265.127930, 4233.846191, 4249.230469, 4259.487305, 0.000000, 8148.000000, 8150.000000, 0.000000, 0.000000, 0.000000, -20864.000000, 55.897434, 4.000000, 4.000000, 4.000000, 4.000000, 4.000000, 4.000000, 4.000000, 4.000000, 0.000000, 4.000000, 4.000000, 4.000000, 4.000000, 4.000000, 4.000000, 4.000000
33.000000, 0.000000, 4233.333008, 4149.230469, 4238.461426, 4235.897461, 4232.307617, 4233.846191, 4226.153809, 4225.127930, 4201.538574, 4245.641113, 4246.153809, 4222.051270, 4224.615234, 4237.436035, 0.000000, 8154.000000, 8161.000000, 0.000000, 0.000000, 0.000000, -20864.000000, 64.102562, 4.000000, 4.000000, 4.000000, 4.000000, 4.000000, 4.000000, 4.000000, 4.000000, 0.000000, 4.000000, 4.000000, 4.000000, 4.000000, 4.000000, 4.000000, 4.000000
34.000000, 0.000000, 4222.051270, 4142.051270, 4231.794922, 4227.179199, 4227.179199, 4229.230469, 4215.897461, 4211.794922, 4200.000000, 4242.563965, 4238.974121, 4214.871582, 4215.897461, 4226.666504, 0.000000, 8154.000000, 8161.000000, 0.000000, 0.000000, 0.000000, -20864.000000, 71.794868, 4.000000, 4.000000, 4.000000, 4.000000, 4.000000, 4.000000, 4.000000, 4.000000, 0.000000, 4.000000, 4.000000, 4.000000, 4.000000, 4.000000, 4.000000, 4.000000
35.000000, 0.000000, 4231.281738, 4147.692383, 4232.307617, 4230.769043, 4226.153809, 4230.256348, 4218.461426, 4215.897461, 4201.538574, 4249.230469, 4247.692383, 4216.922852, 4236.410156, 4234.871582, 0.000000, 8158.000000, 8154.000000, 0.000000, 0.000000, 0.000000, -20864.000000, 80.000000, 4.000000, 4.000000, 4.000000, 4.000000, 4.000000, 4.000000, 4.000000, 4.000000, 0.000000, 4.000000, 4.000000, 4.000000, 4.000000, 4.000000, 4.000000, 4.000000
36.000000, 0.000000, 4234.358887, 4147.692383, 4229.743652, 4231.281738, 4228.205078, 4233.846191, 4220.512695, 4227.179199, 4203.589844, 4249.743652, 4249.743652, 4215.897461, 4245.127930, 4240.000000, 0.000000, 8158.000000, 8154.000000, 0.000000, 0.000000, 0.000000, -20864.000000, 87.692307, 4.000000, 4.000000, 4.000000, 4.000000, 4.000000, 4.000000, 4.000000, 4.000000, 0.000000, 4.000000, 4.000000, 4.000000, 4.000000, 4.000000, 4.000000, 4.000000
37.000000, 0.000000, 4232.820313, 4144.615234, 4230.256348, 4232.307617, 4233.333008, 4233.333008, 4215.897461, 4223.076660, 4203.076660, 4248.717773, 4247.179199, 4215.384277, 4245.127930, 4241.025391, 0.000000, 8164.000000, 8152.000000, 0.000000, 0.000000, 0.000000, -20864.000000, 95.384613, 4.000000, 4.000000, 4.000000, 4.000000, 4.000000, 4.000000, 4.000000, 4.000000, 0.000000, 4.000000, 4.000000, 4.000000, 4.000000, 4.000000, 4.000000, 4.000000
38.000000, 0.000000, 4232.820313, 4142.051270, 4229.743652, 4228.205078, 4229.743652, 4229.743652, 4213.333008, 4215.384277, 4201.025391, 4249.743652, 4246.666504, 4213.846191, 4249.230469, 4241.025391, 0.000000, 8164.000000, 8152.000000, 0.000000, 0.000000, 0.000000, -20864.000000, 103.076920, 4.000000, 4.000000, 4.000000, 4.000000, 4.000000, 4.000000, 4.000000, 4.000000, 0.000000, 4.000000, 4.000000, 4.000000, 4.000000, 4.000000, 4.000000, 4.000000
39.000000, 0.000000, 4223.076660, 4136.922852, 4220.512695, 4217.436035, 4219.487305, 4230.256348, 4217.436035, 4218.974121, 4201.538574, 4249.743652, 4244.615234, 4206.153809, 4241.538574, 4230.769043, 0.000000, 8174.000000, 8162.000000, 0.000000, 0.000000, 0.000000, -20864.000000, 111.282051, 4.000000, 4.000000, 4.000000, 4.000000, 4.000000, 4.000000, 4.000000, 4.000000, 0.000000, 4.000000, 4.000000, 4.000000, 4.000000, 4.000000, 4.000000, 4.000000
40.000000, 0.000000, 4214.871582, 4131.794922, 4214.871582, 4214.871582, 4216.922852, 4226.666504, 4221.025391, 4222.051270, 4203.076660, 4249.230469, 4245.127930, 4205.641113, 4231.794922, 4220.512695, 0.000000, 8174.000000, 8162.000000, 0.000000, 0.000000, 0.000000, -20864.000000, 118.974358, 4.000000, 4.000000, 4.000000, 4.000000, 4.000000, 4.000000, 4.000000, 4.000000, 0.000000, 4.000000, 4.000000, 4.000000, 4.000000, 4.000000, 4.000000, 4.000000
41.000000, 0.000000, 4215.897461, 4132.307617, 4216.410156, 4216.410156, 4219.487305, 4220.000000, 4215.897461, 4214.358887, 4203.076660, 4248.717773, 4246.153809, 4213.333008, 4238.461426, 4221.025391, 0.000000, 8176.000000, 8156.000000, 0.000000, 0.000000, 0.000000, -20864.000000, 127.179482, 4.000000, 4.000000, 4.000000, 4.000000, 4.000000, 4.000000, 4.000000, 4.000000, 0.000000, 4.000000, 4.000000, 4.000000, 4.000000, 4.000000, 4.000000, 4.000000
42.000000, 0.000000, 4215.897461, 4135.384277, 4214.871582, 4217.436035, 4220.512695, 4222.563965, 4214.358887, 4216.922852, 4203.076660, 4254.871582, 4247.179199, 4215.384277, 4249.230469, 4227.692383, 0.000000, 8176.000000, 8156.000000, 0.000000, 0.000000, 0.000000, -20864.000000, 134.871796, 4.000000, 4.000000, 4.000000, 4.000000, 4.000000, 4.000000, 4.000000, 4.000000, 0.000000, 4.000000, 4.000000, 4.000000, 4.000000, 4.000000, 4.000000, 4.000000
43.000000, 0.000000, 4222.051270, 4137.436035, 4213.846191, 4222.563965, 4224.615234, 4230.256348, 4223.589844, 4230.769043, 4202.563965, 4266.153809, 4250.769043, 4213.333008, 4253.333008, 4233.333008, 0.000000, 8182.000000, 8158.000000, 0.000000, 0.000000, 0.000000, -20864.000000, 142.564102, 4.000000, 4.000000, 4.000000, 4.000000, 4.000000, 4.000000, 4.000000, 4.000000, 0.000000, 4.000000, 4.000000, 4.000000, 4.000000, 4.000000, 4.000000, 4.000000
44.000000, 0.000000, 4231.794922, 4134.871582, 4224.102539, 4226.666504, 4229.230469, 4231.794922, 4231.281738, 4232.307617, 4203.076660, 4261.538574, 4249.743652, 4213.333008, 4249.743652, 4233.846191, 0.000000, 8182.000000, 8158.000000, 0.000000, 0.000000, 0.000000, -20864.000000, 150.769226, 4.000000, 4.000000, 4.000000, 4.000000, 4.000000, 4.000000, 4.000000, 4.000000, 0.000000, 4.000000, 4.000000, 4.000000, 4.000000, 4.000000, 4.000000, 4.000000
45.000000, 0.000000, 4234.358887, 4134.358887, 4230.769043, 4229.743652, 4231.794922, 4232.307617, 4234.358887, 4231.281738, 4204.102539, 4251.794922, 4246.666504, 4215.384277, 4246.666504, 4232.307617, 0.000000, 8185.000000, 8155.000000, 0.000000, 0.000000, 0.000000, -20864.000000, 158.461533, 4.000000, 4.000000, 4.000000, 4.000000, 4.000000, 4.000000, 4.000000, 4.000000, 0.000000, 4.000000, 4.000000, 4.000000, 4.000000, 4.000000, 4.000000, 4.000000
46.000000, 0.000000, 4231.281738, 4140.000000, 4225.641113, 4230.769043, 4233.846191, 4231.281738, 4226.153809, 4232.820313, 4203.589844, 4256.410156, 4247.179199, 4216.922852, 4248.205078, 4231.281738, 0.000000, 8185.000000, 8155.000000, 0.000000, 0.000000, 0.000000, -20864.000000, 166.666656, 4.000000, 4.000000, 4.000000, 4.000000, 4.000000, 4.000000, 4.000000, 4.000000, 0.000000, 4.000000, 4.000000, 4.000000, 4.000000, 4.000000, 4.000000, 4.000000
47.000000, 0.000000, 4228.205078, 4136.410156, 4218.974121, 4222.563965, 4231.281738, 4225.127930, 4218.461426, 4228.717773, 4202.563965, 4257.436035, 4247.179199, 4216.410156, 4248.205078, 4230.769043, 0.000000, 8190.000000, 8157.000000, 0.000000, 0.000000, 0.000000, -20864.000000, 174.358963, 4.000000, 4.000000, 4.000000, 4.000000, 4.000000, 4.000000, 4.000000, 4.000000, 0.000000, 4.000000, 4.000000, 4.000000, 4.000000, 4.000000, 4.000000, 4.000000
48.000000, 0.000000, 4228.205078, 4128.717773, 4217.436035, 4216.922852, 4228.205078, 4224.615234, 4226.666504, 4229.230469, 4203.076660, 4248.205078, 4247.692383, 4216.410156, 4247.692383, 4232.820313, 0.000000, 8190.000000, 8157.000000, 0.000000, 0.000000, 0.000000, -20864.000000, 182.051285, 4.000000, 4.000000, 4.000000, 4.000000, 4.000000, 4.000000, 4.000000, 4.000000, 0.000000, 4.000000, 4.000000, 4.000000, 4.000000, 4.000000, 4.000000, 4.000000
49.000000, 0.000000, 4230.769043, 4128.205078, 4224.615234, 4218.974121, 4228.205078, 4227.179199, 4234.358887, 4240.000000, 4202.563965, 4246.666504, 4248.205078, 4218.461426, 4249.743652, 4233.846191, 0.000000, 8193.000000, 8154.000000, 0.000000, 0.000000, 0.000000, -20864.000000, 190.256409, 4.000000, 4.000000, 4.000000, 4.000000, 4.000000, 4.000000, 4.000000, 4.000000, 0.000000, 4.000000, 4.000000, 4.000000, 4.000000, 4.000000, 4.000000, 4.000000
50.000000, 0.000000, 4230.769043, 4125.127930, 4226.666504, 4218.974121, 4223.589844, 4219.487305, 4228.205078, 4233.333008, 4202.051270, 4248.205078, 4241.025391, 4217.948730, 4248.717773, 4232.307617, 0.000000, 8193.000000, 8154.000000, 0.000000, 0.000000, 0.000000, -20864.000000, 197.948715, 4.000000, 4.000000, 4.000000, 4.000000, 4.000000, 4.000000, 4.000000, 4.000000, 0.000000, 4.000000, 4.000000, 4.000000, 4.000000, 4.000000, 4.000000, 4.000000
51.000000, 0.000000, 4230.256348, 4124.102539, 4225.641113, 4222.563965, 4216.922852, 4212.307617, 4228.205078, 4223.076660, 4202.563965, 4246.153809, 4236.922852, 4217.948730, 4245.641113, 4230.256348, 0.000000, 8197.000000, 8152.000000, 0.000000, 0.000000, 0.000000, -20864.000000, 206.153839, 4.000000, 4.000000, 4.000000, 4.000000, 4.000000, 4.000000, 4.000000, 4.000000, 0.000000, 4.000000, 4.000000, 4.000000, 4.000000, 4.000000, 4.000000, 4.000000
52.000000, 0.000000, 4231.281738, 4126.153809, 4227.692383, 4228.205078, 4216.922852, 4218.974121, 4238.974121, 4229.743652, 4201.025391, 4245.641113, 4240.512695, 4217.948730, 4249.230469, 4229.743652, 0.000000, 8197.000000, 8152.000000, 0.000000, 0.000000, 0.000000, -20864.000000, 213.846146, 4.000000, 4.000000, 4.000000, 4.000000, 4.000000, 4.000000, 4.000000, 4.000000, 0.000000, 4.000000, 4.000000, 4.000000, 4.000000, 4.000000, 4.000000, 4.000000
53.000000, 0.000000, 4229.743652, 4123.589844, 4224.102539, 4222.051270, 4222.051270, 4229.743652, 4240.512695, 4232.820313, 4202.051270, 4244.615234, 4243.589844, 4216.922852, 4250.256348, 4229.743652, 0.000000, 8195.000000, 8149.000000, 0.000000, 0.000000, 0.000000, -20864.000000, 222.051270, 4.000000, 4.000000, 4.000000, 4.000000, 4.000000, 4.000000, 4.000000, 4.000000, 0.000000, 4.000000, 4.000000, 4.000000, 4.000000, 4.000000, 4.000000, 4.000000
54.000000, 0.000000, 4230.769043, 4127.692383, 4224.615234, 4222.051270, 4226.666504, 4231.281738, 4234.871582, 4225.127930, 4204.615234, 4244.615234, 4243.589844, 4218.461426, 4248.205078, 4230.769043, 0.000000, 8195.000000, 8149.000000, 0.000000, 0.000000, 0.000000, -20864.000000, 229.743591, 4.000000, 4.000000, 4.000000, 4.000000, 4.000000, 4.000000, 4.000000, 4.000000, 0.000000, 4.000000, 4.000000, 4.000000, 4.000000, 4.000000, 4.000000, 4.000000
55.000000, 0.000000, 4234.358887, 4130.256348, 4228.717773, 4230.769043, 4224.615234, 4228.205078, 4228.717773, 4217.436035, 4203.589844, 4242.051270, 4240.512695, 4220.512695, 4250.256348, 4231.281738, 0.000000, 8194.000000, 8148.000000, 0.000000, 0.000000, 0.000000, -20864.000000, 237.435898, 4.000000, 4.000000, 4.000000, 4.000000, 4.000000, 4.000000, 4.000000, 4.000000, 0.000000, 4.000000, 4.000000, 4.000000, 4.000000, 4.000000, 4.000000, 4.000000
56.000000, 0.000000, 4234.358887, 4124.102539, 4225.641113, 4227.179199, 4217.436035, 4226.153809, 4225.641113, 4214.358887, 4201.538574, 4233.333008, 4232.820313, 4216.922852, 4248.205078, 4228.717773, 0.000000, 8194.000000, 8148.000000, 0.000000, 0.000000, 0.000000, -20864.000000, 245.128204, 4.000000, 4.000000, 4.000000, 4.000000, 4.000000, 4.000000, 4.000000, 4.000000, 0.000000, 4.000000, 4.000000, 4.000000, 4.000000, 4.000000, 4.000000, 4.000000
57.000000, 0.000000, 4232.820313, 4122.051270, 4222.051270, 4224.102539, 4221.025391, 4227.692383, 4232.820313, 4220.000000, 4203.589844, 4235.897461, 4232.307617, 4215.897461, 4247.179199, 4227.692383, 0.000000, 8201.000000, 8143.000000, 0.000000, 0.000000, 0.000000, -20864.000000, 253.333328, 4.000000, 4.000000, 4.000000, 4.000000, 4.000000, 4.000000, 4.000000, 4.000000, 0.000000, 4.000000, 4.000000, 4.000000, 4.000000, 4.000000, 4.000000, 4.000000
58.000000, 0.000000, 4232.307617, 4125.641113, 4224.615234, 4229.743652, 4229.230469, 4229.743652, 4236.922852, 4217.948730, 4203.589844, 4246.153809, 4242.051270, 4217.948730, 4251.281738, 4228.717773, 0.000000, 8201.000000, 8143.000000, 0.000000, 0.000000, 0.000000, -20864.000000, 261.025635, 4.000000, 4.000000, 4.000000, 4.000000, 4.000000, 4.000000, 4.000000, 4.000000, 0.000000, 4.000000, 4.000000, 4.000000, 4.000000, 4.000000, 4.000000, 4.000000
59.000000, 0.000000, 4230.769043, 4124.102539, 4223.589844, 4226.153809, 4228.205078, 4230.256348, 4232.307617, 4207.692383, 4202.051270, 4246.666504, 4246.666504, 4217.948730, 4250.769043, 4227.692383, 0.000000, 8203.000000, 8146.000000, 0.000000, 0.000000, 0.000000, -20864.000000, 269.230774, 4.000000, 4.000000, 4.000000, 4.000000, 4.000000, 4.000000, 4.000000, 4.000000, 0.000000, 4.000000, 4.000000, 4.000000, 4.000000, 4.000000, 4.000000, 4.000000
60.000000, 0.000000, 4229.230469, 4122.563965, 4216.922852, 4218.461426, 4228.717773, 4230.256348, 4231.281738, 4210.256348, 4201.538574, 4245.127930, 4244.102539, 4216.922852, 4253.333008, 4227.179199, 0.000000, 8203.000000, 8146.000000, 0.000000, 0.000000, 0.000000, -20864.000000, 276.923065, 4.000000, 4.000000, 4.000000, 4.000000, 4.000000, 4.000000, 4.000000, 4.000000, 0.000000, 4.000000, 4.000000, 4.000000, 4.000000, 4.000000, 4.000000, 4.000000
61.000000, 0.000000, 4230.769043, 4124.102539, 4214.358887, 4218.974121, 4227.692383, 4230.769043, 4235.897461, 4218.974121, 4201.538574, 4251.281738, 4247.179199, 4217.436035, 4260.000000, 4231.281738, 0.000000, 8206.000000, 8146.000000, 0.000000, 0.000000, 0.000000, -20864.000000, 285.128204, 4.000000, 4.000000, 4.000000, 4.000000, 4.000000, 4.000000, 4.000000, 4.000000, 0.000000, 4.000000, 4.000000, 4.000000, 4.000000, 4.000000, 4.000000, 4.000000
62.000000, 0.000000, 4226.666504, 4119.487305, 4212.307617, 4216.922852, 4220.512695, 4231.281738, 4232.307617, 4213.333008, 4200.512695, 4246.666504, 4247.179199, 4216.410156, 4253.846191, 4230.256348, 0.000000, 8206.000000, 8146.000000, 0.000000, 0.000000, 0.000000, -20864.000000, 292.820496, 4.000000, 4.000000, 4.000000, 4.000000, 4.000000, 4.000000, 4.000000, 4.000000, 0.000000, 4.000000, 4.000000, 4.000000, 4.000000, 4.000000, 4.000000, 4.000000
63.000000, 0.000000, 4215.897461, 4112.307617, 4207.692383, 4212.820313, 4223.076660, 4232.307617, 4228.205078, 4212.307617, 4201.538574, 4235.897461, 4236.410156, 4209.743652, 4242.051270, 4218.461426, 0.000000, 8214.000000, 8153.000000, 0.000000, 0.000000, 0.000000, -20864.000000, 300.512817, 4.000000, 4.000000, 4.000000, 4.000000, 4.000000, 4.000000, 4.000000, 4.000000, 0.000000, 4.000000, 4.000000, 4.000000, 4.000000, 4.000000, 4.000000, 4.000000
64.000000, 0.000000, 4214.871582, 4115.897461, 4209.230469, 4214.871582, 4228.717773, 4236.410156, 4232.307617, 4222.051270, 4202.563965, 4238.974121, 4229.230469, 4207.692383, 4243.076660, 4216.922852, 3185.000000, 8214.000000, 8153.000000, 0.000000, 0.000000, 0.000000, -20864.000000, 308.717926, 4.000000, 4.000000, 4.000000, 4.000000, 4.000000, 4.000000, 4.000000, 4.000000, 0.000000, 4.000000, 4.000000, 4.000000, 4.000000, 4.000000, 4.000000, 4.000000
65.000000, 0.000000, 4219.487305, 4118.461426, 4211.794922, 4216.410156, 4221.025391, 4236.922852, 4234.358887, 4230.256348, 4203.589844, 4249.743652, 4236.922852, 4213.846191, 4247.179199, 4227.179199, 3535.000000, 8215.000000, 8149.000000, 0.000000, 0.000000, 0.000000, -20864.000000, 316.410248, 4.000000, 4.000000, 4.000000, 4.000000, 4.000000, 4.000000, 4.000000, 4.000000, 0.000000, 4.000000, 4.000000, 4.000000, 4.000000, 4.000000, 4.000000, 4.000000
66.000000, 0.000000, 4218.461426, 4112.820313, 4214.358887, 4216.410156, 4213.333008, 4231.794922, 4233.333008, 4237.436035, 4203.589844, 4255.897461, 4245.127930, 4217.436035, 4247.179199, 4230.256348, 3562.000000, 8215.000000, 8149.000000, 0.000000, 0.000000, 0.000000, -20864.000000, 324.615387, 4.000000, 4.000000, 4.000000, 4.000000, 4.000000, 4.000000, 4.000000, 4.000000, 0.000000, 4.000000, 4.000000, 4.000000, 4.000000, 4.000000, 4.000000, 4.000000
67.000000, 0.000000, 4225.127930, 4118.974121, 4223.076660, 4221.025391, 4218.974121, 4228.717773, 4231.794922, 4227.692383, 4202.563965, 4258.974121, 4247.179199, 4223.589844, 4253.846191, 4232.820313, 2360.000000, 8228.000000, 8149.000000, 0.000000, 0.000000, 0.000000, -20864.000000, 332.307678, 4.000000, 4.000000, 4.000000, 4.000000, 4.000000, 4.000000, 4.000000, 4.000000, 0.000000, 4.000000, 4.000000, 4.000000, 4.000000, 4.000000, 4.000000, 4.000000
68.000000, 0.000000, 4243.589844, 4129.743652, 4227.692383, 4228.205078, 4225.641113, 4230.769043, 4230.769043, 4211.281738, 4202.563965, 4256.410156, 4249.230469, 4230.769043, 4265.641113, 4246.153809, 3548.000000, 8228.000000, 8149.000000, 0.000000, 0.000000, 0.000000, -20864.000000, 340.000000, 4.000000, 4.000000, 4.000000, 4.000000, 4.000000, 4.000000, 4.000000, 4.000000, 0.000000, 4.000000, 4.000000, 4.000000, 4.000000, 4.000000, 4.000000, 4.000000
69.000000, 0.000000, 4249.743652, 4131.794922, 4226.666504, 4233.333008, 4228.717773, 4232.820313, 4233.333008, 4213.333008, 4203.589844, 4248.717773, 4249.743652, 4225.127930, 4266.666504, 4251.281738, 3573.000000, 8235.000000, 8153.000000, 0.000000, 0.000000, 0.000000, -20864.000000, 348.205109, 4.000000, 4.000000, 4.000000, 4.000000, 4.000000, 4.000000, 4.000000, 4.000000, 0.000000, 4.000000, 4.000000, 4.000000, 4.000000, 4.000000, 4.000000, 4.000000
70.000000, 0.000000, 4241.025391, 4128.205078, 4227.179199, 4234.358887, 4228.717773, 4230.769043, 4232.307617, 4219.487305, 4202.563965, 4247.179199, 4246.666504, 4215.384277, 4262.563965, 4244.615234, 3415.000000, 8235.000000, 8153.000000, 0.000000, 0.000000, 0.000000, -20864.000000, 355.897430, 4.000000, 4.000000, 4.000000, 4.000000, 4.000000, 4.000000, 4.000000, 4.000000, 0.000000, 4.000000, 4.000000, 4.000000, 4.000000, 4.000000, 4.000000, 4.000000
71.000000, 0.000000, 4236.410156, 4124.102539, 4228.205078, 4228.717773, 4220.000000, 4228.205078, 4221.538574, 4212.307617, 4201.538574, 4249.743652, 4243.589844, 4212.820313, 4268.205078, 4241.538574, 3508.000000, 8241.000000, 8154.000000, 0.000000, 0.000000, 0.000000, -20864.000000, 364.102570, 4.000000, 4.000000, 4.000000, 4.000000, 4.000000, 4.000000, 4.000000, 4.000000, 0.000000, 4.000000, 4.000000, 4.000000, 4.000000, 4.000000, 4.000000, 4.000000
72.000000, 0.000000, 4236.410156, 4117.436035, 4227.692383, 4224.102539, 4216.410156, 4227.179199, 4215.897461, 4210.256348, 4201.538574, 4248.717773, 4246.153809, 4215.897461, 4277.436035, 4242.563965, 35.000000, 8241.000000, 8154.000000, 0.000000, 0.000000, 0.000000, -20864.000000, 371.794861, 4.000000, 4.000000, 4.000000, 4.000000, 4.000000, 4.000000, 4.000000, 4.000000, 0.000000, 4.000000, 4.000000, 4.000000, 4.000000, 4.000000, 4.000000, 4.000000
73.000000, 0.000000, 4234.871582, 4115.384277, 4229.743652, 4227.692383, 4225.127930, 4225.127930, 4218.461426, 4223.076660, 4202.563965, 4254.871582, 4253.333008, 4223.589844, 4279.487305, 4243.589844, 3030.000000, 8245.000000, 8148.000000, 0.000000, 0.000000, 0.000000, -20864.000000, 379.487183, 4.000000, 4.000000, 4.000000, 4.000000, 4.000000, 4.000000, 4.000000, 4.000000, 0.000000, 4.000000, 4.000000, 4.000000, 4.000000, 4.000000, 4.000000, 4.000000
74.000000, 0.000000, 4233.333008, 4121.025391, 4233.846191, 4232.307617, 4226.153809, 4219.487305, 4217.436035, 4215.384277, 4203.076660, 4263.076660, 4251.794922, 4225.127930, 4278.461426, 4242.051270, 3594.000000, 8245.000000, 8148.000000, 0.000000, 0.000000, 0.000000, -20864.000000, 387.179474, 4.000000, 4.000000, 4.000000, 4.000000, 4.000000, 4.000000, 4.000000, 4.000000, 0.000000, 4.000000, 4.000000, 4.000000, 4.000000, 4.000000, 4.000000, 4.000000
75.000000, 0.000000, 4239.487305, 4120.512695, 4235.384277, 4231.281738, 4219.487305, 4215.897461, 4215.897461, 4201.025391, 4202.051270, 4262.563965, 4250.256348, 4222.563965, 4278.461426, 4241.025391, 3572.000000, 8243.000000, 8142.000000, 0.000000, 0.000000, 0.000000, -20864.000000, 395.384613, 4.000000, 4.000000, 4.000000, 4.000000, 4.000000, 4.000000, 4.000000, 4.000000, 0.000000, 4.000000, 4.000000, 4.000000, 4.000000, 4.000000, 4.000000, 4.000000
76.000000, 0.000000, 4245.127930, 4121.025391, 4237.436035, 4230.769043, 4217.436035, 4222.563965, 4220.512695, 4210.769043, 4201.025391, 4261.538574, 4256.922852, 4226.666504, 4279.487305, 4244.102539, 3522.000000, 8243.000000, 8142.000000, 0.000000, 0.000000, 0.000000, -20864.000000, 403.076904, 4.000000, 4.000000, 4.000000, 4.000000, 4.000000, 4.000000, 4.000000, 4.000000, 0.000000, 4.000000, 4.000000, 4.000000, 4.000000, 4.000000, 4.000000, 4.000000
77.000000, 0.000000, 4236.410156, 4121.538574, 4239.487305, 4230.256348, 4219.487305, 4228.205078, 4225.641113, 4220.512695, 4202.563965, 4262.051270, 4259.487305, 4231.281738, 4276.922852, 4244.102539, 3443.000000, 8235.000000, 8124.000000, 0.000000, 0.000000, 0.000000, -20864.000000, 411.282043, 4.000000, 4.000000, 4.000000, 4.000000, 4.000000, 4.000000, 4.000000, 4.000000, 0.000000, 4.000000, 4.000000, 4.000000, 4.000000, 4.000000, 4.000000, 4.000000
78.000000, 0.000000, 4232.307617, 4117.948730, 4236.410156, 4230.769043, 4223.076660, 4229.230469, 4230.769043, 4222.563965, 4203.589844, 4262.051270, 4258.974121, 4229.743652, 4276.410156, 4243.589844, 3594.000000, 8235.000000, 8124.000000, 0.000000, 0.000000, 0.000000, -20864.000000, 419.487183, 4.000000, 4.000000, 4.000000, 4.000000, 4.000000, 4.000000, 4.000000, 4.000000, 0.000000, 4.000000, 4.000000, 4.000000, 4.000000, 4.000000, 4.000000, 4.000000
79.000000, 0.000000, 4243.076660, 4127.179199, 4234.358887, 4233.333008, 4229.743652, 4232.307617, 4233.846191, 4231.794922, 4203.076660, 4257.948730, 4263.589844, 4230.769043, 4277.948730, 4245.127930, 3572.000000, 8230.000000, 8134.000000, 0.000000, 0.000000, 0.000000, -20864.000000, 427.179474, 4.000000, 4.000000, 4.000000, 4.000000, 4.000000, 4.000000, 4.000000, 4.000000, 0.000000, 4.000000, 4.000000, 4.000000, 4.000000, 4.000000, 4.000000, 4.000000
80.000000, 0.000000, 4250.769043, 4144.615234, 4236.922852, 4234.358887, 4233.333008, 4231.281738, 4230.769043, 4234.358887, 4203.076660, 4251.794922, 4267.692383, 4235.897461, 4268.717773, 4249.743652, 3522.000000, 8230.000000, 8134.000000, 0.000000, 0.000000, 0.000000, -20864.000000, 435.384613, 4.000000, 4.000000, 4.000000, 4.000000, 4.000000, 4.000000, 4.000000, 4.000000, 0.000000, 4.000000, 4.000000, 4.000000, 4.000000, 4.000000, 4.000000, 4.000000
81.000000, 0.000000, 4249.230469, 4155.897461, 4239.487305, 4234.358887, 4233.333008, 4227.692383, 4231.281738, 4226.153809, 4203.589844, 4247.692383, 4267.179199, 4239.487305, 4249.743652, 4256.922852, 3443.000000, 8221.000000, 8142.000000, 0.000000, 0.000000, 0.000000, -20864.000000, 443.076904, 4.000000, 4.000000, 4.000000, 4.000000, 4.000000, 4.000000, 4.000000, 4.000000, 0.000000, 4.000000, 4.000000, 4.000000, 4.000000, 4.000000, 4.000000, 4.000000
82.000000, 0.000000, 4252.307617, 4166.153809, 4243.589844, 4237.436035, 4236.410156, 4230.256348, 4235.897461, 4229.230469, 4203.589844, 4249.230469, 4268.205078, 4237.948730, 4233.333008, 4261.025391, 3594.000000, 8221.000000, 8142.000000, 0.000000, 0.000000, 0.000000, -20864.000000, 451.282043, 4.000000, 4.000000, 4.000000, 4.000000, 4.000000, 4.000000, 4.000000, 4.000000, 0.000000, 4.000000, 4.000000, 4.000000, 4.000000, 4.000000, 4.000000, 4.000000
83.000000, 0.000000, 4257.436035, 4178.974121, 4246.666504, 4244.102539, 4237.436035, 4232.820313, 4235.384277, 4235.897461, 4203.076660, 4251.281738, 4268.205078, 4233.846191, 4223.076660, 4260.000000, 3572.000000, 8212.000000, 8150.000000, 0.000000, 0.000000, 0.000000, -20864.000000, 458.974335, 4.000000, 4.000000, 4.000000, 4.000000, 4.000000, 4.000000, 4.000000, 4.000000, 0.000000, 4.000000, 4.000000, 4.000000, 4.000000, 4.000000, 4.000000, 4.000000
84.000000, 0.000000, 4254.358887, 4188.205078, 4244.102539, 4247.692383, 4234.358887, 4229.743652, 4231.281738, 4237.948730, 4203.076660, 4250.769043, 4265.641113, 4235.384277, 4215.384277, 4258.974121, 3522.000000, 8212.000000, 8150.000000, 0.000000, 0.000000, 0.000000, -20864.000000, 467.179474, 4.000000, 4.000000, 4.000000, 4.000000, 4.000000, 4.000000, 4.000000, 4.000000, 0.000000, 4.000000, 4.000000, 4.000000, 4.000000, 4.000000, 4.000000, 4.000000
85.000000, 0.000000, 4248.205078, 4189.230469, 4238.974121, 4241.538574, 4231.794922, 4230.256348, 4233.333008, 4242.051270, 4203.076660, 4243.589844, 4263.589844, 4235.897461, 4210.256348, 4261.538574, 3443.000000, 8205.000000, 8145.000000, 0.000000, 0.000000, 0.000000, -20864.000000, 474.871796, 4.000000, 4.000000, 4.000000, 4.000000, 4.000000, 4.000000, 4.000000, 4.000000, 0.000000, 4.000000, 4.000000, 4.000000, 4.000000, 4.000000, 4.000000, 4.000000
86.000000, 0.000000, 4246.666504, 4187.692383, 4238.974121, 4233.846191, 4231.794922, 4232.820313, 4236.410156, 4243.076660, 4203.076660, 4234.358887, 4262.051270, 4232.307617, 4209.743652, 4259.487305, 3594.000000, 8205.000000, 8145.000000, 0.000000, 0.000000, 0.000000, -20864.000000, 483.076904, 4.000000, 4.000000, 4.000000, 4.000000, 4.000000, 4.000000, 4.000000, 4.000000, 0.000000, 4.000000, 4.000000, 4.000000, 4.000000, 4.000000, 4.000000, 4.000000
87.000000, 0.000000, 4247.179199, 4189.230469, 4240.512695, 4233.333008, 4233.333008, 4232.820313, 4243.589844, 4248.717773, 4203.589844, 4231.794922, 4258.974121, 4234.358887, 4206.666504, 4252.820313, 3572.000000, 8189.000000, 8146.000000, 0.000000, 0.000000, 0.000000, -20864.000000, 491.282043, 4.000000, 4.000000, 4.000000, 4.000000, 4.000000, 4.000000, 4.000000, 4.000000, 0.000000, 4.000000, 4.000000, 4.000000, 4.000000, 4.000000, 4.000000, 4.000000
88.000000, 0.000000, 4241.538574, 4191.794922, 4235.384277, 4235.897461, 4233.333008, 4234.871582, 4249.230469, 4250.769043, 4203.589844, 4231.794922, 4250.256348, 4228.717773, 4203.076660, 4248.717773, 3522.000000, 8189.000000, 8146.000000, 0.000000, 0.000000, 0.000000, -20864.000000, 498.974335, 4.000000, 4.000000, 4.000000, 4.000000, 4.000000, 4.000000, 4.000000, 4.000000, 0.000000, 4.000000, 4.000000, 4.000000, 4.000000, 4.000000, 4.000000, 4.000000
89.000000, 0.000000, 4234.358887, 4193.333008, 4231.794922, 4235.384277, 4232.307617, 4234.871582, 4239.487305, 4237.436035, 4203.076660, 4226.153809, 4247.179199, 4215.897461, 4207.692383, 4248.717773, 3443.000000, 8179.000000, 8147.000000, 0.000000, 0.000000, 0.000000, -20864.000000, 507.179474, 4.000000, 4.000000, 4.000000, 4.000000, 4.000000, 4.000000, 4.000000, 4.000000, 0.000000, 4.000000, 4.000000, 4.000000, 4.000000, 4.000000, 4.000000, 4.000000
90.000000, 0.000000, 4231.794922, 4191.281738, 4231.794922, 4232.307617, 4229.230469, 4231.794922, 4231.794922, 4231.281738, 4203.589844, 4227.692383, 4254.358887, 4220.512695, 4215.384277, 4248.717773, 3594.000000, 8179.000000, 8147.000000, 0.000000, 0.000000, 0.000000, -20864.000000, 514.871765, 4.000000, 4.000000, 4.000000, 4.000000, 4.000000, 4.000000, 4.000000, 4.000000, 0.000000, 4.000000, 4.000000, 4.000000, 4.000000, 4.000000, 4.000000, 4.000000
91.000000, 0.000000, 4232.307617, 4188.205078, 4227.179199, 4230.256348, 4226.666504, 4233.333008, 4242.051270, 4246.153809, 4203.076660, 4231.794922, 4255.897461, 4230.769043, 4214.871582, 4247.692383, 3572.000000, 8176.000000, 8136.000000, 0.000000, 0.000000, 0.000000, -20864.000000, 523.076904, 4.000000, 4.000000, 4.000000, 4.000000, 4.000000, 4.000000, 4.000000, 4.000000, 0.000000, 4.000000, 4.000000, 4.000000, 4.000000, 4.000000, 4.000000, 4.000000
92.000000, 0.000000, 4231.281738, 4187.692383, 4220.512695, 4231.281738, 4227.692383, 4235.897461, 4248.717773, 4253.333008, 4202.563965, 4223.589844, 4248.205078, 4224.615234, 4214.358887, 4246.153809, 3522.000000, 8176.000000, 8136.000000, 0.000000, 0.000000, 0.000000, -20864.000000, 530.769226, 4.000000, 4.000000, 4.000000, 4.000000, 4.000000, 4.000000, 4.000000, 4.000000, 0.000000, 4.000000, 4.000000, 4.000000, 4.000000, 4.000000, 4.000000, 4.000000
93.000000, 0.000000, 4227.692383, 4184.615234, 4221.538574, 4230.256348, 4229.743652, 4234.358887, 4238.974121, 4240.000000, 4201.538574, 4219.487305, 4245.127930, 4214.871582, 4217.436035, 4245.641113, 3443.000000, 8162.000000, 8132.000000, 0.000000, 0.000000, 0.000000, -20864.000000, 538.974365, 4.000000, 4.000000, 4.000000, 4.000000, 4.000000, 4.000000, 4.000000, 4.000000, 0.000000, 4.000000, 4.000000, 4.000000, 4.000000, 4.000000, 4.000000, 4.000000
94.000000, 0.000000, 4234.358887, 4185.641113, 4230.256348, 4229.743652, 4228.205078, 4232.307617, 4231.794922, 4229.743652, 4200.512695, 4226.666504, 4246.153809, 4221.538574, 4218.461426, 4245.641113, 3594.000000, 8162.000000, 8132.000000, 0.000000, 0.000000, 0.000000, -20864.000000, 547.179443, 4.000000, 4.000000, 4.000000, 4.000000, 4.000000, 4.000000, 4.000000, 4.000000, 0.000000, 4.000000, 4.000000, 4.000000, 4.000000, 4.000000, 4.000000, 4.000000
95.000000, 0.000000, 4248.205078, 4192.307617, 4240.000000, 4238.461426, 4229.743652, 4231.794922, 4233.333008, 4232.307617, 4202.051270, 4230.256348, 4253.333008, 4232.307617, 4224.102539, 4249.743652, 3572.000000, 8164.000000, 8138.000000, 0.000000, 0.000000, 0.000000, -20864.000000, 554.871765, 4.000000, 4.000000, 4.000000, 4.000000, 4.000000, 4.000000, 4.000000, 4.000000, 0.000000, 4.000000, 4.000000, 4.000000, 4.000000, 4.000000, 4.000000, 4.000000
96.000000, 0.000000, 4252.307617, 4191.281738, 4243.076660, 4245.127930, 4234.358887, 4230.769043, 4232.820313, 4237.436035, 4204.102539, 4232.307617, 4259.487305, 4235.897461, 4233.333008, 4256.410156, 3522.000000, 8164.000000, 8138.000000, 0.000000, 0.000000, 0.000000, -20864.000000, 562.564087, 4.000000, 4.000000, 4.000000, 4.000000, 4.000000, 4.000000, 4.000000, 4.000000, 0.000000, 4.000000, 4.000000, 4.000000, 4.000000, 4.000000, 4.000000, 4.000000
97.000000, 0.000000, 4245.641113, 4184.102539, 4242.563965, 4237.436035, 4229.230469, 4228.717773, 4230.769043, 4230.769043, 4202.563965, 4230.769043, 4253.846191, 4235.384277, 4232.307617, 4255.897461, 3443.000000, 8163.000000, 8140.000000, 0.000000, 0.000000, 0.000000, -20864.000000, 570.769226, 4.000000, 4.000000, 4.000000, 4.000000, 4.000000, 4.000000, 4.000000, 4.000000, 0.000000, 4.000000, 4.000000, 4.000000, 4.000000, 4.000000, 4.000000, 4.000000
98.000000, 0.000000, 4243.076660, 4180.000000, 4239.487305, 4230.769043, 4221.025391, 4227.692383, 4230.769043, 4220.000000, 4200.000000, 4221.025391, 4244.102539, 4231.794922, 4227.692383, 4248.205078, 3594.000000, 8163.000000, 8140.000000, 0.000000, 0.000000, 0.000000, -20864.000000, 578.974365, 4.000000, 4.000000, 4.000000, 4.000000, 4.000000, 4.000000, 4.000000, 4.000000, 0.000000, 4.000000, 4.000000, 4.000000, 4.000000, 4.000000, 4.000000, 4.000000
99.000000, 0.000000, 4246.666504, 4184.102539, 4237.436035, 4233.333008, 4226.153809, 4230.769043, 4228.205078, 4226.153809, 4200.512695, 4221.538574, 4245.641113, 4230.769043, 4230.769043, 4247.179199, 3572.000000, 8156.000000, 8139.000000, 0.000000, 0.000000, 0.000000, -20864.000000, 586.666626, 4.000000, 4.000000, 4.000000, 4.000000, 4.000000, 4.000000, 4.000000, 4.000000, 0.000000, 4.000000, 4.000000, 4.000000, 4.000000, 4.000000, 4.000000, 4.000000
100.000000, 0.000000, 4248.717773, 4188.205078, 4238.461426, 4235.384277, 4233.333008, 4232.307617, 4222.051270, 4231.794922, 4201.025391, 4230.769043, 4248.205078, 4229.743652, 4233.846191, 4248.717773, 3522.000000, 8156.000000, 8139.000000, 0.000000, 0.000000, 0.000000, -20864.000000, 594.871765, 4.000000, 4.000000, 4.000000, 4.000000, 4.000000, 4.000000, 4.000000, 4.000000, 0.000000, 4.000000, 4.000000, 4.000000, 4.000000, 4.000000, 4.000000, 4.000000
101.000000, 0.000000, 4247.179199, 4182.563965, 4236.410156, 4232.820313, 4228.717773, 4226.153809, 4217.436035, 4220.000000, 4201.538574, 4227.692383, 4246.153809, 4226.666504, 4231.281738, 4246.666504, 3443.000000, 8156.000000, 8151.000000, 0.000000, 0.000000, 0.000000, -20864.000000, 602.564087, 4.000000, 4.000000, 4.000000, 4.000000, 4.000000, 4.000000, 4.000000, 4.000000, 0.000000, 4.000000, 4.000000, 4.000000, 4.000000, 4.000000, 4.000000, 4.000000
102.000000, 0.000000, 4246.153809, 4179.487305, 4237.948730, 4233.333008, 4225.641113, 4219.487305, 4217.436035, 4212.307617, 4203.589844, 4226.153809, 4247.692383, 4228.205078, 4231.794922, 4248.205078, 3594.000000, 8156.000000, 8151.000000, 0.000000, 0.000000, 0.000000, -20864.000000, 610.769226, 4.000000, 4.000000, 4.000000, 4.000000, 4.000000, 4.000000, 4.000000, 4.000000, 0.000000, 4.000000, 4.000000, 4.000000, 4.000000, 4.000000, 4.000000, 4.000000
103.000000, 0.000000, 4245.127930, 4181.538574, 4239.487305, 4233.846191, 4227.179199, 4221.538574, 4224.102539, 4219.487305, 4204.615234, 4232.307617, 4244.102539, 4228.205078, 4231.281738, 4245.641113, 3572.000000, 8156.000000, 8151.000000, 0.000000, 0.000000, 0.000000, -20864.000000, 618.461548, 4.000000, 4.000000, 4.000000, 4.000000, 4.000000, 4.000000, 4.000000, 4.000000, 0.000000, 4.000000, 4.000000, 4.000000, 4.000000, 4.000000, 4.000000, 4.000000
104.000000, 0.000000, 4243.076660, 4178.974121, 4236.410156, 4231.281738, 4226.666504, 4229.743652, 4230.256348, 4216.410156, 4202.563965, 4230.769043, 4235.384277, 4221.538574, 4227.179199, 4242.563965, 3522.000000, 8156.000000, 8151.000000, 0.000000, 0.000000, 0.000000, -20864.000000, 626.666626, 4.000000, 4.000000, 4.000000, 4.000000, 4.000000, 4.000000, 4.000000, 4.000000, 0.000000, 4.000000, 4.000000, 4.000000, 4.000000, 4.000000, 4.000000, 4.000000
105.000000, 0.000000, 4246.666504, 4176.922852, 4237.436035, 4231.794922, 4229.743652, 4228.717773, 4225.641113, 4201.025391, 4202.051270, 4229.230469, 4234.358887, 4218.974121, 4228.205078, 4245.641113, 3443.000000, 8164.000000, 8154.000000, 0.000000, 0.000000, 0.000000, -20864.000000, 634.358948, 4.000000, 4.000000, 4.000000, 4.000000, 4.000000, 4.000000, 4.000000, 4.000000, 0.000000, 4.000000, 4.000000, 4.000000, 4.000000, 4.000000, 4.000000, 4.000000
106.000000, 0.000000, 4251.794922, 4178.461426, 4239.487305, 4236.922852, 4229.230469, 4220.000000, 4216.922852, 4201.538574, 4202.563965, 4233.846191, 4235.384277, 4219.487305, 4234.358887, 4243.076660, 3594.000000, 8164.000000, 8154.000000, 0.000000, 0.000000, 0.000000, -20864.000000, 642.564087, 4.000000, 4.000000, 4.000000, 4.000000, 4.000000, 4.000000, 4.000000, 4.000000, 0.000000, 4.000000, 4.000000, 4.000000, 4.000000, 4.000000, 4.000000, 4.000000
107.000000, 0.000000, 4247.692383, 4173.333008, 4237.436035, 4230.256348, 4218.974121, 4215.384277, 4217.436035, 4215.384277, 4202.051270, 4233.333008, 4232.307617, 4215.384277, 4232.307617, 4233.333008, 3572.000000, 8160.000000, 8168.000000, 0.000000, 0.000000, 0.000000, -20864.000000, 650.256409, 4.000000, 4.000000, 4.000000, 4.000000, 4.000000, 4.000000, 4.000000, 4.000000, 0.000000, 4.000000, 4.000000, 4.000000, 4.000000, 4.000000, 4.000000, 4.000000
108.000000, 0.000000, 4240.512695, 4164.615234, 4230.256348, 4219.487305, 4213.846191, 4214.871582, 4218.974121, 4215.897461, 4202.051270, 4228.205078, 4227.692383, 4211.281738, 4226.666504, 4228.717773, 3522.000000, 8160.000000, 8168.000000, 0.000000, 0.000000, 0.000000, -20864.000000, 658.461548, 4.000000, 4.000000, 4.000000, 4.000000, 4.000000, 4.000000, 4.000000, 4.000000, 0.000000, 4.000000, 4.000000, 4.000000, 4.000000, 4.000000, 4.000000, 4.000000
109.000000, 0.000000, 4243.076660, 4166.153809, 4229.743652, 4224.615234, 4223.076660, 4218.461426, 4214.871582, 4207.179199, 4201.025391, 4231.281738, 4228.717773, 4215.384277, 4230.256348, 4230.769043, 3443.000000, 8161.000000, 8175.000000, 0.000000, 0.000000, 0.000000, -20864.000000, 666.153809, 4.000000, 4.000000, 4.000000, 4.000000, 4.000000, 4.000000, 4.000000, 4.000000, 0.000000, 4.000000, 4.000000, 4.000000, 4.000000, 4.000000, 4.000000, 4.000000
110.000000, 0.000000, 4249.230469, 4172.307617, 4241.538574, 4234.358887, 4231.794922, 4229.743652, 4218.974121, 4212.307617, 4201.025391, 4242.051270, 4236.922852, 4225.641113, 4235.384277, 4234.871582, 3594.000000, 8161.000000, 8175.000000, 0.000000, 0.000000, 0.000000, -20864.000000, 674.358948, 4.000000, 4.000000, 4.000000, 4.000000, 4.000000, 4.000000, 4.000000, 4.000000, 0.000000, 4.000000, 4.000000, 4.000000, 4.000000, 4.000000, 4.000000, 4.000000
111.000000, 0.000000, 4250.256348, 4171.794922, 4244.102539, 4233.846191, 4230.769043, 4230.256348, 4220.512695, 4225.127930, 4203.076660, 4249.230469, 4244.615234, 4228.205078, 4236.922852, 4237.948730, 3572.000000, 8162.000000, 8195.000000, 0.000000, 0.000000, 0.000000, -20864.000000, 682.051270, 4.000000, 4.000000, 4.000000, 4.000000, 4.000000, 4.000000, 4.000000, 4.000000, 0.000000, 4.000000, 4.000000, 4.000000, 4.000000, 4.000000, 4.000000, 4.000000
112.000000, 0.000000, 4248.205078, 4172.820313, 4235.897461, 4229.743652, 4228.205078, 4219.487305, 4216.410156, 4227.692383, 4205.127930, 4250.769043, 4245.127930, 4220.512695, 4236.922852, 4234.358887, 3522.000000, 8162.000000, 8195.000000, 0.000000, 0.000000, 0.000000, -20864.000000, 690.256409, 4.000000, 4.000000, 4.000000, 4.000000, 4.000000, 4.000000, 4.000000, 4.000000, 0.000000, 4.000000, 4.000000, 4.000000, 4.000000, 4.000000, 4.000000, 4.000000
113.000000, 0.000000, 4247.692383, 4180.512695, 4234.358887, 4232.820313, 4231.794922, 4224.615234, 4224.102539, 4228.717773, 4204.102539, 4250.256348, 4241.025391, 4216.410156, 4235.897461, 4230.256348, 3443.000000, 8165.000000, 8208.000000, 0.000000, 0.000000, 0.000000, -20864.000000, 697.948730, 4.000000, 4.000000, 4.000000, 4.000000, 4.000000, 4.000000, 4.000000, 4.000000, 0.000000, 4.000000, 4.000000, 4.000000, 4.000000, 4.000000, 4.000000, 4.000000
114.000000, 0.000000, 4248.717773, 4184.102539, 4238.461426, 4237.436035, 4232.307617, 4232.820313, 4231.794922, 4229.743652, 4202.051270, 4251.794922, 4237.436035, 4218.974121, 4230.769043, 4234.871582, 3594.000000, 8165.000000, 8208.000000, 0.000000, 0.000000, 0.000000, -20864.000000, 706.153809, 4.000000, 4.000000, 4.000000, 4.000000, 4.000000, 4.000000, 4.000000, 4.000000, 0.000000, 4.000000, 4.000000, 4.000000, 4.000000, 4.000000, 4.000000, 4.000000
115.000000, 0.000000, 4246.153809, 4172.307617, 4237.436035, 4231.281738, 4218.974121, 4221.538574, 4222.051270, 4223.076660, 4202.563965, 4244.102539, 4231.794922, 4219.487305, 4220.000000, 4236.922852, 3572.000000, 8171.000000, 8219.000000, 0.000000, 0.000000, 0.000000, -20864.000000, 713.846130, 4.000000, 4.000000, 4.000000, 4.000000, 4.000000, 4.000000, 4.000000, 4.000000, 0.000000, 4.000000, 4.000000, 4.000000, 4.000000, 4.000000, 4.000000, 4.000000
116.000000, 0.000000, 4243.589844, 4162.051270, 4234.358887, 4225.127930, 4214.358887, 4214.358887, 4214.358887, 4220.000000, 4203.076660, 4234.871582, 4229.230469, 4222.563965, 4212.820313, 4232.820313, 3522.000000, 8171.000000, 8219.000000, 0.000000, 0.000000, 0.000000, -20864.000000, 722.051270, 4.000000, 4.000000, 4.000000, 4.000000, 4.000000, 4.000000, 4.000000, 4.000000, 0.000000, 4.000000, 4.000000, 4.000000, 4.000000, 4.000000, 4.000000, 4.000000
117.000000, 0.000000, 4247.179199, 4173.333008, 4237.948730, 4230.256348, 4224.615234, 4222.563965, 4223.076660, 4227.179199, 4202.563965, 4238.461426, 4233.846191, 4231.794922, 4214.871582, 4235.384277, 3443.000000, 8182.000000, 8231.000000, 0.000000, 0.000000, 0.000000, -20864.000000, 729.743591, 4.000000, 4.000000, 4.000000, 4.000000, 4.000000, 4.000000, 4.000000, 4.000000, 0.000000, 4.000000, 4.000000, 4.000000, 4.000000, 4.000000, 4.000000, 4.000000
118.000000, 0.000000, 4255.897461, 4189.743652, 4242.051270, 4238.974121, 4228.205078, 4229.743652, 4233.846191, 4234.358887, 4202.563965, 4246.666504, 4237.948730, 4232.307617, 4218.974121, 4245.127930, 3594.000000, 8182.000000, 8231.000000, 0.000000, 0.000000, 0.000000, -20864.000000, 737.948669, 4.000000, 4.000000, 4.000000, 4.000000, 4.000000, 4.000000, 4.000000, 4.000000, 0.000000, 4.000000, 4.000000, 4.000000, 4.000000, 4.000000, 4.000000, 4.000000
