title:winkLeft16, recorded:17.05.18 22.05.31, timestamp started:2018-05-12T20:28:52.032863+02:00            , sampling:128, subject:Noé, labels:COUNTER INTERPOLATED AF3 F7 F3 FC5 T7 P7 O1 O2 P8 T8 FC6 F4 F8 AF4 RAW_CQ GYROX GYROY MARKER MARKER_HARDWARE SYNC TIME_STAMP_s TIME_STAMP_ms CQ_AF3 CQ_F7 CQ_F3 CQ_FC5 CQ_T7 CQ_P7 CQ_O1 CQ_O2 CQ_P8 CQ_T8 CQ_FC6 CQ_F4 CQ_F8 CQ_AF4 CQ_CMS CQ_DRL, chan:40, samples:2024, units:emotiv
122.000000, 0.000000, 4178.974121, 4202.563965, 4216.922852, 4208.717773, 4210.256348, 4216.410156, 4204.102539, 4204.102539, 4219.487305, 4132.307617, 4205.641113, 4191.794922, 4185.127930, 4206.666504, 3538.000000, 8168.000000, 8190.000000, 0.000000, 0.000000, 0.000000, -20953.000000, 796.923035, 4.000000, 4.000000, 4.000000, 4.000000, 4.000000, 4.000000, 4.000000, 4.000000, 4.000000, 4.000000, 4.000000, 4.000000, 4.000000, 4.000000, 4.000000, 4.000000
123.000000, 0.000000, 4178.461426, 4199.487305, 4212.307617, 4202.563965, 4203.589844, 4207.692383, 4196.922852, 4191.794922, 4213.846191, 4132.307617, 4207.179199, 4190.769043, 4184.102539, 4204.102539, 530.000000, 8164.000000, 8187.000000, 0.000000, 0.000000, 0.000000, -20953.000000, 805.128174, 4.000000, 4.000000, 4.000000, 4.000000, 4.000000, 4.000000, 4.000000, 4.000000, 4.000000, 4.000000, 4.000000, 4.000000, 4.000000, 4.000000, 4.000000, 4.000000
124.000000, 0.000000, 4173.846191, 4198.461426, 4202.051270, 4200.000000, 4199.487305, 4196.922852, 4189.743652, 4183.589844, 4207.179199, 4122.563965, 4207.179199, 4188.205078, 4186.666504, 4203.589844, 3480.000000, 8164.000000, 8187.000000, 0.000000, 0.000000, 0.000000, -20953.000000, 812.820496, 4.000000, 4.000000, 4.000000, 4.000000, 4.000000, 4.000000, 4.000000, 4.000000, 4.000000, 4.000000, 4.000000, 4.000000, 4.000000, 4.000000, 4.000000, 4.000000
125.000000, 0.000000, 4171.281738, 4202.051270, 4199.487305, 4202.051270, 4199.487305, 4199.487305, 4197.436035, 4185.127930, 4209.743652, 4114.358887, 4208.205078, 4188.717773, 4187.179199, 4204.615234, 3402.000000, 8162.000000, 8193.000000, 0.000000, 0.000000, 0.000000, -20953.000000, 820.512817, 4.000000, 4.000000, 4.000000, 4.000000, 4.000000, 4.000000, 4.000000, 4.000000, 4.000000, 4.000000, 4.000000, 4.000000, 4.000000, 4.000000, 4.000000, 4.000000
126.000000, 0.000000, 4170.256348, 4195.897461, 4206.153809, 4201.538574, 4202.051270, 4211.281738, 4206.666504, 4193.333008, 4216.922852, 4115.384277, 4213.333008, 4192.820313, 4184.615234, 4204.102539, 3538.000000, 8162.000000, 8193.000000, 0.000000, 0.000000, 0.000000, -20953.000000, 828.717957, 4.000000, 4.000000, 4.000000, 4.000000, 4.000000, 4.000000, 4.000000, 4.000000, 4.000000, 4.000000, 4.000000, 4.000000, 4.000000, 4.000000, 4.000000, 4.000000
127.000000, 0.000000, 4170.256348, 4192.307617, 4207.179199, 4200.512695, 4195.384277, 4211.281738, 4202.051270, 4201.025391, 4217.436035, 4112.307617, 4214.358887, 4189.230469, 4183.076660, 4205.641113, 54.000000, 8156.000000, 8186.000000, 0.000000, 0.000000, 0.000000, -20953.000000, 836.410217, 4.000000, 4.000000, 4.000000, 4.000000, 4.000000, 4.000000, 4.000000, 4.000000, 4.000000, 4.000000, 4.000000, 4.000000, 4.000000, 4.000000, 4.000000, 4.000000
0.000000, 0.000000, 4176.922852, 4201.025391, 4200.512695, 4205.127930, 4190.769043, 4203.076660, 4197.948730, 4201.025391, 4218.461426, 4098.974121, 4207.692383, 4180.512695, 4186.153809, 4203.589844, 3357.000000, 8156.000000, 8186.000000, 0.000000, 0.000000, 0.000000, -20953.000000, 844.102539, 4.000000, 4.000000, 4.000000, 4.000000, 4.000000, 4.000000, 4.000000, 4.000000, 4.000000, 4.000000, 4.000000, 4.000000, 4.000000, 4.000000, 4.000000, 4.000000
1.000000, 0.000000, 4178.461426, 4207.692383, 4198.974121, 4209.743652, 4203.076660, 4201.025391, 4200.512695, 4203.076660, 4222.051270, 4084.615234, 4204.615234, 4177.948730, 4187.692383, 4204.102539, 3506.000000, 8163.000000, 8185.000000, 0.000000, 0.000000, 0.000000, -20953.000000, 851.794861, 4.000000, 4.000000, 4.000000, 4.000000, 4.000000, 4.000000, 4.000000, 4.000000, 4.000000, 4.000000, 4.000000, 4.000000, 4.000000, 4.000000, 4.000000, 4.000000
2.000000, 0.000000, 4172.820313, 4203.589844, 4202.563965, 4205.641113, 4207.692383, 4203.076660, 4193.846191, 4202.563965, 4221.538574, 4073.333252, 4198.461426, 4173.333008, 4175.897461, 4200.000000, 2532.000000, 8163.000000, 8185.000000, 0.000000, 0.000000, 0.000000, -20953.000000, 860.000000, 4.000000, 4.000000, 4.000000, 4.000000, 4.000000, 4.000000, 4.000000, 4.000000, 4.000000, 4.000000, 4.000000, 4.000000, 4.000000, 4.000000, 4.000000, 4.000000
3.000000, 0.000000, 4164.615234, 4199.487305, 4198.461426, 4198.974121, 4201.025391, 4201.538574, 4186.153809, 4192.307617, 4216.410156, 4070.256348, 4190.256348, 4168.717773, 4168.717773, 4196.922852, 2146.000000, 8161.000000, 8180.000000, 0.000000, 0.000000, 0.000000, -20953.000000, 867.692261, 4.000000, 4.000000, 4.000000, 4.000000, 4.000000, 4.000000, 4.000000, 4.000000, 4.000000, 4.000000, 4.000000, 4.000000, 4.000000, 4.000000, 4.000000, 4.000000
4.000000, 0.000000, 4161.538574, 4200.000000, 4195.384277, 4200.000000, 4206.666504, 4198.974121, 4191.794922, 4187.692383, 4211.281738, 4068.717773, 4191.794922, 4175.384277, 4174.358887, 4201.025391, 3536.000000, 8161.000000, 8180.000000, 0.000000, 0.000000, 0.000000, -20953.000000, 875.384583, 4.000000, 4.000000, 4.000000, 4.000000, 4.000000, 4.000000, 4.000000, 4.000000, 4.000000, 4.000000, 4.000000, 4.000000, 4.000000, 4.000000, 4.000000, 4.000000
5.000000, 0.000000, 4165.641113, 4200.512695, 4200.512695, 4205.127930, 4212.307617, 4201.538574, 4197.436035, 4194.358887, 4211.281738, 4062.563965, 4198.461426, 4181.025391, 4178.461426, 4198.461426, 3542.000000, 8167.000000, 8176.000000, 0.000000, 0.000000, 0.000000, -20953.000000, 883.589722, 4.000000, 4.000000, 4.000000, 4.000000, 4.000000, 4.000000, 4.000000, 4.000000, 4.000000, 4.000000, 4.000000, 4.000000, 4.000000, 4.000000, 4.000000, 4.000000
6.000000, 0.000000, 4167.692383, 4203.076660, 4204.102539, 4210.256348, 4205.127930, 4206.666504, 4202.051270, 4200.512695, 4214.871582, 4062.051270, 4199.487305, 4181.025391, 4181.538574, 4200.000000, 3127.000000, 8167.000000, 8176.000000, 0.000000, 0.000000, 0.000000, -20953.000000, 891.282043, 4.000000, 4.000000, 4.000000, 4.000000, 4.000000, 4.000000, 4.000000, 4.000000, 4.000000, 4.000000, 4.000000, 4.000000, 4.000000, 4.000000, 4.000000, 4.000000
7.000000, 0.000000, 4171.794922, 4202.563965, 4205.127930, 4211.794922, 4199.487305, 4207.179199, 4204.102539, 4202.563965, 4216.922852, 4067.692139, 4198.461426, 4183.076660, 4185.641113, 4203.076660, 3513.000000, 8167.000000, 8176.000000, 0.000000, 0.000000, 0.000000, -20953.000000, 899.487183, 4.000000, 4.000000, 4.000000, 4.000000, 4.000000, 4.000000, 4.000000, 4.000000, 4.000000, 4.000000, 4.000000, 4.000000, 4.000000, 4.000000, 4.000000, 4.000000
8.000000, 0.000000, 4173.846191, 4201.025391, 4206.153809, 4210.769043, 4201.538574, 4199.487305, 4190.256348, 4196.410156, 4217.948730, 4074.871582, 4203.076660, 4186.153809, 4188.717773, 4202.563965, 3521.000000, 8167.000000, 8176.000000, 0.000000, 0.000000, 0.000000, -20953.000000, 907.179443, 4.000000, 4.000000, 4.000000, 4.000000, 4.000000, 4.000000, 4.000000, 4.000000, 4.000000, 4.000000, 4.000000, 4.000000, 4.000000, 4.000000, 4.000000, 4.000000
9.000000, 0.000000, 4169.230469, 4202.563965, 4205.641113, 4208.717773, 4202.563965, 4196.922852, 4182.563965, 4187.692383, 4212.820313, 4073.333252, 4205.127930, 4188.205078, 4191.794922, 4206.153809, 3544.000000, 8175.000000, 8177.000000, 0.000000, 0.000000, 0.000000, -20953.000000, 914.871765, 4.000000, 4.000000, 4.000000, 4.000000, 4.000000, 4.000000, 4.000000, 4.000000, 4.000000, 4.000000, 4.000000, 4.000000, 4.000000, 4.000000, 4.000000, 4.000000
10.000000, 0.000000, 4172.820313, 4203.076660, 4204.615234, 4206.153809, 4195.897461, 4202.563965, 4188.717773, 4188.205078, 4205.641113, 4062.563965, 4203.589844, 4190.769043, 4190.769043, 4204.615234, 3541.000000, 8175.000000, 8177.000000, 0.000000, 0.000000, 0.000000, -20953.000000, 922.564087, 4.000000, 4.000000, 4.000000, 4.000000, 4.000000, 4.000000, 4.000000, 4.000000, 4.000000, 4.000000, 4.000000, 4.000000, 4.000000, 4.000000, 4.000000, 4.000000
11.000000, 0.000000, 4172.820313, 4201.025391, 4202.563965, 4204.615234, 4192.307617, 4204.102539, 4190.769043, 4186.153809, 4202.051270, 4055.897217, 4204.615234, 4191.794922, 4187.692383, 4204.615234, 533.000000, 8189.000000, 8179.000000, 0.000000, 0.000000, 0.000000, -20953.000000, 930.769226, 4.000000, 4.000000, 4.000000, 4.000000, 4.000000, 4.000000, 4.000000, 4.000000, 4.000000, 4.000000, 4.000000, 4.000000, 4.000000, 4.000000, 4.000000, 4.000000
12.000000, 0.000000, 4169.230469, 4201.025391, 4199.487305, 4203.589844, 4202.051270, 4202.563965, 4190.256348, 4181.025391, 4201.538574, 4058.974365, 4203.589844, 4187.179199, 4186.666504, 4203.076660, 3482.000000, 8189.000000, 8179.000000, 0.000000, 0.000000, 0.000000, -20953.000000, 938.461487, 4.000000, 4.000000, 4.000000, 4.000000, 4.000000, 4.000000, 4.000000, 4.000000, 4.000000, 4.000000, 4.000000, 4.000000, 4.000000, 4.000000, 4.000000, 4.000000
13.000000, 0.000000, 4167.179199, 4201.025391, 4196.410156, 4202.051270, 4206.666504, 4203.589844, 4194.871582, 4192.307617, 4204.615234, 4061.538330, 4200.512695, 4181.538574, 4187.179199, 4198.974121, 3402.000000, 8194.000000, 8180.000000, 0.000000, 0.000000, 0.000000, -20953.000000, 946.666626, 4.000000, 4.000000, 4.000000, 4.000000, 4.000000, 4.000000, 4.000000, 4.000000, 4.000000, 4.000000, 4.000000, 4.000000, 4.000000, 4.000000, 4.000000, 4.000000
14.000000, 0.000000, 4161.538574, 4202.563965, 4193.846191, 4201.538574, 4198.974121, 4202.563965, 4193.846191, 4202.563965, 4208.205078, 4061.025635, 4200.512695, 4179.487305, 4185.641113, 4203.589844, 3541.000000, 8194.000000, 8180.000000, 0.000000, 0.000000, 0.000000, -20953.000000, 954.358948, 4.000000, 4.000000, 4.000000, 4.000000, 4.000000, 4.000000, 4.000000, 4.000000, 4.000000, 4.000000, 4.000000, 4.000000, 4.000000, 4.000000, 4.000000, 4.000000
15.000000, 0.000000, 4160.512695, 4204.615234, 4190.769043, 4201.538574, 4201.538574, 4200.512695, 4188.205078, 4194.871582, 4206.666504, 4061.538330, 4200.000000, 4175.384277, 4184.102539, 4202.563965, 533.000000, 8210.000000, 8180.000000, 0.000000, 0.000000, 0.000000, -20953.000000, 962.051270, 4.000000, 4.000000, 4.000000, 4.000000, 4.000000, 4.000000, 4.000000, 4.000000, 4.000000, 4.000000, 4.000000, 4.000000, 4.000000, 4.000000, 4.000000, 4.000000
16.000000, 0.000000, 4155.384277, 4196.410156, 4186.666504, 4191.281738, 4201.025391, 4200.000000, 4190.256348, 4189.230469, 4201.538574, 4056.410156, 4191.794922, 4169.230469, 4181.538574, 4201.025391, 0.000000, 8210.000000, 8180.000000, 0.000000, 0.000000, 0.000000, -20953.000000, 970.256409, 4.000000, 4.000000, 4.000000, 4.000000, 4.000000, 4.000000, 4.000000, 4.000000, 4.000000, 4.000000, 4.000000, 4.000000, 4.000000, 4.000000, 4.000000, 4.000000
17.000000, 0.000000, 4152.820313, 4191.281738, 4183.589844, 4184.102539, 4188.205078, 4196.410156, 4191.281738, 4187.692383, 4198.974121, 4047.179443, 4183.589844, 4164.615234, 4177.436035, 4203.076660, 0.000000, 8219.000000, 8173.000000, 0.000000, 0.000000, 0.000000, -20953.000000, 977.948669, 4.000000, 4.000000, 4.000000, 4.000000, 4.000000, 4.000000, 4.000000, 4.000000, 4.000000, 4.000000, 4.000000, 4.000000, 4.000000, 4.000000, 4.000000, 4.000000
18.000000, 0.000000, 4158.461426, 4197.948730, 4184.102539, 4193.333008, 4190.769043, 4189.230469, 4181.538574, 4183.589844, 4201.025391, 4051.281982, 4185.127930, 4165.641113, 4173.846191, 4198.461426, 0.000000, 8219.000000, 8173.000000, 0.000000, 0.000000, 0.000000, -20953.000000, 985.640991, 4.000000, 4.000000, 4.000000, 4.000000, 4.000000, 4.000000, 4.000000, 4.000000, 4.000000, 4.000000, 4.000000, 4.000000, 4.000000, 4.000000, 4.000000, 4.000000
19.000000, 0.000000, 4160.000000, 4201.538574, 4188.717773, 4203.076660, 4203.589844, 4187.692383, 4176.922852, 4182.051270, 4204.102539, 4060.512695, 4187.179199, 4167.179199, 4176.410156, 4199.487305, 0.000000, 8236.000000, 8174.000000, 0.000000, 0.000000, 0.000000, -20953.000000, 993.846130, 4.000000, 4.000000, 4.000000, 4.000000, 4.000000, 4.000000, 4.000000, 4.000000, 4.000000, 4.000000, 4.000000, 4.000000, 4.000000, 4.000000, 4.000000, 4.000000
20.000000, 0.000000, 4161.538574, 4197.948730, 4191.281738, 4200.512695, 4193.846191, 4187.692383, 4180.000000, 4177.436035, 4198.974121, 4055.897217, 4184.102539, 4166.153809, 4178.461426, 4201.025391, 0.000000, 8236.000000, 8174.000000, 0.000000, 0.000000, 0.000000, -20952.000000, 1.538461, 4.000000, 4.000000, 4.000000, 4.000000, 4.000000, 4.000000, 4.000000, 4.000000, 4.000000, 4.000000, 4.000000, 4.000000, 4.000000, 4.000000, 4.000000, 4.000000
21.000000, 0.000000, 4157.436035, 4194.871582, 4187.179199, 4197.436035, 4177.436035, 4186.153809, 4180.000000, 4169.230469, 4187.692383, 4046.666504, 4185.127930, 4167.692383, 4172.820313, 4201.538574, 0.000000, 8239.000000, 8172.000000, 0.000000, 0.000000, 0.000000, -20952.000000, 9.743589, 4.000000, 4.000000, 4.000000, 4.000000, 4.000000, 4.000000, 4.000000, 4.000000, 4.000000, 4.000000, 4.000000, 4.000000, 4.000000, 4.000000, 4.000000, 4.000000
22.000000, 0.000000, 4156.922852, 4198.461426, 4186.153809, 4198.461426, 4188.717773, 4186.666504, 4177.948730, 4169.230469, 4184.102539, 4052.307617, 4187.179199, 4170.769043, 4173.333008, 4201.538574, 0.000000, 8239.000000, 8172.000000, 0.000000, 0.000000, 0.000000, -20952.000000, 17.435898, 4.000000, 4.000000, 4.000000, 4.000000, 4.000000, 4.000000, 4.000000, 4.000000, 4.000000, 4.000000, 4.000000, 4.000000, 4.000000, 4.000000, 4.000000, 4.000000
23.000000, 0.000000, 4165.641113, 4202.051270, 4189.743652, 4201.538574, 4206.153809, 4187.692383, 4178.974121, 4175.384277, 4189.230469, 4069.230713, 4187.692383, 4174.871582, 4186.153809, 4198.461426, 0.000000, 8240.000000, 8168.000000, 0.000000, 0.000000, 0.000000, -20952.000000, 25.128204, 4.000000, 4.000000, 4.000000, 4.000000, 4.000000, 4.000000, 4.000000, 4.000000, 4.000000, 4.000000, 4.000000, 4.000000, 4.000000, 4.000000, 4.000000, 4.000000
24.000000, 0.000000, 4163.589844, 4202.051270, 4189.230469, 4201.538574, 4203.076660, 4192.307617, 4184.615234, 4183.589844, 4196.922852, 4077.948730, 4192.307617, 4179.487305, 4188.205078, 4203.076660, 0.000000, 8240.000000, 8168.000000, 0.000000, 0.000000, 0.000000, -20952.000000, 32.820511, 4.000000, 4.000000, 4.000000, 4.000000, 4.000000, 4.000000, 4.000000, 4.000000, 4.000000, 4.000000, 4.000000, 4.000000, 4.000000, 4.000000, 4.000000, 4.000000
25.000000, 0.000000, 4157.948730, 4200.000000, 4185.641113, 4193.846191, 4194.871582, 4195.384277, 4189.230469, 4191.281738, 4202.563965, 4077.435791, 4192.820313, 4181.025391, 4175.384277, 4201.025391, 0.000000, 8236.000000, 8154.000000, 0.000000, 0.000000, 0.000000, -20952.000000, 41.025639, 4.000000, 4.000000, 4.000000, 4.000000, 4.000000, 4.000000, 4.000000, 4.000000, 4.000000, 4.000000, 4.000000, 4.000000, 4.000000, 4.000000, 4.000000, 4.000000
26.000000, 0.000000, 4157.948730, 4199.487305, 4183.076660, 4189.230469, 4193.846191, 4192.307617, 4190.256348, 4193.333008, 4202.563965, 4076.923096, 4190.256348, 4183.589844, 4176.410156, 4196.922852, 0.000000, 8236.000000, 8154.000000, 0.000000, 0.000000, 0.000000, -20952.000000, 48.717949, 4.000000, 4.000000, 4.000000, 4.000000, 4.000000, 4.000000, 4.000000, 4.000000, 4.000000, 4.000000, 4.000000, 4.000000, 4.000000, 4.000000, 4.000000, 4.000000
27.000000, 0.000000, 4162.051270, 4200.000000, 4184.102539, 4194.871582, 4197.436035, 4192.820313, 4188.717773, 4191.281738, 4202.051270, 4075.384521, 4190.256348, 4186.153809, 4182.563965, 4201.538574, 0.000000, 8228.000000, 8156.000000, 0.000000, 0.000000, 0.000000, -20952.000000, 56.923077, 4.000000, 4.000000, 4.000000, 4.000000, 4.000000, 4.000000, 4.000000, 4.000000, 4.000000, 4.000000, 4.000000, 4.000000, 4.000000, 4.000000, 4.000000, 4.000000
28.000000, 0.000000, 4169.230469, 4200.000000, 4188.205078, 4196.922852, 4201.538574, 4201.025391, 4186.153809, 4188.717773, 4203.589844, 4076.410156, 4191.794922, 4184.102539, 4182.051270, 4204.102539, 0.000000, 8228.000000, 8156.000000, 0.000000, 0.000000, 0.000000, -20952.000000, 64.615379, 4.000000, 4.000000, 4.000000, 4.000000, 4.000000, 4.000000, 4.000000, 4.000000, 4.000000, 4.000000, 4.000000, 4.000000, 4.000000, 4.000000, 4.000000, 4.000000
29.000000, 0.000000, 4168.717773, 4201.538574, 4186.666504, 4194.871582, 4202.563965, 4199.487305, 4181.025391, 4183.589844, 4201.538574, 4076.923096, 4193.846191, 4180.000000, 4180.000000, 4206.153809, 0.000000, 8216.000000, 8149.000000, 0.000000, 0.000000, 0.000000, -20952.000000, 72.820511, 4.000000, 4.000000, 4.000000, 4.000000, 4.000000, 4.000000, 4.000000, 4.000000, 4.000000, 4.000000, 4.000000, 4.000000, 4.000000, 4.000000, 4.000000, 4.000000
30.000000, 0.000000, 4170.256348, 4202.051270, 4184.615234, 4197.436035, 4197.436035, 4193.333008, 4177.948730, 4182.051270, 4197.948730, 4071.281982, 4196.410156, 4180.512695, 4181.538574, 4201.538574, 0.000000, 8216.000000, 8149.000000, 0.000000, 0.000000, 0.000000, -20952.000000, 80.512817, 4.000000, 4.000000, 4.000000, 4.000000, 4.000000, 4.000000, 4.000000, 4.000000, 4.000000, 4.000000, 4.000000, 4.000000, 4.000000, 4.000000, 4.000000, 4.000000
31.000000, 0.000000, 4174.358887, 4200.512695, 4191.794922, 4200.512695, 4200.000000, 4197.948730, 4183.589844, 4185.641113, 4199.487305, 4069.743408, 4198.461426, 4187.179199, 4189.743652, 4204.615234, 0.000000, 8206.000000, 8143.000000, 0.000000, 0.000000, 0.000000, -20952.000000, 88.205124, 4.000000, 4.000000, 4.000000, 4.000000, 4.000000, 4.000000, 4.000000, 4.000000, 4.000000, 4.000000, 4.000000, 4.000000, 4.000000, 4.000000, 4.000000, 4.000000
32.000000, 0.000000, 4179.487305, 4204.615234, 4200.512695, 4203.589844, 4209.230469, 4205.641113, 4186.666504, 4187.179199, 4201.538574, 4075.384521, 4200.512695, 4191.281738, 4200.512695, 4210.769043, 0.000000, 8206.000000, 8143.000000, 0.000000, 0.000000, 0.000000, -20952.000000, 95.897430, 4.000000, 4.000000, 4.000000, 4.000000, 4.000000, 4.000000, 4.000000, 4.000000, 4.000000, 4.000000, 4.000000, 4.000000, 4.000000, 4.000000, 4.000000, 4.000000
33.000000, 0.000000, 4185.127930, 4209.743652, 4202.563965, 4205.641113, 4210.256348, 4206.153809, 4182.051270, 4186.666504, 4201.538574, 4075.897217, 4200.000000, 4183.589844, 4204.102539, 4204.102539, 0.000000, 8195.000000, 8147.000000, 0.000000, 0.000000, 0.000000, -20952.000000, 104.102562, 4.000000, 4.000000, 4.000000, 4.000000, 4.000000, 4.000000, 4.000000, 4.000000, 4.000000, 4.000000, 4.000000, 4.000000, 4.000000, 4.000000, 4.000000, 4.000000
34.000000, 0.000000, 4181.538574, 4204.615234, 4200.512695, 4203.589844, 4198.974121, 4201.025391, 4174.358887, 4185.127930, 4199.487305, 4065.640869, 4191.794922, 4173.333008, 4199.487305, 4204.102539, 0.000000, 8195.000000, 8147.000000, 0.000000, 0.000000, 0.000000, -20952.000000, 111.794868, 4.000000, 4.000000, 4.000000, 4.000000, 4.000000, 4.000000, 4.000000, 4.000000, 4.000000, 4.000000, 4.000000, 4.000000, 4.000000, 4.000000, 4.000000, 4.000000
35.000000, 0.000000, 4183.076660, 4204.102539, 4203.589844, 4204.615234, 4202.051270, 4200.512695, 4170.769043, 4188.205078, 4195.384277, 4061.025635, 4188.717773, 4173.333008, 4196.922852, 4205.641113, 0.000000, 8189.000000, 8147.000000, 0.000000, 0.000000, 0.000000, -20952.000000, 120.000000, 4.000000, 4.000000, 4.000000, 4.000000, 4.000000, 4.000000, 4.000000, 4.000000, 4.000000, 4.000000, 4.000000, 4.000000, 4.000000, 4.000000, 4.000000, 4.000000
36.000000, 0.000000, 4187.692383, 4210.769043, 4202.563965, 4206.153809, 4207.692383, 4203.076660, 4173.846191, 4192.307617, 4191.281738, 4062.563965, 4191.281738, 4170.769043, 4195.897461, 4201.025391, 0.000000, 8189.000000, 8147.000000, 0.000000, 0.000000, 0.000000, -20952.000000, 127.692307, 4.000000, 4.000000, 4.000000, 4.000000, 4.000000, 4.000000, 4.000000, 4.000000, 4.000000, 4.000000, 4.000000, 4.000000, 4.000000, 4.000000, 4.000000, 4.000000
37.000000, 0.000000, 4182.051270, 4205.641113, 4188.717773, 4201.538574, 4190.256348, 4197.436035, 4171.794922, 4179.487305, 4183.589844, 4059.487061, 4181.538574, 4154.358887, 4191.794922, 4201.025391, 0.000000, 8188.000000, 8146.000000, 0.000000, 0.000000, 0.000000, -20952.000000, 135.384613, 4.000000, 4.000000, 4.000000, 4.000000, 4.000000, 4.000000, 4.000000, 4.000000, 4.000000, 4.000000, 4.000000, 4.000000, 4.000000, 4.000000, 4.000000, 4.000000
38.000000, 0.000000, 4180.512695, 4203.589844, 4184.615234, 4200.512695, 4187.179199, 4194.358887, 4165.641113, 4165.641113, 4178.974121, 4063.076904, 4175.897461, 4147.179199, 4195.384277, 4201.025391, 0.000000, 8188.000000, 8146.000000, 0.000000, 0.000000, 0.000000, -20952.000000, 143.076920, 4.000000, 4.000000, 4.000000, 4.000000, 4.000000, 4.000000, 4.000000, 4.000000, 4.000000, 4.000000, 4.000000, 4.000000, 4.000000, 4.000000, 4.000000, 4.000000
39.000000, 0.000000, 4183.589844, 4211.281738, 4192.820313, 4203.076660, 4210.256348, 4200.000000, 4168.717773, 4168.205078, 4187.179199, 4076.410156, 4188.717773, 4162.563965, 4205.641113, 4205.127930, 0.000000, 8182.000000, 8151.000000, 0.000000, 0.000000, 0.000000, -20952.000000, 151.282043, 4.000000, 4.000000, 4.000000, 4.000000, 4.000000, 4.000000, 4.000000, 4.000000, 4.000000, 4.000000, 4.000000, 4.000000, 4.000000, 4.000000, 4.000000, 4.000000
40.000000, 0.000000, 4188.205078, 4208.205078, 4192.820313, 4201.538574, 4214.871582, 4201.538574, 4176.410156, 4173.333008, 4194.358887, 4081.538330, 4194.358887, 4171.794922, 4210.769043, 4205.127930, 0.000000, 8182.000000, 8151.000000, 0.000000, 0.000000, 0.000000, -20952.000000, 158.974350, 4.000000, 4.000000, 4.000000, 4.000000, 4.000000, 4.000000, 4.000000, 4.000000, 4.000000, 4.000000, 4.000000, 4.000000, 4.000000, 4.000000, 4.000000, 4.000000
41.000000, 0.000000, 4190.769043, 4203.589844, 4187.179199, 4202.051270, 4203.589844, 4201.025391, 4180.512695, 4173.846191, 4196.922852, 4077.948730, 4190.256348, 4169.230469, 4212.820313, 4197.948730, 0.000000, 8194.000000, 8154.000000, 0.000000, 0.000000, 0.000000, -20952.000000, 167.179489, 4.000000, 4.000000, 4.000000, 4.000000, 4.000000, 4.000000, 4.000000, 4.000000, 4.000000, 4.000000, 4.000000, 4.000000, 4.000000, 4.000000, 4.000000, 4.000000
42.000000, 0.000000, 4189.743652, 4213.333008, 4190.769043, 4208.717773, 4202.563965, 4204.102539, 4174.871582, 4173.333008, 4195.897461, 4077.435791, 4193.846191, 4175.897461, 4215.897461, 4200.512695, 0.000000, 8194.000000, 8154.000000, 0.000000, 0.000000, 0.000000, -20952.000000, 174.871796, 4.000000, 4.000000, 4.000000, 4.000000, 4.000000, 4.000000, 4.000000, 4.000000, 4.000000, 4.000000, 4.000000, 4.000000, 4.000000, 4.000000, 4.000000, 4.000000
43.000000, 0.000000, 4195.384277, 4217.948730, 4195.384277, 4212.820313, 4204.615234, 4198.974121, 4165.127930, 4171.281738, 4188.205078, 4071.794678, 4191.794922, 4181.025391, 4211.281738, 4201.538574, 0.000000, 8202.000000, 8157.000000, 0.000000, 0.000000, 0.000000, -20952.000000, 182.564102, 4.000000, 4.000000, 4.000000, 4.000000, 4.000000, 4.000000, 4.000000, 4.000000, 4.000000, 4.000000, 4.000000, 4.000000, 4.000000, 4.000000, 4.000000, 4.000000
44.000000, 0.000000, 4194.358887, 4212.307617, 4194.871582, 4213.846191, 4205.127930, 4192.820313, 4166.666504, 4174.871582, 4181.025391, 4070.256348, 4189.230469, 4178.974121, 4208.205078, 4202.051270, 0.000000, 8202.000000, 8157.000000, 0.000000, 0.000000, 0.000000, -20952.000000, 190.769226, 4.000000, 4.000000, 4.000000, 4.000000, 4.000000, 4.000000, 4.000000, 4.000000, 4.000000, 4.000000, 4.000000, 4.000000, 4.000000, 4.000000, 4.000000, 4.000000
45.000000, 0.000000, 4195.897461, 4214.358887, 4197.948730, 4217.948730, 4210.256348, 4198.461426, 4173.333008, 4182.051270, 4189.743652, 4086.153809, 4198.974121, 4181.538574, 4218.461426, 4204.102539, 0.000000, 8204.000000, 8166.000000, 0.000000, 0.000000, 0.000000, -20952.000000, 198.461533, 4.000000, 4.000000, 4.000000, 4.000000, 4.000000, 4.000000, 4.000000, 4.000000, 4.000000, 4.000000, 4.000000, 4.000000, 4.000000, 4.000000, 4.000000, 4.000000
46.000000, 0.000000, 4195.897461, 4212.820313, 4202.563965, 4214.871582, 4207.692383, 4203.076660, 4172.307617, 4188.205078, 4203.076660, 4089.743408, 4198.974121, 4185.641113, 4211.281738, 4200.512695, 0.000000, 8204.000000, 8166.000000, 0.000000, 0.000000, 0.000000, -20952.000000, 206.153839, 4.000000, 4.000000, 4.000000, 4.000000, 4.000000, 4.000000, 4.000000, 4.000000, 4.000000, 4.000000, 4.000000, 4.000000, 4.000000, 4.000000, 4.000000, 4.000000
47.000000, 0.000000, 4184.102539, 4202.563965, 4202.051270, 4203.076660, 4193.333008, 4198.461426, 4169.230469, 4195.384277, 4201.025391, 4074.358887, 4187.179199, 4186.666504, 4190.256348, 4202.563965, 0.000000, 8204.000000, 8171.000000, 0.000000, 0.000000, 0.000000, -20952.000000, 214.358963, 4.000000, 4.000000, 4.000000, 4.000000, 4.000000, 4.000000, 4.000000, 4.000000, 4.000000, 4.000000, 4.000000, 4.000000, 4.000000, 4.000000, 4.000000, 4.000000
48.000000, 0.000000, 4187.692383, 4198.974121, 4202.563965, 4204.102539, 4189.743652, 4194.871582, 4168.717773, 4200.512695, 4198.974121, 4075.384521, 4194.871582, 4193.333008, 4204.102539, 4204.615234, 0.000000, 8204.000000, 8171.000000, 0.000000, 0.000000, 0.000000, -20952.000000, 222.051270, 4.000000, 4.000000, 4.000000, 4.000000, 4.000000, 4.000000, 4.000000, 4.000000, 4.000000, 4.000000, 4.000000, 4.000000, 4.000000, 4.000000, 4.000000, 4.000000
49.000000, 0.000000, 4199.487305, 4203.589844, 4210.769043, 4213.846191, 4201.538574, 4193.333008, 4168.205078, 4200.512695, 4209.743652, 4092.307617, 4210.769043, 4201.025391, 4234.871582, 4206.666504, 0.000000, 8203.000000, 8180.000000, 0.000000, 0.000000, 0.000000, -20952.000000, 230.256409, 4.000000, 4.000000, 4.000000, 4.000000, 4.000000, 4.000000, 4.000000, 4.000000, 4.000000, 4.000000, 4.000000, 4.000000, 4.000000, 4.000000, 4.000000, 4.000000
50.000000, 0.000000, 4201.538574, 4203.589844, 4216.410156, 4208.205078, 4206.153809, 4189.230469, 4168.717773, 4200.000000, 4218.974121, 4093.845947, 4212.820313, 4201.025391, 4241.025391, 4208.205078, 0.000000, 8203.000000, 8180.000000, 0.000000, 0.000000, 0.000000, -20952.000000, 237.948715, 4.000000, 4.000000, 4.000000, 4.000000, 4.000000, 4.000000, 4.000000, 4.000000, 4.000000, 4.000000, 4.000000, 4.000000, 4.000000, 4.000000, 4.000000, 4.000000
51.000000, 0.000000, 4201.538574, 4197.948730, 4214.871582, 4199.487305, 4199.487305, 4191.794922, 4167.179199, 4202.051270, 4218.461426, 4091.794678, 4222.051270, 4201.025391, 4246.153809, 4207.179199, 0.000000, 8202.000000, 8189.000000, 0.000000, 0.000000, 0.000000, -20952.000000, 245.641022, 4.000000, 4.000000, 4.000000, 4.000000, 4.000000, 4.000000, 4.000000, 4.000000, 4.000000, 4.000000, 4.000000, 4.000000, 4.000000, 4.000000, 4.000000, 4.000000
52.000000, 0.000000, 4201.538574, 4197.436035, 4216.922852, 4208.717773, 4201.025391, 4198.974121, 4171.794922, 4201.025391, 4216.410156, 4101.025391, 4234.358887, 4206.153809, 4262.051270, 4209.743652, 0.000000, 8202.000000, 8189.000000, 0.000000, 0.000000, 0.000000, -20952.000000, 253.846146, 4.000000, 4.000000, 4.000000, 4.000000, 4.000000, 4.000000, 4.000000, 4.000000, 4.000000, 4.000000, 4.000000, 4.000000, 4.000000, 4.000000, 4.000000, 4.000000
53.000000, 0.000000, 4203.589844, 4196.922852, 4218.461426, 4216.922852, 4207.179199, 4206.153809, 4186.153809, 4200.000000, 4216.922852, 4107.179199, 4233.846191, 4208.205078, 4266.153809, 4205.641113, 0.000000, 8205.000000, 8199.000000, 0.000000, 0.000000, 0.000000, -20952.000000, 261.538452, 4.000000, 4.000000, 4.000000, 4.000000, 4.000000, 4.000000, 4.000000, 4.000000, 4.000000, 4.000000, 4.000000, 4.000000, 4.000000, 4.000000, 4.000000, 4.000000
54.000000, 0.000000, 4201.025391, 4190.256348, 4216.410156, 4208.205078, 4204.615234, 4211.281738, 4184.615234, 4201.025391, 4215.384277, 4114.358887, 4232.820313, 4207.692383, 4273.333008, 4205.641113, 0.000000, 8205.000000, 8199.000000, 0.000000, 0.000000, 0.000000, -20952.000000, 269.230774, 4.000000, 4.000000, 4.000000, 4.000000, 4.000000, 4.000000, 4.000000, 4.000000, 4.000000, 4.000000, 4.000000, 4.000000, 4.000000, 4.000000, 4.000000, 4.000000
55.000000, 0.000000, 4198.461426, 4183.076660, 4213.846191, 4201.025391, 4202.051270, 4209.743652, 4173.846191, 4200.000000, 4213.333008, 4122.051270, 4233.333008, 4205.127930, 4283.076660, 4209.743652, 0.000000, 8204.000000, 8202.000000, 0.000000, 0.000000, 0.000000, -20952.000000, 277.435883, 4.000000, 4.000000, 4.000000, 4.000000, 4.000000, 4.000000, 4.000000, 4.000000, 4.000000, 4.000000, 4.000000, 4.000000, 4.000000, 4.000000, 4.000000, 4.000000
56.000000, 0.000000, 4195.384277, 4175.897461, 4210.256348, 4197.948730, 4202.563965, 4211.794922, 4180.000000, 4199.487305, 4214.871582, 4116.410156, 4234.358887, 4204.615234, 4286.666504, 4204.615234, 0.000000, 8204.000000, 8202.000000, 0.000000, 0.000000, 0.000000, -20952.000000, 285.128204, 4.000000, 4.000000, 4.000000, 4.000000, 4.000000, 4.000000, 4.000000, 4.000000, 4.000000, 4.000000, 4.000000, 4.000000, 4.000000, 4.000000, 4.000000, 4.000000
57.000000, 0.000000, 4186.153809, 4168.717773, 4202.051270, 4188.717773, 4200.000000, 4216.410156, 4188.717773, 4197.948730, 4218.974121, 4110.769043, 4242.051270, 4205.127930, 4290.256348, 4204.102539, 0.000000, 8203.000000, 8211.000000, 0.000000, 0.000000, 0.000000, -20952.000000, 292.820496, 4.000000, 4.000000, 4.000000, 4.000000, 4.000000, 4.000000, 4.000000, 4.000000, 4.000000, 4.000000, 4.000000, 4.000000, 4.000000, 4.000000, 4.000000, 4.000000
58.000000, 0.000000, 4184.615234, 4165.641113, 4201.538574, 4181.025391, 4192.307617, 4210.769043, 4180.512695, 4188.205078, 4212.307617, 4115.897461, 4244.102539, 4202.563965, 4291.281738, 4205.127930, 0.000000, 8203.000000, 8211.000000, 0.000000, 0.000000, 0.000000, -20952.000000, 301.025635, 4.000000, 4.000000, 4.000000, 4.000000, 4.000000, 4.000000, 4.000000, 4.000000, 4.000000, 4.000000, 4.000000, 4.000000, 4.000000, 4.000000, 4.000000, 4.000000
59.000000, 0.000000, 4183.589844, 4164.615234, 4206.666504, 4182.563965, 4180.000000, 4203.589844, 4178.461426, 4181.025391, 4205.127930, 4117.436035, 4235.384277, 4200.000000, 4282.051270, 4201.538574, 0.000000, 8202.000000, 8213.000000, 0.000000, 0.000000, 0.000000, -20952.000000, 308.717926, 4.000000, 4.000000, 4.000000, 4.000000, 4.000000, 4.000000, 4.000000, 4.000000, 4.000000, 4.000000, 4.000000, 4.000000, 4.000000, 4.000000, 4.000000, 4.000000
60.000000, 0.000000, 4180.000000, 4162.051270, 4205.641113, 4185.127930, 4177.948730, 4207.179199, 4185.641113, 4190.256348, 4211.281738, 4116.922852, 4236.922852, 4200.512695, 4275.384277, 4204.102539, 0.000000, 8202.000000, 8213.000000, 0.000000, 0.000000, 0.000000, -20952.000000, 316.410248, 4.000000, 4.000000, 4.000000, 4.000000, 4.000000, 4.000000, 4.000000, 4.000000, 4.000000, 4.000000, 4.000000, 4.000000, 4.000000, 4.000000, 4.000000, 4.000000
61.000000, 0.000000, 4180.512695, 4164.102539, 4205.127930, 4186.153809, 4195.384277, 4206.153809, 4177.436035, 4202.051270, 4218.461426, 4122.563965, 4244.615234, 4202.051270, 4281.025391, 4204.102539, 0.000000, 8199.000000, 8212.000000, 0.000000, 0.000000, 0.000000, -20952.000000, 324.615387, 4.000000, 4.000000, 4.000000, 4.000000, 4.000000, 4.000000, 4.000000, 4.000000, 4.000000, 4.000000, 4.000000, 4.000000, 4.000000, 4.000000, 4.000000, 4.000000
62.000000, 0.000000, 4173.846191, 4165.127930, 4201.025391, 4182.051270, 4203.076660, 4203.589844, 4177.436035, 4201.025391, 4216.922852, 4123.076660, 4240.000000, 4203.589844, 4278.461426, 4203.076660, 0.000000, 8199.000000, 8212.000000, 0.000000, 0.000000, 0.000000, -20952.000000, 332.307678, 4.000000, 4.000000, 4.000000, 4.000000, 4.000000, 4.000000, 4.000000, 4.000000, 4.000000, 4.000000, 4.000000, 4.000000, 4.000000, 4.000000, 4.000000, 4.000000
63.000000, 0.000000, 4166.666504, 4156.922852, 4191.794922, 4171.794922, 4187.179199, 4210.769043, 4194.358887, 4200.000000, 4210.769043, 4117.948730, 4229.230469, 4195.897461, 4266.153809, 4200.000000, 0.000000, 8197.000000, 8210.000000, 0.000000, 0.000000, 0.000000, -20952.000000, 340.512817, 4.000000, 4.000000, 4.000000, 4.000000, 4.000000, 4.000000, 4.000000, 4.000000, 4.000000, 4.000000, 4.000000, 4.000000, 4.000000, 4.000000, 4.000000, 4.000000
64.000000, 0.000000, 4163.076660, 4152.820313, 4192.307617, 4173.333008, 4184.102539, 4210.256348, 4194.871582, 4211.281738, 4211.794922, 4123.076660, 4229.230469, 4187.179199, 4262.563965, 4200.000000, 3357.000000, 8197.000000, 8210.000000, 0.000000, 0.000000, 0.000000, -20952.000000, 348.205109, 4.000000, 4.000000, 4.000000, 4.000000, 4.000000, 4.000000, 4.000000, 4.000000, 4.000000, 4.000000, 4.000000, 4.000000, 4.000000, 4.000000, 4.000000, 4.000000
65.000000, 0.000000, 4161.025391, 4157.948730, 4201.025391, 4180.000000, 4197.948730, 4202.051270, 4185.641113, 4221.025391, 4220.512695, 4130.769043, 4233.333008, 4193.846191, 4265.641113, 4204.615234, 3506.000000, 8196.000000, 8207.000000, 0.000000, 0.000000, 0.000000, -20952.000000, 355.897430, 4.000000, 4.000000, 4.000000, 4.000000, 4.000000, 4.000000, 4.000000, 4.000000, 4.000000, 4.000000, 4.000000, 4.000000, 4.000000, 4.000000, 4.000000, 4.000000
66.000000, 0.000000, 4164.615234, 4157.436035, 4202.563965, 4177.436035, 4195.384277, 4202.051270, 4189.743652, 4218.461426, 4223.076660, 4125.641113, 4232.820313, 4198.461426, 4264.102539, 4201.025391, 2526.000000, 8196.000000, 8207.000000, 0.000000, 0.000000, 0.000000, -20952.000000, 363.589722, 4.000000, 4.000000, 4.000000, 4.000000, 4.000000, 4.000000, 4.000000, 4.000000, 4.000000, 4.000000, 4.000000, 4.000000, 4.000000, 4.000000, 4.000000, 4.000000
67.000000, 0.000000, 4163.076660, 4153.333008, 4196.922852, 4175.384277, 4181.538574, 4203.076660, 4194.871582, 4215.384277, 4216.410156, 4119.487305, 4229.230469, 4190.256348, 4260.512695, 4201.538574, 2362.000000, 8192.000000, 8192.000000, 0.000000, 0.000000, 0.000000, -20952.000000, 371.794861, 4.000000, 4.000000, 4.000000, 4.000000, 4.000000, 4.000000, 4.000000, 4.000000, 4.000000, 4.000000, 4.000000, 4.000000, 4.000000, 4.000000, 4.000000, 4.000000
68.000000, 0.000000, 4162.051270, 4155.384277, 4199.487305, 4176.410156, 4187.179199, 4202.051270, 4187.179199, 4214.358887, 4213.333008, 4134.871582, 4229.230469, 4192.307617, 4261.025391, 4203.076660, 3533.000000, 8192.000000, 8192.000000, 0.000000, 0.000000, 0.000000, -20952.000000, 379.487183, 4.000000, 4.000000, 4.000000, 4.000000, 4.000000, 4.000000, 4.000000, 4.000000, 4.000000, 4.000000, 4.000000, 4.000000, 4.000000, 4.000000, 4.000000, 4.000000
69.000000, 0.000000, 4164.102539, 4157.436035, 4202.051270, 4175.384277, 4194.358887, 4201.538574, 4181.025391, 4207.179199, 4217.948730, 4162.563965, 4234.358887, 4203.076660, 4263.076660, 4201.538574, 3542.000000, 8190.000000, 8189.000000, 0.000000, 0.000000, 0.000000, -20952.000000, 387.692291, 4.000000, 4.000000, 4.000000, 4.000000, 4.000000, 4.000000, 4.000000, 4.000000, 4.000000, 4.000000, 4.000000, 4.000000, 4.000000, 4.000000, 4.000000, 4.000000
70.000000, 0.000000, 4161.538574, 4157.948730, 4196.410156, 4174.358887, 4177.948730, 4196.410156, 4182.051270, 4200.000000, 4214.358887, 4169.230469, 4233.846191, 4203.076660, 4261.025391, 4205.641113, 3127.000000, 8190.000000, 8189.000000, 0.000000, 0.000000, 0.000000, -20952.000000, 395.384613, 4.000000, 4.000000, 4.000000, 4.000000, 4.000000, 4.000000, 4.000000, 4.000000, 4.000000, 4.000000, 4.000000, 4.000000, 4.000000, 4.000000, 4.000000, 4.000000
71.000000, 0.000000, 4160.000000, 4157.436035, 4194.871582, 4174.358887, 4172.307617, 4197.436035, 4181.538574, 4201.025391, 4203.076660, 4163.589844, 4222.051270, 4198.974121, 4251.794922, 4205.127930, 3514.000000, 8188.000000, 8182.000000, 0.000000, 0.000000, 0.000000, -20952.000000, 403.076904, 4.000000, 4.000000, 4.000000, 4.000000, 4.000000, 4.000000, 4.000000, 4.000000, 4.000000, 4.000000, 4.000000, 4.000000, 4.000000, 4.000000, 4.000000, 4.000000
72.000000, 0.000000, 4156.922852, 4155.897461, 4194.358887, 4175.384277, 4197.948730, 4212.307617, 4187.692383, 4211.794922, 4203.076660, 4169.230469, 4216.922852, 4200.000000, 4243.076660, 4205.641113, 3521.000000, 8188.000000, 8182.000000, 0.000000, 0.000000, 0.000000, -20952.000000, 411.282043, 4.000000, 4.000000, 4.000000, 4.000000, 4.000000, 4.000000, 4.000000, 4.000000, 4.000000, 4.000000, 4.000000, 4.000000, 4.000000, 4.000000, 4.000000, 4.000000
73.000000, 0.000000, 4157.436035, 4156.922852, 4193.846191, 4176.922852, 4212.820313, 4223.076660, 4197.948730, 4229.230469, 4221.025391, 4180.512695, 4224.615234, 4201.025391, 4244.615234, 4203.589844, 3542.000000, 8174.000000, 8159.000000, 0.000000, 0.000000, 0.000000, -20952.000000, 418.974335, 4.000000, 4.000000, 4.000000, 4.000000, 4.000000, 4.000000, 4.000000, 4.000000, 4.000000, 4.000000, 4.000000, 4.000000, 4.000000, 4.000000, 4.000000, 4.000000
74.000000, 0.000000, 4156.410156, 4156.410156, 4195.897461, 4172.820313, 4198.974121, 4218.461426, 4201.538574, 4237.948730, 4234.358887, 4194.358887, 4228.717773, 4199.487305, 4244.615234, 4198.974121, 3541.000000, 8174.000000, 8159.000000, 0.000000, 0.000000, 0.000000, -20952.000000, 426.666656, 4.000000, 4.000000, 4.000000, 4.000000, 4.000000, 4.000000, 4.000000, 4.000000, 4.000000, 4.000000, 4.000000, 4.000000, 4.000000, 4.000000, 4.000000, 4.000000
75.000000, 0.000000, 4154.871582, 4155.897461, 4200.512695, 4175.384277, 4193.333008, 4213.846191, 4200.000000, 4236.922852, 4235.897461, 4213.846191, 4234.871582, 4204.615234, 4246.153809, 4204.102539, 530.000000, 8169.000000, 8155.000000, 0.000000, 0.000000, 0.000000, -20952.000000, 434.871796, 4.000000, 4.000000, 4.000000, 4.000000, 4.000000, 4.000000, 4.000000, 4.000000, 4.000000, 4.000000, 4.000000, 4.000000, 4.000000, 4.000000, 4.000000, 4.000000
76.000000, 0.000000, 4163.589844, 4162.563965, 4203.589844, 4185.641113, 4202.563965, 4212.820313, 4202.051270, 4234.358887, 4231.281738, 4223.076660, 4245.127930, 4211.794922, 4255.897461, 4204.615234, 3478.000000, 8169.000000, 8155.000000, 0.000000, 0.000000, 0.000000, -20952.000000, 442.564087, 4.000000, 4.000000, 4.000000, 4.000000, 4.000000, 4.000000, 4.000000, 4.000000, 4.000000, 4.000000, 4.000000, 4.000000, 4.000000, 4.000000, 4.000000, 4.000000
77.000000, 0.000000, 4162.563965, 4168.205078, 4200.000000, 4184.615234, 4201.025391, 4206.153809, 4198.974121, 4222.051270, 4217.436035, 4218.461426, 4243.076660, 4206.666504, 4261.025391, 4203.076660, 3402.000000, 8172.000000, 8132.000000, 0.000000, 0.000000, 0.000000, -20952.000000, 450.769226, 4.000000, 4.000000, 4.000000, 4.000000, 4.000000, 4.000000, 4.000000, 4.000000, 4.000000, 4.000000, 4.000000, 4.000000, 4.000000, 4.000000, 4.000000, 4.000000
78.000000, 0.000000, 4157.436035, 4169.743652, 4197.436035, 4180.000000, 4195.384277, 4201.538574, 4187.692383, 4210.769043, 4217.436035, 4223.076660, 4237.436035, 4203.076660, 4261.538574, 4204.615234, 3541.000000, 8172.000000, 8132.000000, 0.000000, 0.000000, 0.000000, -20952.000000, 458.461517, 4.000000, 4.000000, 4.000000, 4.000000, 4.000000, 4.000000, 4.000000, 4.000000, 4.000000, 4.000000, 4.000000, 4.000000, 4.000000, 4.000000, 4.000000, 4.000000
79.000000, 0.000000, 4162.563965, 4171.794922, 4200.512695, 4186.666504, 4201.025391, 4204.102539, 4187.692383, 4219.487305, 4232.820313, 4232.307617, 4242.563965, 4212.820313, 4262.051270, 4204.102539, 530.000000, 8180.000000, 8133.000000, 0.000000, 0.000000, 0.000000, -20952.000000, 466.153839, 4.000000, 4.000000, 4.000000, 4.000000, 4.000000, 4.000000, 4.000000, 4.000000, 4.000000, 4.000000, 4.000000, 4.000000, 4.000000, 4.000000, 4.000000, 4.000000
80.000000, 0.000000, 4159.487305, 4170.256348, 4203.076660, 4191.281738, 4200.512695, 4204.102539, 4198.461426, 4218.461426, 4226.153809, 4225.127930, 4240.000000, 4212.307617, 4254.871582, 4207.179199, 3478.000000, 8180.000000, 8133.000000, 0.000000, 0.000000, 0.000000, -20952.000000, 473.846130, 4.000000, 4.000000, 4.000000, 4.000000, 4.000000, 4.000000, 4.000000, 4.000000, 4.000000, 4.000000, 4.000000, 4.000000, 4.000000, 4.000000, 4.000000, 4.000000
81.000000, 0.000000, 4152.307617, 4164.102539, 4201.025391, 4184.102539, 4181.538574, 4200.512695, 4193.846191, 4200.000000, 4205.641113, 4212.307617, 4227.179199, 4196.922852, 4240.000000, 4203.076660, 3402.000000, 8184.000000, 8136.000000, 0.000000, 0.000000, 0.000000, -20952.000000, 482.051270, 4.000000, 4.000000, 4.000000, 4.000000, 4.000000, 4.000000, 4.000000, 4.000000, 4.000000, 4.000000, 4.000000, 4.000000, 4.000000, 4.000000, 4.000000, 4.000000
82.000000, 0.000000, 4151.281738, 4164.615234, 4200.000000, 4182.563965, 4182.051270, 4206.153809, 4185.641113, 4204.615234, 4215.384277, 4217.948730, 4230.769043, 4200.512695, 4241.538574, 4201.025391, 3541.000000, 8184.000000, 8136.000000, 0.000000, 0.000000, 0.000000, -20952.000000, 489.743591, 4.000000, 4.000000, 4.000000, 4.000000, 4.000000, 4.000000, 4.000000, 4.000000, 4.000000, 4.000000, 4.000000, 4.000000, 4.000000, 4.000000, 4.000000, 4.000000
83.000000, 0.000000, 4159.487305, 4173.333008, 4205.641113, 4191.794922, 4208.717773, 4217.948730, 4193.333008, 4226.153809, 4235.384277, 4240.512695, 4242.563965, 4216.922852, 4257.436035, 4205.641113, 530.000000, 8211.000000, 8123.000000, 0.000000, 0.000000, 0.000000, -20952.000000, 497.948700, 4.000000, 4.000000, 4.000000, 4.000000, 4.000000, 4.000000, 4.000000, 4.000000, 4.000000, 4.000000, 4.000000, 4.000000, 4.000000, 4.000000, 4.000000, 4.000000
84.000000, 0.000000, 4158.461426, 4172.820313, 4207.179199, 4193.846191, 4213.846191, 4217.436035, 4200.000000, 4227.179199, 4235.897461, 4248.717773, 4242.051270, 4215.384277, 4254.871582, 4202.563965, 3478.000000, 8211.000000, 8123.000000, 0.000000, 0.000000, 0.000000, -20952.000000, 505.641022, 4.000000, 4.000000, 4.000000, 4.000000, 4.000000, 4.000000, 4.000000, 4.000000, 4.000000, 4.000000, 4.000000, 4.000000, 4.000000, 4.000000, 4.000000, 4.000000
85.000000, 0.000000, 4141.025391, 4161.025391, 4199.487305, 4181.538574, 4197.436035, 4205.641113, 4193.846191, 4215.897461, 4229.743652, 4235.897461, 4234.358887, 4208.717773, 4243.076660, 4203.076660, 3402.000000, 8225.000000, 8120.000000, 0.000000, 0.000000, 0.000000, -20952.000000, 513.846130, 4.000000, 4.000000, 4.000000, 4.000000, 4.000000, 4.000000, 4.000000, 4.000000, 4.000000, 4.000000, 4.000000, 4.000000, 4.000000, 4.000000, 4.000000, 4.000000
86.000000, 0.000000, 4143.589844, 4159.487305, 4197.948730, 4178.461426, 4194.871582, 4199.487305, 4188.205078, 4211.281738, 4226.666504, 4233.333008, 4230.769043, 4207.692383, 4249.230469, 4203.076660, 3541.000000, 8225.000000, 8120.000000, 0.000000, 0.000000, 0.000000, -20952.000000, 521.538452, 4.000000, 4.000000, 4.000000, 4.000000, 4.000000, 4.000000, 4.000000, 4.000000, 4.000000, 4.000000, 4.000000, 4.000000, 4.000000, 4.000000, 4.000000, 4.000000
87.000000, 0.000000, 4158.461426, 4174.871582, 4204.615234, 4192.820313, 4203.589844, 4202.563965, 4189.743652, 4216.410156, 4230.769043, 4254.358887, 4237.948730, 4211.281738, 4265.641113, 4203.589844, 530.000000, 8263.000000, 8113.000000, 0.000000, 0.000000, 0.000000, -20952.000000, 529.743591, 4.000000, 4.000000, 4.000000, 4.000000, 4.000000, 4.000000, 4.000000, 4.000000, 4.000000, 4.000000, 4.000000, 4.000000, 4.000000, 4.000000, 4.000000, 4.000000
88.000000, 0.000000, 4165.641113, 4187.179199, 4207.179199, 4201.538574, 4203.076660, 4204.615234, 4187.179199, 4225.127930, 4236.410156, 4267.179199, 4247.179199, 4216.922852, 4269.230469, 4207.179199, 3478.000000, 8263.000000, 8113.000000, 0.000000, 0.000000, 0.000000, -20952.000000, 537.435913, 4.000000, 4.000000, 4.000000, 4.000000, 4.000000, 4.000000, 4.000000, 4.000000, 4.000000, 4.000000, 4.000000, 4.000000, 4.000000, 4.000000, 4.000000, 4.000000
89.000000, 0.000000, 4167.179199, 4184.102539, 4208.205078, 4196.922852, 4200.000000, 4202.563965, 4182.563965, 4224.102539, 4238.461426, 4266.153809, 4249.230469, 4217.436035, 4265.641113, 4203.076660, 3402.000000, 8272.000000, 8117.000000, 0.000000, 0.000000, 0.000000, -20952.000000, 545.128174, 4.000000, 4.000000, 4.000000, 4.000000, 4.000000, 4.000000, 4.000000, 4.000000, 4.000000, 4.000000, 4.000000, 4.000000, 4.000000, 4.000000, 4.000000, 4.000000
90.000000, 0.000000, 4168.205078, 4182.563965, 4212.307617, 4196.410156, 4200.512695, 4202.563965, 4184.615234, 4214.871582, 4231.281738, 4267.179199, 4249.230469, 4219.487305, 4270.256348, 4206.666504, 3541.000000, 8272.000000, 8117.000000, 0.000000, 0.000000, 0.000000, -20952.000000, 553.333313, 4.000000, 4.000000, 4.000000, 4.000000, 4.000000, 4.000000, 4.000000, 4.000000, 4.000000, 4.000000, 4.000000, 4.000000, 4.000000, 4.000000, 4.000000, 4.000000
91.000000, 0.000000, 4176.410156, 4188.205078, 4216.922852, 4202.051270, 4204.102539, 4204.102539, 4187.179199, 4214.871582, 4220.000000, 4257.948730, 4250.769043, 4224.102539, 4269.743652, 4210.769043, 530.000000, 8284.000000, 8120.000000, 0.000000, 0.000000, 0.000000, -20952.000000, 561.025635, 4.000000, 4.000000, 4.000000, 4.000000, 4.000000, 4.000000, 4.000000, 4.000000, 4.000000, 4.000000, 4.000000, 4.000000, 4.000000, 4.000000, 4.000000, 4.000000
92.000000, 0.000000, 4174.871582, 4185.127930, 4213.846191, 4200.512695, 4202.051270, 4204.102539, 4185.641113, 4216.922852, 4218.461426, 4238.461426, 4243.589844, 4217.948730, 4258.461426, 4204.615234, 3478.000000, 8284.000000, 8120.000000, 0.000000, 0.000000, 0.000000, -20952.000000, 568.717957, 4.000000, 4.000000, 4.000000, 4.000000, 4.000000, 4.000000, 4.000000, 4.000000, 4.000000, 4.000000, 4.000000, 4.000000, 4.000000, 4.000000, 4.000000, 4.000000
93.000000, 0.000000, 4164.615234, 4176.410156, 4205.127930, 4194.358887, 4198.974121, 4204.102539, 4184.102539, 4213.333008, 4224.615234, 4231.794922, 4231.281738, 4208.717773, 4243.589844, 4202.563965, 3402.000000, 8289.000000, 8127.000000, 0.000000, 0.000000, 0.000000, -20952.000000, 576.923035, 4.000000, 4.000000, 4.000000, 4.000000, 4.000000, 4.000000, 4.000000, 4.000000, 4.000000, 4.000000, 4.000000, 4.000000, 4.000000, 4.000000, 4.000000, 4.000000
94.000000, 0.000000, 4163.076660, 4172.820313, 4203.589844, 4194.358887, 4204.102539, 4204.615234, 4187.179199, 4216.410156, 4224.102539, 4233.846191, 4229.230469, 4207.692383, 4235.384277, 4204.615234, 3541.000000, 8289.000000, 8127.000000, 0.000000, 0.000000, 0.000000, -20952.000000, 584.615356, 4.000000, 4.000000, 4.000000, 4.000000, 4.000000, 4.000000, 4.000000, 4.000000, 4.000000, 4.000000, 4.000000, 4.000000, 4.000000, 4.000000, 4.000000, 4.000000
95.000000, 0.000000, 4158.461426, 4171.794922, 4204.615234, 4191.794922, 4189.743652, 4201.025391, 4187.179199, 4214.358887, 4214.358887, 4223.589844, 4230.256348, 4206.666504, 4229.743652, 4207.179199, 530.000000, 8288.000000, 8127.000000, 0.000000, 0.000000, 0.000000, -20952.000000, 592.820496, 4.000000, 4.000000, 4.000000, 4.000000, 4.000000, 4.000000, 4.000000, 4.000000, 4.000000, 4.000000, 4.000000, 4.000000, 4.000000, 4.000000, 4.000000, 4.000000
96.000000, 0.000000, 4153.333008, 4170.256348, 4202.051270, 4184.615234, 4171.281738, 4196.922852, 4182.563965, 4206.666504, 4212.307617, 4211.281738, 4225.641113, 4202.563965, 4218.974121, 4202.051270, 3478.000000, 8288.000000, 8127.000000, 0.000000, 0.000000, 0.000000, -20952.000000, 600.512817, 4.000000, 4.000000, 4.000000, 4.000000, 4.000000, 4.000000, 4.000000, 4.000000, 4.000000, 4.000000, 4.000000, 4.000000, 4.000000, 4.000000, 4.000000, 4.000000
97.000000, 0.000000, 4153.846191, 4169.743652, 4203.076660, 4187.692383, 4184.615234, 4200.000000, 4185.641113, 4213.333008, 4218.974121, 4216.410156, 4228.717773, 4203.589844, 4218.461426, 4198.461426, 3402.000000, 8280.000000, 8127.000000, 0.000000, 0.000000, 0.000000, -20952.000000, 608.205139, 4.000000, 4.000000, 4.000000, 4.000000, 4.000000, 4.000000, 4.000000, 4.000000, 4.000000, 4.000000, 4.000000, 4.000000, 4.000000, 4.000000, 4.000000, 4.000000
98.000000, 0.000000, 4153.846191, 4172.307617, 4206.666504, 4198.461426, 4204.102539, 4205.641113, 4189.230469, 4222.051270, 4218.461426, 4221.025391, 4232.307617, 4207.692383, 4220.000000, 4204.102539, 3541.000000, 8280.000000, 8127.000000, 0.000000, 0.000000, 0.000000, -20952.000000, 616.410217, 4.000000, 4.000000, 4.000000, 4.000000, 4.000000, 4.000000, 4.000000, 4.000000, 4.000000, 4.000000, 4.000000, 4.000000, 4.000000, 4.000000, 4.000000, 4.000000
99.000000, 0.000000, 4157.948730, 4177.948730, 4204.615234, 4202.563965, 4200.000000, 4202.563965, 4184.615234, 4213.846191, 4214.358887, 4210.256348, 4225.127930, 4209.230469, 4213.846191, 4203.589844, 530.000000, 8270.000000, 8126.000000, 0.000000, 0.000000, 0.000000, -20952.000000, 624.102539, 4.000000, 4.000000, 4.000000, 4.000000, 4.000000, 4.000000, 4.000000, 4.000000, 4.000000, 4.000000, 4.000000, 4.000000, 4.000000, 4.000000, 4.000000, 4.000000
100.000000, 0.000000, 4158.461426, 4180.000000, 4203.076660, 4198.461426, 4195.897461, 4201.025391, 4184.102539, 4203.076660, 4213.846191, 4201.025391, 4224.102539, 4207.692383, 4210.769043, 4202.563965, 3478.000000, 8270.000000, 8126.000000, 0.000000, 0.000000, 0.000000, -20952.000000, 631.794861, 4.000000, 4.000000, 4.000000, 4.000000, 4.000000, 4.000000, 4.000000, 4.000000, 4.000000, 4.000000, 4.000000, 4.000000, 4.000000, 4.000000, 4.000000, 4.000000
101.000000, 0.000000, 4155.897461, 4175.897461, 4198.974121, 4192.307617, 4202.563965, 4206.666504, 4188.717773, 4200.512695, 4211.281738, 4196.922852, 4226.153809, 4202.051270, 4211.281738, 4202.051270, 3402.000000, 8259.000000, 8118.000000, 0.000000, 0.000000, 0.000000, -20952.000000, 640.000000, 4.000000, 4.000000, 4.000000, 4.000000, 4.000000, 4.000000, 4.000000, 4.000000, 4.000000, 4.000000, 4.000000, 4.000000, 4.000000, 4.000000, 4.000000, 4.000000
102.000000, 0.000000, 4154.358887, 4171.281738, 4190.769043, 4186.666504, 4201.538574, 4205.127930, 4186.153809, 4204.102539, 4209.743652, 4187.692383, 4226.153809, 4201.538574, 4211.794922, 4200.512695, 3541.000000, 8259.000000, 8118.000000, 0.000000, 0.000000, 0.000000, -20952.000000, 647.692322, 4.000000, 4.000000, 4.000000, 4.000000, 4.000000, 4.000000, 4.000000, 4.000000, 4.000000, 4.000000, 4.000000, 4.000000, 4.000000, 4.000000, 4.000000, 4.000000
103.000000, 0.000000, 4155.897461, 4172.820313, 4194.358887, 4186.666504, 4197.948730, 4198.974121, 4185.127930, 4211.794922, 4213.846191, 4180.000000, 4227.692383, 4202.051270, 4212.820313, 4204.615234, 530.000000, 8256.000000, 8116.000000, 0.000000, 0.000000, 0.000000, -20952.000000, 655.897400, 4.000000, 4.000000, 4.000000, 4.000000, 4.000000, 4.000000, 4.000000, 4.000000, 4.000000, 4.000000, 4.000000, 4.000000, 4.000000, 4.000000, 4.000000, 4.000000
104.000000, 0.000000, 4160.512695, 4180.512695, 4204.615234, 4195.897461, 4202.051270, 4205.641113, 4187.692383, 4215.897461, 4217.436035, 4185.641113, 4230.256348, 4199.487305, 4214.871582, 4202.563965, 3478.000000, 8256.000000, 8116.000000, 0.000000, 0.000000, 0.000000, -20952.000000, 663.589722, 4.000000, 4.000000, 4.000000, 4.000000, 4.000000, 4.000000, 4.000000, 4.000000, 4.000000, 4.000000, 4.000000, 4.000000, 4.000000, 4.000000, 4.000000, 4.000000
105.000000, 0.000000, 4158.974121, 4181.025391, 4202.563965, 4198.974121, 4206.153809, 4214.358887, 4186.153809, 4217.948730, 4222.051270, 4188.205078, 4231.281738, 4202.051270, 4215.897461, 4204.615234, 3402.000000, 8251.000000, 8119.000000, 0.000000, 0.000000, 0.000000, -20952.000000, 671.794861, 4.000000, 4.000000, 4.000000, 4.000000, 4.000000, 4.000000, 4.000000, 4.000000, 4.000000, 4.000000, 4.000000, 4.000000, 4.000000, 4.000000, 4.000000, 4.000000
106.000000, 0.000000, 4163.589844, 4179.487305, 4198.974121, 4195.897461, 4206.153809, 4212.820313, 4191.281738, 4217.948730, 4224.615234, 4175.897461, 4228.205078, 4202.051270, 4213.846191, 4207.692383, 3541.000000, 8251.000000, 8119.000000, 0.000000, 0.000000, 0.000000, -20952.000000, 679.487183, 4.000000, 4.000000, 4.000000, 4.000000, 4.000000, 4.000000, 4.000000, 4.000000, 4.000000, 4.000000, 4.000000, 4.000000, 4.000000, 4.000000, 4.000000, 4.000000
107.000000, 0.000000, 4167.692383, 4182.051270, 4202.051270, 4198.461426, 4206.666504, 4213.333008, 4196.922852, 4215.384277, 4217.948730, 4165.641113, 4223.076660, 4196.410156, 4211.281738, 4201.025391, 530.000000, 8238.000000, 8115.000000, 0.000000, 0.000000, 0.000000, -20952.000000, 687.692261, 4.000000, 4.000000, 4.000000, 4.000000, 4.000000, 4.000000, 4.000000, 4.000000, 4.000000, 4.000000, 4.000000, 4.000000, 4.000000, 4.000000, 4.000000, 4.000000
108.000000, 0.000000, 4163.076660, 4184.102539, 4196.922852, 4198.461426, 4207.692383, 4214.871582, 4189.743652, 4212.820313, 4212.307617, 4160.000000, 4217.948730, 4192.820313, 4207.692383, 4202.563965, 3478.000000, 8238.000000, 8115.000000, 0.000000, 0.000000, 0.000000, -20952.000000, 695.384583, 4.000000, 4.000000, 4.000000, 4.000000, 4.000000, 4.000000, 4.000000, 4.000000, 4.000000, 4.000000, 4.000000, 4.000000, 4.000000, 4.000000, 4.000000, 4.000000
109.000000, 0.000000, 4163.589844, 4180.000000, 4193.333008, 4194.358887, 4202.563965, 4211.281738, 4183.589844, 4209.230469, 4215.897461, 4153.333008, 4215.384277, 4192.820313, 4201.538574, 4204.102539, 3402.000000, 8231.000000, 8120.000000, 0.000000, 0.000000, 0.000000, -20952.000000, 703.589722, 4.000000, 4.000000, 4.000000, 4.000000, 4.000000, 4.000000, 4.000000, 4.000000, 4.000000, 4.000000, 4.000000, 4.000000, 4.000000, 4.000000, 4.000000, 4.000000
110.000000, 0.000000, 4163.589844, 4177.436035, 4203.589844, 4197.436035, 4196.410156, 4209.743652, 4189.230469, 4212.820313, 4219.487305, 4152.820313, 4219.487305, 4196.410156, 4200.000000, 4205.127930, 3541.000000, 8231.000000, 8120.000000, 0.000000, 0.000000, 0.000000, -20952.000000, 711.282043, 4.000000, 4.000000, 4.000000, 4.000000, 4.000000, 4.000000, 4.000000, 4.000000, 4.000000, 4.000000, 4.000000, 4.000000, 4.000000, 4.000000, 4.000000, 4.000000
111.000000, 0.000000, 4165.641113, 4184.102539, 4208.717773, 4201.025391, 4201.538574, 4209.743652, 4189.743652, 4213.846191, 4218.461426, 4152.820313, 4228.205078, 4201.538574, 4208.717773, 4207.179199, 530.000000, 8227.000000, 8121.000000, 0.000000, 0.000000, 0.000000, -20952.000000, 718.974365, 4.000000, 4.000000, 4.000000, 4.000000, 4.000000, 4.000000, 4.000000, 4.000000, 4.000000, 4.000000, 4.000000, 4.000000, 4.000000, 4.000000, 4.000000, 4.000000
112.000000, 0.000000, 4163.589844, 4181.025391, 4203.076660, 4193.333008, 4202.563965, 4207.179199, 4188.717773, 4208.205078, 4216.410156, 4144.615234, 4225.641113, 4200.512695, 4209.230469, 4202.051270, 3478.000000, 8227.000000, 8121.000000, 0.000000, 0.000000, 0.000000, -20952.000000, 727.179443, 4.000000, 4.000000, 4.000000, 4.000000, 4.000000, 4.000000, 4.000000, 4.000000, 4.000000, 4.000000, 4.000000, 4.000000, 4.000000, 4.000000, 4.000000, 4.000000
113.000000, 0.000000, 4154.358887, 4172.820313, 4198.461426, 4185.127930, 4186.666504, 4207.179199, 4197.948730, 4205.641113, 4211.794922, 4135.384277, 4213.333008, 4196.410156, 4194.871582, 4203.076660, 3402.000000, 8219.000000, 8120.000000, 0.000000, 0.000000, 0.000000, -20952.000000, 734.871765, 4.000000, 4.000000, 4.000000, 4.000000, 4.000000, 4.000000, 4.000000, 4.000000, 4.000000, 4.000000, 4.000000, 4.000000, 4.000000, 4.000000, 4.000000, 4.000000
114.000000, 0.000000, 4162.051270, 4175.384277, 4200.512695, 4186.153809, 4182.563965, 4208.205078, 4196.410156, 4206.153809, 4206.153809, 4131.794922, 4213.846191, 4197.436035, 4194.358887, 4205.127930, 3541.000000, 8219.000000, 8120.000000, 0.000000, 0.000000, 0.000000, -20952.000000, 742.564087, 4.000000, 4.000000, 4.000000, 4.000000, 4.000000, 4.000000, 4.000000, 4.000000, 4.000000, 4.000000, 4.000000, 4.000000, 4.000000, 4.000000, 4.000000, 4.000000
115.000000, 0.000000, 4171.794922, 4183.076660, 4204.102539, 4195.897461, 4200.512695, 4205.641113, 4187.179199, 4197.948730, 4199.487305, 4129.743652, 4221.538574, 4203.589844, 4209.743652, 4206.153809, 530.000000, 8215.000000, 8127.000000, 0.000000, 0.000000, 0.000000, -20952.000000, 750.769226, 4.000000, 4.000000, 4.000000, 4.000000, 4.000000, 4.000000, 4.000000, 4.000000, 4.000000, 4.000000, 4.000000, 4.000000, 4.000000, 4.000000, 4.000000, 4.000000
116.000000, 0.000000, 4170.769043, 4187.692383, 4211.794922, 4199.487305, 4204.615234, 4202.563965, 4188.205078, 4191.281738, 4196.410156, 4124.102539, 4222.051270, 4204.615234, 4213.846191, 4206.666504, 3478.000000, 8215.000000, 8127.000000, 0.000000, 0.000000, 0.000000, -20952.000000, 758.461548, 4.000000, 4.000000, 4.000000, 4.000000, 4.000000, 4.000000, 4.000000, 4.000000, 4.000000, 4.000000, 4.000000, 4.000000, 4.000000, 4.000000, 4.000000, 4.000000
117.000000, 0.000000, 4172.307617, 4182.051270, 4215.384277, 4190.769043, 4190.256348, 4199.487305, 4189.743652, 4197.436035, 4199.487305, 4124.615234, 4225.641113, 4200.512695, 4214.358887, 4202.051270, 3402.000000, 8207.000000, 8120.000000, 0.000000, 0.000000, 0.000000, -20952.000000, 766.666626, 4.000000, 4.000000, 4.000000, 4.000000, 4.000000, 4.000000, 4.000000, 4.000000, 4.000000, 4.000000, 4.000000, 4.000000, 4.000000, 4.000000, 4.000000, 4.000000
118.000000, 0.000000, 4175.897461, 4175.384277, 4210.256348, 4185.641113, 4188.205078, 4196.922852, 4185.127930, 4200.512695, 4200.512695, 4133.846191, 4233.846191, 4206.153809, 4227.692383, 4207.179199, 3541.000000, 8207.000000, 8120.000000, 0.000000, 0.000000, 0.000000, -20952.000000, 774.358948, 4.000000, 4.000000, 4.000000, 4.000000, 4.000000, 4.000000, 4.000000, 4.000000, 4.000000, 4.000000, 4.000000, 4.000000, 4.000000, 4.000000, 4.000000, 4.000000
119.000000, 0.000000, 4180.512695, 4174.358887, 4205.641113, 4187.692383, 4195.384277, 4201.025391, 4186.153809, 4201.025391, 4200.000000, 4141.538574, 4237.436035, 4214.358887, 4237.948730, 4210.769043, 530.000000, 8206.000000, 8122.000000, 0.000000, 0.000000, 0.000000, -20952.000000, 782.051270, 4.000000, 4.000000, 4.000000, 4.000000, 4.000000, 4.000000, 4.000000, 4.000000, 4.000000, 4.000000, 4.000000, 4.000000, 4.000000, 4.000000, 4.000000, 4.000000
120.000000, 0.000000, 4178.974121, 4175.897461, 4203.076660, 4191.281738, 4197.436035, 4203.076660, 4191.794922, 4203.589844, 4206.666504, 4138.974121, 4234.358887, 4211.794922, 4233.846191, 4206.666504, 3478.000000, 8206.000000, 8122.000000, 0.000000, 0.000000, 0.000000, -20952.000000, 790.256409, 4.000000, 4.000000, 4.000000, 4.000000, 4.000000, 4.000000, 4.000000, 4.000000, 4.000000, 4.000000, 4.000000, 4.000000, 4.000000, 4.000000, 4.000000, 4.000000
121.000000, 0.000000, 4177.436035, 4180.000000, 4200.000000, 4195.384277, 4198.974121, 4199.487305, 4188.717773, 4202.051270, 4213.333008, 4133.333008, 4229.230469, 4205.127930, 4228.205078, 4208.205078, 3402.000000, 8202.000000, 8127.000000, 0.000000, 0.000000, 0.000000, -20952.000000, 797.948669, 4.000000, 4.000000, 4.000000, 4.000000, 4.000000, 4.000000, 4.000000, 4.000000, 4.000000, 4.000000, 4.000000, 4.000000, 4.000000, 4.000000, 4.000000, 4.000000
122.000000, 0.000000, 4185.127930, 4184.615234, 4204.615234, 4201.538574, 4204.102539, 4202.563965, 4182.051270, 4200.000000, 4212.820313, 4138.461426, 4229.743652, 4205.127930, 4230.769043, 4206.153809, 3541.000000, 8202.000000, 8127.000000, 0.000000, 0.000000, 0.000000, -20952.000000, 805.640991, 4.000000, 4.000000, 4.000000, 4.000000, 4.000000, 4.000000, 4.000000, 4.000000, 4.000000, 4.000000, 4.000000, 4.000000, 4.000000, 4.000000, 4.000000, 4.000000
123.000000, 0.000000, 4190.256348, 4189.743652, 4214.358887, 4208.205078, 4207.179199, 4215.897461, 4186.666504, 4201.025391, 4214.358887, 4148.205078, 4233.846191, 4211.281738, 4236.922852, 4209.743652, 530.000000, 8196.000000, 8128.000000, 0.000000, 0.000000, 0.000000, -20952.000000, 813.846130, 4.000000, 4.000000, 4.000000, 4.000000, 4.000000, 4.000000, 4.000000, 4.000000, 4.000000, 4.000000, 4.000000, 4.000000, 4.000000, 4.000000, 4.000000, 4.000000
124.000000, 0.000000, 4191.794922, 4191.794922, 4219.487305, 4213.846191, 4213.333008, 4222.051270, 4195.897461, 4202.051270, 4213.333008, 4152.307617, 4232.820313, 4215.384277, 4235.897461, 4208.717773, 3478.000000, 8196.000000, 8128.000000, 0.000000, 0.000000, 0.000000, -20952.000000, 821.538452, 4.000000, 4.000000, 4.000000, 4.000000, 4.000000, 4.000000, 4.000000, 4.000000, 4.000000, 4.000000, 4.000000, 4.000000, 4.000000, 4.000000, 4.000000, 4.000000
125.000000, 0.000000, 4190.256348, 4190.256348, 4217.436035, 4216.922852, 4220.512695, 4218.461426, 4200.512695, 4204.615234, 4211.794922, 4155.897461, 4233.333008, 4216.410156, 4235.384277, 4203.076660, 3402.000000, 8191.000000, 8132.000000, 0.000000, 0.000000, 0.000000, -20952.000000, 829.230774, 4.000000, 4.000000, 4.000000, 4.000000, 4.000000, 4.000000, 4.000000, 4.000000, 4.000000, 4.000000, 4.000000, 4.000000, 4.000000, 4.000000, 4.000000, 4.000000
126.000000, 0.000000, 4188.205078, 4187.179199, 4210.769043, 4212.307617, 4205.127930, 4215.897461, 4202.051270, 4208.717773, 4213.846191, 4151.794922, 4237.436035, 4209.743652, 4238.974121, 4204.102539, 3541.000000, 8191.000000, 8132.000000, 0.000000, 0.000000, 0.000000, -20952.000000, 836.923035, 4.000000, 4.000000, 4.000000, 4.000000, 4.000000, 4.000000, 4.000000, 4.000000, 4.000000, 4.000000, 4.000000, 4.000000, 4.000000, 4.000000, 4.000000, 4.000000
127.000000, 0.000000, 4184.615234, 4183.589844, 4205.127930, 4204.102539, 4188.205078, 4216.410156, 4197.436035, 4204.615234, 4209.743652, 4138.461426, 4232.307617, 4197.948730, 4236.410156, 4200.512695, 54.000000, 8186.000000, 8136.000000, 0.000000, 0.000000, 0.000000, -20952.000000, 845.128174, 4.000000, 4.000000, 4.000000, 4.000000, 4.000000, 4.000000, 4.000000, 4.000000, 4.000000, 4.000000, 4.000000, 4.000000, 4.000000, 4.000000, 4.000000, 4.000000
0.000000, 0.000000, 4180.000000, 4183.589844, 4211.794922, 4205.127930, 4202.051270, 4215.897461, 4194.871582, 4201.538574, 4207.179199, 4142.051270, 4231.794922, 4204.615234, 4230.769043, 4203.076660, 3357.000000, 8186.000000, 8136.000000, 0.000000, 0.000000, 0.000000, -20952.000000, 852.820496, 4.000000, 4.000000, 4.000000, 4.000000, 4.000000, 4.000000, 4.000000, 4.000000, 4.000000, 4.000000, 4.000000, 4.000000, 4.000000, 4.000000, 4.000000, 4.000000
1.000000, 0.000000, 4189.743652, 4188.205078, 4221.538574, 4215.897461, 4215.384277, 4213.846191, 4196.410156, 4202.563965, 4208.717773, 4155.384277, 4239.487305, 4221.538574, 4232.820313, 4208.205078, 3506.000000, 8182.000000, 8140.000000, 0.000000, 0.000000, 0.000000, -20952.000000, 861.025635, 4.000000, 4.000000, 4.000000, 4.000000, 4.000000, 4.000000, 4.000000, 4.000000, 4.000000, 4.000000, 4.000000, 4.000000, 4.000000, 4.000000, 4.000000, 4.000000
2.000000, 0.000000, 4199.487305, 4194.358887, 4221.025391, 4221.025391, 4214.358887, 4213.846191, 4199.487305, 4205.127930, 4206.666504, 4148.205078, 4242.051270, 4224.615234, 4235.384277, 4206.153809, 2520.000000, 8182.000000, 8140.000000, 0.000000, 0.000000, 0.000000, -20952.000000, 868.717957, 4.000000, 4.000000, 4.000000, 4.000000, 4.000000, 4.000000, 4.000000, 4.000000, 4.000000, 4.000000, 4.000000, 4.000000, 4.000000, 4.000000, 4.000000, 4.000000
3.000000, 0.000000, 4197.948730, 4194.871582, 4220.000000, 4216.410156, 4210.769043, 4217.436035, 4205.127930, 4212.307617, 4208.717773, 4137.948730, 4242.563965, 4218.974121, 4234.358887, 4206.666504, 2200.000000, 8171.000000, 8152.000000, 0.000000, 0.000000, 0.000000, -20952.000000, 876.410217, 4.000000, 4.000000, 4.000000, 4.000000, 4.000000, 4.000000, 4.000000, 4.000000, 4.000000, 4.000000, 4.000000, 4.000000, 4.000000, 4.000000, 4.000000, 4.000000
4.000000, 0.000000, 4192.820313, 4188.717773, 4221.025391, 4207.179199, 4195.897461, 4217.436035, 4205.641113, 4210.769043, 4211.281738, 4138.974121, 4241.025391, 4212.820313, 4233.333008, 4204.102539, 3534.000000, 8171.000000, 8152.000000, 0.000000, 0.000000, 0.000000, -20952.000000, 884.615356, 4.000000, 4.000000, 4.000000, 4.000000, 4.000000, 4.000000, 4.000000, 4.000000, 4.000000, 4.000000, 4.000000, 4.000000, 4.000000, 4.000000, 4.000000, 4.000000
5.000000, 0.000000, 4185.127930, 4185.127930, 4214.871582, 4199.487305, 4188.205078, 4212.307617, 4200.000000, 4201.025391, 4203.076660, 4129.230469, 4233.333008, 4207.179199, 4229.743652, 4204.102539, 3542.000000, 8170.000000, 8159.000000, 0.000000, 0.000000, 0.000000, -20952.000000, 892.307678, 4.000000, 4.000000, 4.000000, 4.000000, 4.000000, 4.000000, 4.000000, 4.000000, 4.000000, 4.000000, 4.000000, 4.000000, 4.000000, 4.000000, 4.000000, 4.000000
6.000000, 0.000000, 4188.717773, 4189.743652, 4216.922852, 4206.666504, 4209.230469, 4214.358887, 4200.000000, 4205.127930, 4204.102539, 4119.487305, 4228.717773, 4209.743652, 4227.179199, 4205.127930, 2842.000000, 8170.000000, 8159.000000, 0.000000, 0.000000, 0.000000, -20952.000000, 900.512817, 4.000000, 4.000000, 4.000000, 4.000000, 4.000000, 4.000000, 4.000000, 4.000000, 4.000000, 4.000000, 4.000000, 4.000000, 4.000000, 4.000000, 4.000000, 4.000000
7.000000, 0.000000, 4197.948730, 4195.384277, 4222.563965, 4218.461426, 4219.487305, 4218.461426, 4202.051270, 4218.461426, 4218.461426, 4124.615234, 4234.871582, 4217.948730, 4232.820313, 4206.153809, 3514.000000, 8150.000000, 8165.000000, 0.000000, 0.000000, 0.000000, -20952.000000, 908.205078, 4.000000, 4.000000, 4.000000, 4.000000, 4.000000, 4.000000, 4.000000, 4.000000, 4.000000, 4.000000, 4.000000, 4.000000, 4.000000, 4.000000, 4.000000, 4.000000
8.000000, 0.000000, 4195.384277, 4193.333008, 4218.461426, 4213.846191, 4210.256348, 4216.410156, 4197.436035, 4217.948730, 4216.410156, 4122.563965, 4238.461426, 4216.922852, 4232.820313, 4209.743652, 3269.000000, 8150.000000, 8165.000000, 0.000000, 0.000000, 0.000000, -20952.000000, 915.897400, 4.000000, 4.000000, 4.000000, 4.000000, 4.000000, 4.000000, 4.000000, 4.000000, 4.000000, 4.000000, 4.000000, 4.000000, 4.000000, 4.000000, 4.000000, 4.000000
9.000000, 0.000000, 4194.871582, 4189.743652, 4214.871582, 4207.179199, 4213.333008, 4214.871582, 4197.436035, 4211.794922, 4205.127930, 4111.794922, 4234.358887, 4209.230469, 4224.102539, 4203.076660, 3542.000000, 8142.000000, 8173.000000, 0.000000, 0.000000, 0.000000, -20952.000000, 924.102539, 4.000000, 4.000000, 4.000000, 4.000000, 4.000000, 4.000000, 4.000000, 4.000000, 4.000000, 4.000000, 4.000000, 4.000000, 4.000000, 4.000000, 4.000000, 4.000000
10.000000, 0.000000, 4191.794922, 4185.641113, 4211.281738, 4206.666504, 4216.410156, 4215.384277, 4201.538574, 4212.820313, 4202.563965, 4103.589844, 4225.127930, 4203.076660, 4217.436035, 4200.000000, 3540.000000, 8142.000000, 8173.000000, 0.000000, 0.000000, 0.000000, -20952.000000, 931.794861, 4.000000, 4.000000, 4.000000, 4.000000, 4.000000, 4.000000, 4.000000, 4.000000, 4.000000, 4.000000, 4.000000, 4.000000, 4.000000, 4.000000, 4.000000, 4.000000
11.000000, 0.000000, 4190.256348, 4186.666504, 4205.127930, 4207.179199, 4210.256348, 4215.384277, 4202.051270, 4212.820313, 4203.076660, 4092.820313, 4215.384277, 4199.487305, 4215.384277, 4204.102539, 531.000000, 8133.000000, 8175.000000, 0.000000, 0.000000, 0.000000, -20952.000000, 939.487183, 4.000000, 4.000000, 4.000000, 4.000000, 4.000000, 4.000000, 4.000000, 4.000000, 4.000000, 4.000000, 4.000000, 4.000000, 4.000000, 4.000000, 4.000000, 4.000000
12.000000, 0.000000, 4192.820313, 4192.307617, 4206.153809, 4210.256348, 4207.179199, 4216.922852, 4198.974121, 4207.179199, 4203.589844, 4087.692139, 4216.922852, 4202.563965, 4215.897461, 4204.615234, 3478.000000, 8133.000000, 8175.000000, 0.000000, 0.000000, 0.000000, -20952.000000, 947.692261, 4.000000, 4.000000, 4.000000, 4.000000, 4.000000, 4.000000, 4.000000, 4.000000, 4.000000, 4.000000, 4.000000, 4.000000, 4.000000, 4.000000, 4.000000, 4.000000
13.000000, 0.000000, 4188.717773, 4193.333008, 4205.641113, 4207.692383, 4205.127930, 4213.846191, 4196.410156, 4201.025391, 4201.025391, 4089.230713, 4217.436035, 4202.051270, 4214.871582, 4207.692383, 3402.000000, 8109.000000, 8194.000000, 0.000000, 0.000000, 0.000000, -20952.000000, 955.384583, 4.000000, 4.000000, 4.000000, 4.000000, 4.000000, 4.000000, 4.000000, 4.000000, 4.000000, 4.000000, 4.000000, 4.000000, 4.000000, 4.000000, 4.000000, 4.000000
14.000000, 0.000000, 4186.666504, 4189.743652, 4197.948730, 4201.025391, 4203.076660, 4206.666504, 4194.871582, 4202.051270, 4202.563965, 4083.076904, 4216.410156, 4196.922852, 4212.820313, 4204.615234, 3540.000000, 8109.000000, 8194.000000, 0.000000, 0.000000, 0.000000, -20952.000000, 963.076904, 4.000000, 4.000000, 4.000000, 4.000000, 4.000000, 4.000000, 4.000000, 4.000000, 4.000000, 4.000000, 4.000000, 4.000000, 4.000000, 4.000000, 4.000000, 4.000000
15.000000, 0.000000, 4186.153809, 4189.743652, 4195.897461, 4200.000000, 4199.487305, 4207.692383, 4193.846191, 4204.615234, 4203.589844, 4077.948730, 4224.102539, 4197.948730, 4214.871582, 4203.076660, 531.000000, 8095.000000, 8197.000000, 0.000000, 0.000000, 0.000000, -20952.000000, 971.282043, 4.000000, 4.000000, 4.000000, 4.000000, 4.000000, 4.000000, 4.000000, 4.000000, 4.000000, 4.000000, 4.000000, 4.000000, 4.000000, 4.000000, 4.000000, 4.000000
16.000000, 0.000000, 4189.230469, 4191.794922, 4200.000000, 4204.102539, 4202.563965, 4213.333008, 4191.281738, 4204.615234, 4201.025391, 4080.512695, 4232.307617, 4200.000000, 4218.974121, 4205.641113, 0.000000, 8095.000000, 8197.000000, 0.000000, 0.000000, 0.000000, -20952.000000, 978.974365, 4.000000, 4.000000, 4.000000, 4.000000, 4.000000, 4.000000, 4.000000, 4.000000, 4.000000, 4.000000, 4.000000, 4.000000, 4.000000, 4.000000, 4.000000, 4.000000
17.000000, 0.000000, 4189.230469, 4185.641113, 4208.717773, 4203.589844, 4205.641113, 4214.871582, 4193.333008, 4205.127930, 4202.051270, 4081.538330, 4232.820313, 4202.051270, 4216.922852, 4202.563965, 0.000000, 8063.000000, 8195.000000, 0.000000, 0.000000, 0.000000, -20952.000000, 987.179443, 4.000000, 4.000000, 4.000000, 4.000000, 4.000000, 4.000000, 4.000000, 4.000000, 4.000000, 4.000000, 4.000000, 4.000000, 4.000000, 4.000000, 4.000000, 4.000000
18.000000, 0.000000, 4182.563965, 4184.102539, 4211.794922, 4201.025391, 4191.281738, 4213.846191, 4200.000000, 4202.563965, 4202.051270, 4079.487061, 4231.794922, 4203.589844, 4215.384277, 4206.153809, 0.000000, 8063.000000, 8195.000000, 0.000000, 0.000000, 0.000000, -20952.000000, 994.871765, 4.000000, 4.000000, 4.000000, 4.000000, 4.000000, 4.000000, 4.000000, 4.000000, 4.000000, 4.000000, 4.000000, 4.000000, 4.000000, 4.000000, 4.000000, 4.000000
19.000000, 0.000000, 4190.256348, 4194.358887, 4207.179199, 4203.076660, 4186.666504, 4215.384277, 4203.589844, 4200.000000, 4200.512695, 4079.487061, 4231.794922, 4202.563965, 4220.000000, 4205.641113, 0.000000, 8037.000000, 8189.000000, 0.000000, 0.000000, 0.000000, -20951.000000, 2.564102, 4.000000, 4.000000, 4.000000, 4.000000, 4.000000, 4.000000, 4.000000, 4.000000, 4.000000, 4.000000, 4.000000, 4.000000, 4.000000, 4.000000, 4.000000, 4.000000
20.000000, 0.000000, 4191.794922, 4195.897461, 4204.102539, 4207.692383, 4206.153809, 4215.384277, 4199.487305, 4201.538574, 4201.538574, 4074.871582, 4229.230469, 4200.512695, 4218.974121, 4202.051270, 0.000000, 8037.000000, 8189.000000, 0.000000, 0.000000, 0.000000, -20951.000000, 10.769231, 4.000000, 4.000000, 4.000000, 4.000000, 4.000000, 4.000000, 4.000000, 4.000000, 4.000000, 4.000000, 4.000000, 4.000000, 4.000000, 4.000000, 4.000000, 4.000000
21.000000, 0.000000, 4184.615234, 4193.333008, 4206.153809, 4212.307617, 4214.871582, 4211.281738, 4190.256348, 4200.512695, 4202.051270, 4072.307617, 4228.717773, 4201.025391, 4214.871582, 4207.179199, 0.000000, 8001.000000, 8173.000000, 0.000000, 0.000000, 0.000000, -20951.000000, 18.974358, 4.000000, 4.000000, 4.000000, 4.000000, 4.000000, 4.000000, 4.000000, 4.000000, 4.000000, 4.000000, 4.000000, 4.000000, 4.000000, 4.000000, 4.000000, 4.000000
22.000000, 0.000000, 4189.230469, 4199.487305, 4209.743652, 4213.846191, 4204.615234, 4206.666504, 4184.615234, 4197.436035, 4202.563965, 4078.461426, 4233.846191, 4203.589844, 4221.025391, 4208.205078, 0.000000, 8001.000000, 8173.000000, 0.000000, 0.000000, 0.000000, -20951.000000, 26.666666, 4.000000, 4.000000, 4.000000, 4.000000, 4.000000, 4.000000, 4.000000, 4.000000, 4.000000, 4.000000, 4.000000, 4.000000, 4.000000, 4.000000, 4.000000, 4.000000
23.000000, 0.000000, 4191.281738, 4200.000000, 4212.820313, 4213.333008, 4198.974121, 4201.025391, 4185.127930, 4189.230469, 4196.410156, 4072.307617, 4234.871582, 4204.615234, 4223.589844, 4206.666504, 0.000000, 7986.000000, 8175.000000, 0.000000, 0.000000, 0.000000, -20951.000000, 34.358974, 4.000000, 4.000000, 4.000000, 4.000000, 4.000000, 4.000000, 4.000000, 4.000000, 4.000000, 4.000000, 4.000000, 4.000000, 4.000000, 4.000000, 4.000000, 4.000000
24.000000, 0.000000, 4189.743652, 4193.333008, 4215.384277, 4213.333008, 4201.025391, 4198.974121, 4183.589844, 4183.589844, 4189.230469, 4057.948730, 4227.179199, 4202.051270, 4213.846191, 4203.076660, 0.000000, 7986.000000, 8175.000000, 0.000000, 0.000000, 0.000000, -20951.000000, 42.051281, 4.000000, 4.000000, 4.000000, 4.000000, 4.000000, 4.000000, 4.000000, 4.000000, 4.000000, 4.000000, 4.000000, 4.000000, 4.000000, 4.000000, 4.000000, 4.000000
25.000000, 0.000000, 4191.794922, 4195.384277, 4216.410156, 4216.410156, 4205.641113, 4206.666504, 4185.641113, 4194.871582, 4196.922852, 4062.051270, 4226.666504, 4200.512695, 4213.846191, 4202.563965, 0.000000, 7974.000000, 8174.000000, 0.000000, 0.000000, 0.000000, -20951.000000, 50.256409, 4.000000, 4.000000, 4.000000, 4.000000, 4.000000, 4.000000, 4.000000, 4.000000, 4.000000, 4.000000, 4.000000, 4.000000, 4.000000, 4.000000, 4.000000, 4.000000
26.000000, 0.000000, 4194.358887, 4199.487305, 4215.384277, 4216.410156, 4210.769043, 4214.358887, 4194.871582, 4202.563965, 4206.666504, 4069.230713, 4228.205078, 4203.076660, 4216.410156, 4205.641113, 0.000000, 7974.000000, 8174.000000, 0.000000, 0.000000, 0.000000, -20951.000000, 57.948715, 4.000000, 4.000000, 4.000000, 4.000000, 4.000000, 4.000000, 4.000000, 4.000000, 4.000000, 4.000000, 4.000000, 4.000000, 4.000000, 4.000000, 4.000000, 4.000000
27.000000, 0.000000, 4193.846191, 4196.410156, 4213.333008, 4214.871582, 4213.333008, 4213.333008, 4195.384277, 4191.794922, 4201.025391, 4063.076904, 4221.025391, 4200.000000, 4208.205078, 4201.025391, 0.000000, 7958.000000, 8174.000000, 0.000000, 0.000000, 0.000000, -20951.000000, 66.153847, 4.000000, 4.000000, 4.000000, 4.000000, 4.000000, 4.000000, 4.000000, 4.000000, 4.000000, 4.000000, 4.000000, 4.000000, 4.000000, 4.000000, 4.000000, 4.000000
28.000000, 0.000000, 4187.692383, 4199.487305, 4208.717773, 4215.384277, 4215.384277, 4213.846191, 4192.820313, 4191.281738, 4198.461426, 4060.512695, 4215.897461, 4192.820313, 4203.589844, 4203.589844, 0.000000, 7958.000000, 8174.000000, 0.000000, 0.000000, 0.000000, -20951.000000, 73.846153, 4.000000, 4.000000, 4.000000, 4.000000, 4.000000, 4.000000, 4.000000, 4.000000, 4.000000, 4.000000, 4.000000, 4.000000, 4.000000, 4.000000, 4.000000, 4.000000
29.000000, 0.000000, 4186.666504, 4200.512695, 4204.102539, 4212.307617, 4210.769043, 4214.358887, 4194.871582, 4196.922852, 4200.512695, 4065.640869, 4211.794922, 4187.692383, 4199.487305, 4202.563965, 0.000000, 7955.000000, 8172.000000, 0.000000, 0.000000, 0.000000, -20951.000000, 82.051277, 4.000000, 4.000000, 4.000000, 4.000000, 4.000000, 4.000000, 4.000000, 4.000000, 4.000000, 4.000000, 4.000000, 4.000000, 4.000000, 4.000000, 4.000000, 4.000000
30.000000, 0.000000, 4184.615234, 4193.333008, 4199.487305, 4205.641113, 4204.102539, 4205.641113, 4190.769043, 4191.281738, 4191.794922, 4068.205078, 4206.153809, 4184.102539, 4192.307617, 4196.410156, 0.000000, 7955.000000, 8172.000000, 0.000000, 0.000000, 0.000000, -20951.000000, 89.743591, 4.000000, 4.000000, 4.000000, 4.000000, 4.000000, 4.000000, 4.000000, 4.000000, 4.000000, 4.000000, 4.000000, 4.000000, 4.000000, 4.000000, 4.000000, 4.000000
31.000000, 0.000000, 4183.589844, 4194.358887, 4200.512695, 4207.692383, 4204.102539, 4197.948730, 4187.179199, 4190.256348, 4185.127930, 4070.769043, 4202.051270, 4187.179199, 4192.307617, 4202.051270, 0.000000, 7969.000000, 8173.000000, 0.000000, 0.000000, 0.000000, -20951.000000, 97.948715, 4.000000, 4.000000, 4.000000, 4.000000, 4.000000, 4.000000, 4.000000, 4.000000, 4.000000, 4.000000, 4.000000, 4.000000, 4.000000, 4.000000, 4.000000, 4.000000
32.000000, 0.000000, 4191.794922, 4200.000000, 4205.127930, 4214.358887, 4212.307617, 4202.051270, 4192.820313, 4200.000000, 4189.230469, 4074.358887, 4204.102539, 4194.871582, 4194.871582, 4202.563965, 0.000000, 7969.000000, 8173.000000, 0.000000, 0.000000, 0.000000, -20951.000000, 105.641022, 4.000000, 4.000000, 4.000000, 4.000000, 4.000000, 4.000000, 4.000000, 4.000000, 4.000000, 4.000000, 4.000000, 4.000000, 4.000000, 4.000000, 4.000000, 4.000000
33.000000, 0.000000, 4191.281738, 4198.461426, 4206.666504, 4211.794922, 4212.820313, 4209.230469, 4194.871582, 4204.102539, 4190.769043, 4076.410156, 4208.717773, 4201.538574, 4195.384277, 4202.051270, 0.000000, 7973.000000, 8176.000000, 0.000000, 0.000000, 0.000000, -20951.000000, 113.333328, 4.000000, 4.000000, 4.000000, 4.000000, 4.000000, 4.000000, 4.000000, 4.000000, 4.000000, 4.000000, 4.000000, 4.000000, 4.000000, 4.000000, 4.000000, 4.000000
34.000000, 0.000000, 4183.076660, 4194.358887, 4202.051270, 4201.025391, 4196.410156, 4207.692383, 4185.641113, 4194.358887, 4182.051270, 4076.410156, 4207.179199, 4198.461426, 4194.358887, 4203.076660, 0.000000, 7973.000000, 8176.000000, 0.000000, 0.000000, 0.000000, -20951.000000, 121.538460, 4.000000, 4.000000, 4.000000, 4.000000, 4.000000, 4.000000, 4.000000, 4.000000, 4.000000, 4.000000, 4.000000, 4.000000, 4.000000, 4.000000, 4.000000, 4.000000
35.000000, 0.000000, 4182.051270, 4195.897461, 4196.922852, 4197.948730, 4192.307617, 4201.538574, 4183.076660, 4187.179199, 4175.384277, 4074.358887, 4201.538574, 4191.794922, 4193.846191, 4202.563965, 0.000000, 7986.000000, 8182.000000, 0.000000, 0.000000, 0.000000, -20951.000000, 129.230759, 4.000000, 4.000000, 4.000000, 4.000000, 4.000000, 4.000000, 4.000000, 4.000000, 4.000000, 4.000000, 4.000000, 4.000000, 4.000000, 4.000000, 4.000000, 4.000000
36.000000, 0.000000, 4190.256348, 4200.512695, 4206.666504, 4207.179199, 4212.307617, 4198.974121, 4191.794922, 4192.307617, 4185.127930, 4077.435791, 4206.666504, 4197.436035, 4194.871582, 4208.717773, 0.000000, 7986.000000, 8182.000000, 0.000000, 0.000000, 0.000000, -20951.000000, 136.923080, 4.000000, 4.000000, 4.000000, 4.000000, 4.000000, 4.000000, 4.000000, 4.000000, 4.000000, 4.000000, 4.000000, 4.000000, 4.000000, 4.000000, 4.000000, 4.000000
37.000000, 0.000000, 4202.051270, 4207.179199, 4220.000000, 4217.436035, 4225.127930, 4202.051270, 4200.000000, 4205.641113, 4200.512695, 4089.743408, 4220.000000, 4211.281738, 4202.563965, 4208.717773, 0.000000, 8013.000000, 8194.000000, 0.000000, 0.000000, 0.000000, -20951.000000, 145.128204, 4.000000, 4.000000, 4.000000, 4.000000, 4.000000, 4.000000, 4.000000, 4.000000, 4.000000, 4.000000, 4.000000, 4.000000, 4.000000, 4.000000, 4.000000, 4.000000
38.000000, 0.000000, 4204.102539, 4212.307617, 4222.563965, 4217.948730, 4219.487305, 4205.127930, 4204.102539, 4216.410156, 4203.076660, 4096.922852, 4223.589844, 4218.974121, 4210.256348, 4208.205078, 0.000000, 8013.000000, 8194.000000, 0.000000, 0.000000, 0.000000, -20951.000000, 152.820511, 4.000000, 4.000000, 4.000000, 4.000000, 4.000000, 4.000000, 4.000000, 4.000000, 4.000000, 4.000000, 4.000000, 4.000000, 4.000000, 4.000000, 4.000000, 4.000000
39.000000, 0.000000, 4201.025391, 4206.153809, 4214.871582, 4211.794922, 4210.256348, 4206.666504, 4201.538574, 4217.436035, 4200.000000, 4092.307617, 4220.000000, 4212.307617, 4207.692383, 4208.717773, 0.000000, 8029.000000, 8206.000000, 0.000000, 0.000000, 0.000000, -20951.000000, 161.025635, 4.000000, 4.000000, 4.000000, 4.000000, 4.000000, 4.000000, 4.000000, 4.000000, 4.000000, 4.000000, 4.000000, 4.000000, 4.000000, 4.000000, 4.000000, 4.000000
40.000000, 0.000000, 4198.461426, 4197.948730, 4205.641113, 4204.615234, 4207.179199, 4204.615234, 4198.974121, 4209.743652, 4203.589844, 4090.769043, 4220.512695, 4206.153809, 4204.102539, 4203.589844, 0.000000, 8029.000000, 8206.000000, 0.000000, 0.000000, 0.000000, -20951.000000, 168.717941, 4.000000, 4.000000, 4.000000, 4.000000, 4.000000, 4.000000, 4.000000, 4.000000, 4.000000, 4.000000, 4.000000, 4.000000, 4.000000, 4.000000, 4.000000, 4.000000
41.000000, 0.000000, 4194.871582, 4200.000000, 4201.538574, 4199.487305, 4206.666504, 4202.051270, 4202.051270, 4202.051270, 4202.051270, 4096.410156, 4220.000000, 4204.615234, 4203.076660, 4207.179199, 0.000000, 8071.000000, 8214.000000, 0.000000, 0.000000, 0.000000, -20951.000000, 176.923065, 4.000000, 4.000000, 4.000000, 4.000000, 4.000000, 4.000000, 4.000000, 4.000000, 4.000000, 4.000000, 4.000000, 4.000000, 4.000000, 4.000000, 4.000000, 4.000000
42.000000, 0.000000, 4194.871582, 4203.076660, 4200.000000, 4200.512695, 4206.153809, 4201.538574, 4196.922852, 4199.487305, 4190.769043, 4092.820313, 4213.333008, 4197.436035, 4197.948730, 4207.179199, 0.000000, 8071.000000, 8214.000000, 0.000000, 0.000000, 0.000000, -20951.000000, 184.615387, 4.000000, 4.000000, 4.000000, 4.000000, 4.000000, 4.000000, 4.000000, 4.000000, 4.000000, 4.000000, 4.000000, 4.000000, 4.000000, 4.000000, 4.000000, 4.000000
43.000000, 0.000000, 4191.281738, 4201.538574, 4198.461426, 4205.641113, 4203.076660, 4197.948730, 4185.641113, 4195.384277, 4185.641113, 4084.615234, 4209.743652, 4192.307617, 4193.846191, 4205.127930, 0.000000, 8089.000000, 8216.000000, 0.000000, 0.000000, 0.000000, -20951.000000, 192.307693, 4.000000, 4.000000, 4.000000, 4.000000, 4.000000, 4.000000, 4.000000, 4.000000, 4.000000, 4.000000, 4.000000, 4.000000, 4.000000, 4.000000, 4.000000, 4.000000
44.000000, 0.000000, 4190.769043, 4204.102539, 4202.051270, 4208.205078, 4205.127930, 4196.922852, 4188.717773, 4185.127930, 4185.127930, 4086.153809, 4208.717773, 4196.922852, 4192.307617, 4205.641113, 0.000000, 8089.000000, 8216.000000, 0.000000, 0.000000, 0.000000, -20951.000000, 200.512817, 4.000000, 4.000000, 4.000000, 4.000000, 4.000000, 4.000000, 4.000000, 4.000000, 4.000000, 4.000000, 4.000000, 4.000000, 4.000000, 4.000000, 4.000000, 4.000000
45.000000, 0.000000, 4192.307617, 4206.153809, 4208.205078, 4205.641113, 4208.205078, 4200.000000, 4197.436035, 4183.589844, 4184.102539, 4093.333252, 4203.589844, 4200.000000, 4188.717773, 4203.076660, 0.000000, 8127.000000, 8209.000000, 0.000000, 0.000000, 0.000000, -20951.000000, 208.205124, 4.000000, 4.000000, 4.000000, 4.000000, 4.000000, 4.000000, 4.000000, 4.000000, 4.000000, 4.000000, 4.000000, 4.000000, 4.000000, 4.000000, 4.000000, 4.000000
46.000000, 0.000000, 4190.256348, 4207.179199, 4210.769043, 4204.615234, 4210.256348, 4201.025391, 4195.897461, 4195.384277, 4191.281738, 4101.025391, 4206.666504, 4203.076660, 4190.256348, 4206.666504, 0.000000, 8127.000000, 8209.000000, 0.000000, 0.000000, 0.000000, -20951.000000, 215.897430, 4.000000, 4.000000, 4.000000, 4.000000, 4.000000, 4.000000, 4.000000, 4.000000, 4.000000, 4.000000, 4.000000, 4.000000, 4.000000, 4.000000, 4.000000, 4.000000
47.000000, 0.000000, 4199.487305, 4210.769043, 4214.871582, 4210.769043, 4214.358887, 4203.076660, 4196.922852, 4203.589844, 4197.436035, 4106.666504, 4217.436035, 4211.281738, 4203.076660, 4205.127930, 0.000000, 8150.000000, 8210.000000, 0.000000, 0.000000, 0.000000, -20951.000000, 223.589737, 4.000000, 4.000000, 4.000000, 4.000000, 4.000000, 4.000000, 4.000000, 4.000000, 4.000000, 4.000000, 4.000000, 4.000000, 4.000000, 4.000000, 4.000000, 4.000000
48.000000, 0.000000, 4203.076660, 4212.820313, 4218.461426, 4216.410156, 4214.871582, 4210.256348, 4205.641113, 4203.589844, 4195.897461, 4115.384277, 4223.589844, 4218.974121, 4207.692383, 4204.102539, 0.000000, 8150.000000, 8210.000000, 0.000000, 0.000000, 0.000000, -20951.000000, 231.794861, 4.000000, 4.000000, 4.000000, 4.000000, 4.000000, 4.000000, 4.000000, 4.000000, 4.000000, 4.000000, 4.000000, 4.000000, 4.000000, 4.000000, 4.000000, 4.000000
49.000000, 0.000000, 4198.461426, 4215.897461, 4214.871582, 4213.333008, 4215.897461, 4214.358887, 4208.205078, 4207.692383, 4200.512695, 4121.025391, 4227.179199, 4219.487305, 4207.179199, 4205.641113, 0.000000, 8164.000000, 8203.000000, 0.000000, 0.000000, 0.000000, -20951.000000, 240.000000, 4.000000, 4.000000, 4.000000, 4.000000, 4.000000, 4.000000, 4.000000, 4.000000, 4.000000, 4.000000, 4.000000, 4.000000, 4.000000, 4.000000, 4.000000, 4.000000
50.000000, 0.000000, 4196.922852, 4214.871582, 4211.281738, 4205.641113, 4216.922852, 4207.179199, 4200.512695, 4208.717773, 4201.025391, 4113.846191, 4223.076660, 4208.717773, 4204.615234, 4200.000000, 0.000000, 8164.000000, 8203.000000, 0.000000, 0.000000, 0.000000, -20951.000000, 247.692307, 4.000000, 4.000000, 4.000000, 4.000000, 4.000000, 4.000000, 4.000000, 4.000000, 4.000000, 4.000000, 4.000000, 4.000000, 4.000000, 4.000000, 4.000000, 4.000000
51.000000, 0.000000, 4188.205078, 4204.615234, 4212.820313, 4205.127930, 4208.717773, 4200.512695, 4196.922852, 4201.025391, 4190.769043, 4106.153809, 4208.205078, 4198.974121, 4189.230469, 4202.563965, 0.000000, 8203.000000, 8195.000000, 0.000000, 0.000000, 0.000000, -20951.000000, 255.384613, 4.000000, 4.000000, 4.000000, 4.000000, 4.000000, 4.000000, 4.000000, 4.000000, 4.000000, 4.000000, 4.000000, 4.000000, 4.000000, 4.000000, 4.000000, 4.000000
52.000000, 0.000000, 4194.358887, 4208.205078, 4226.153809, 4214.871582, 4207.179199, 4203.076660, 4199.487305, 4201.025391, 4192.307617, 4116.410156, 4212.307617, 4211.281738, 4190.769043, 4204.102539, 0.000000, 8203.000000, 8195.000000, 0.000000, 0.000000, 0.000000, -20951.000000, 263.589752, 4.000000, 4.000000, 4.000000, 4.000000, 4.000000, 4.000000, 4.000000, 4.000000, 4.000000, 4.000000, 4.000000, 4.000000, 4.000000, 4.000000, 4.000000, 4.000000
53.000000, 0.000000, 4211.281738, 4224.102539, 4230.256348, 4220.512695, 4214.358887, 4203.589844, 4197.948730, 4205.127930, 4204.102539, 4128.205078, 4226.153809, 4220.000000, 4216.410156, 4203.589844, 0.000000, 8218.000000, 8187.000000, 0.000000, 0.000000, 0.000000, -20951.000000, 271.282043, 4.000000, 4.000000, 4.000000, 4.000000, 4.000000, 4.000000, 4.000000, 4.000000, 4.000000, 4.000000, 4.000000, 4.000000, 4.000000, 4.000000, 4.000000, 4.000000
54.000000, 0.000000, 4208.205078, 4222.563965, 4212.820313, 4214.871582, 4211.794922, 4200.000000, 4195.897461, 4201.025391, 4200.512695, 4125.641113, 4219.487305, 4203.589844, 4216.410156, 4206.153809, 0.000000, 8218.000000, 8187.000000, 0.000000, 0.000000, 0.000000, -20951.000000, 278.974365, 4.000000, 4.000000, 4.000000, 4.000000, 4.000000, 4.000000, 4.000000, 4.000000, 4.000000, 4.000000, 4.000000, 4.000000, 4.000000, 4.000000, 4.000000, 4.000000
55.000000, 0.000000, 4199.487305, 4211.794922, 4203.076660, 4210.769043, 4206.666504, 4203.076660, 4196.922852, 4196.922852, 4190.769043, 4123.589844, 4213.846191, 4193.846191, 4204.615234, 4204.615234, 0.000000, 8242.000000, 8172.000000, 0.000000, 0.000000, 0.000000, -20951.000000, 287.179474, 4.000000, 4.000000, 4.000000, 4.000000, 4.000000, 4.000000, 4.000000, 4.000000, 4.000000, 4.000000, 4.000000, 4.000000, 4.000000, 4.000000, 4.000000, 4.000000
56.000000, 0.000000, 4201.538574, 4215.897461, 4210.256348, 4213.846191, 4212.820313, 4204.615234, 4195.384277, 4192.820313, 4187.179199, 4121.538574, 4218.461426, 4202.563965, 4210.769043, 4206.666504, 0.000000, 8242.000000, 8172.000000, 0.000000, 0.000000, 0.000000, -20951.000000, 294.871796, 4.000000, 4.000000, 4.000000, 4.000000, 4.000000, 4.000000, 4.000000, 4.000000, 4.000000, 4.000000, 4.000000, 4.000000, 4.000000, 4.000000, 4.000000, 4.000000
57.000000, 0.000000, 4205.127930, 4219.487305, 4215.384277, 4216.410156, 4217.948730, 4202.051270, 4195.384277, 4184.102539, 4184.102539, 4113.333008, 4211.281738, 4202.051270, 4206.666504, 4202.563965, 0.000000, 8250.000000, 8160.000000, 0.000000, 0.000000, 0.000000, -20951.000000, 303.076904, 4.000000, 4.000000, 4.000000, 4.000000, 4.000000, 4.000000, 4.000000, 4.000000, 4.000000, 4.000000, 4.000000, 4.000000, 4.000000, 4.000000, 4.000000, 4.000000
58.000000, 0.000000, 4195.384277, 4210.256348, 4210.256348, 4214.871582, 4218.461426, 4209.743652, 4204.102539, 4185.127930, 4182.563965, 4107.179199, 4200.512695, 4192.307617, 4189.230469, 4201.025391, 0.000000, 8250.000000, 8160.000000, 0.000000, 0.000000, 0.000000, -20951.000000, 310.769226, 4.000000, 4.000000, 4.000000, 4.000000, 4.000000, 4.000000, 4.000000, 4.000000, 4.000000, 4.000000, 4.000000, 4.000000, 4.000000, 4.000000, 4.000000, 4.000000
59.000000, 0.000000, 4188.205078, 4203.589844, 4204.615234, 4209.743652, 4220.512695, 4215.897461, 4206.153809, 4193.333008, 4182.051270, 4103.589844, 4197.436035, 4192.307617, 4182.563965, 4208.205078, 0.000000, 8255.000000, 8154.000000, 0.000000, 0.000000, 0.000000, -20951.000000, 318.461517, 4.000000, 4.000000, 4.000000, 4.000000, 4.000000, 4.000000, 4.000000, 4.000000, 4.000000, 4.000000, 4.000000, 4.000000, 4.000000, 4.000000, 4.000000, 4.000000
60.000000, 0.000000, 4193.333008, 4203.076660, 4206.666504, 4204.102539, 4216.922852, 4207.692383, 4201.025391, 4198.974121, 4188.205078, 4105.641113, 4200.512695, 4196.410156, 4186.153809, 4205.641113, 0.000000, 8255.000000, 8154.000000, 0.000000, 0.000000, 0.000000, -20951.000000, 326.153839, 4.000000, 4.000000, 4.000000, 4.000000, 4.000000, 4.000000, 4.000000, 4.000000, 4.000000, 4.000000, 4.000000, 4.000000, 4.000000, 4.000000, 4.000000, 4.000000
61.000000, 0.000000, 4195.384277, 4202.051270, 4214.871582, 4206.153809, 4212.820313, 4200.512695, 4205.641113, 4207.179199, 4203.076660, 4122.051270, 4210.769043, 4205.127930, 4195.897461, 4206.666504, 0.000000, 8262.000000, 8145.000000, 0.000000, 0.000000, 0.000000, -20951.000000, 334.358978, 4.000000, 4.000000, 4.000000, 4.000000, 4.000000, 4.000000, 4.000000, 4.000000, 4.000000, 4.000000, 4.000000, 4.000000, 4.000000, 4.000000, 4.000000, 4.000000
62.000000, 0.000000, 4201.025391, 4205.127930, 4218.974121, 4213.333008, 4208.717773, 4203.589844, 4206.153809, 4209.230469, 4205.641113, 4135.897461, 4218.974121, 4213.846191, 4205.127930, 4207.692383, 0.000000, 8262.000000, 8145.000000, 0.000000, 0.000000, 0.000000, -20951.000000, 342.051270, 4.000000, 4.000000, 4.000000, 4.000000, 4.000000, 4.000000, 4.000000, 4.000000, 4.000000, 4.000000, 4.000000, 4.000000, 4.000000, 4.000000, 4.000000, 4.000000
63.000000, 0.000000, 4205.641113, 4209.743652, 4218.461426, 4215.384277, 4201.538574, 4201.025391, 4194.358887, 4197.948730, 4189.230469, 4130.256348, 4215.897461, 4209.230469, 4202.563965, 4204.615234, 0.000000, 8256.000000, 8146.000000, 0.000000, 0.000000, 0.000000, -20951.000000, 349.743591, 4.000000, 4.000000, 4.000000, 4.000000, 4.000000, 4.000000, 4.000000, 4.000000, 4.000000, 4.000000, 4.000000, 4.000000, 4.000000, 4.000000, 4.000000, 4.000000
64.000000, 0.000000, 4207.179199, 4214.358887, 4228.717773, 4221.025391, 4205.127930, 4196.922852, 4191.281738, 4193.846191, 4182.563965, 4120.000000, 4220.512695, 4209.743652, 4205.641113, 4209.230469, 3357.000000, 8256.000000, 8146.000000, 0.000000, 0.000000, 0.000000, -20951.000000, 357.948700, 4.000000, 4.000000, 4.000000, 4.000000, 4.000000, 4.000000, 4.000000, 4.000000, 4.000000, 4.000000, 4.000000, 4.000000, 4.000000, 4.000000, 4.000000, 4.000000
65.000000, 0.000000, 4215.384277, 4216.922852, 4236.922852, 4228.205078, 4218.461426, 4200.512695, 4201.025391, 4205.641113, 4196.922852, 4125.127930, 4231.281738, 4224.615234, 4214.871582, 4208.205078, 3508.000000, 8251.000000, 8146.000000, 0.000000, 0.000000, 0.000000, -20951.000000, 365.641022, 4.000000, 4.000000, 4.000000, 4.000000, 4.000000, 4.000000, 4.000000, 4.000000, 4.000000, 4.000000, 4.000000, 4.000000, 4.000000, 4.000000, 4.000000, 4.000000
66.000000, 0.000000, 4212.307617, 4213.846191, 4223.589844, 4224.615234, 4216.922852, 4204.615234, 4203.076660, 4207.692383, 4199.487305, 4131.281738, 4225.641113, 4225.641113, 4210.256348, 4207.179199, 2524.000000, 8251.000000, 8146.000000, 0.000000, 0.000000, 0.000000, -20951.000000, 373.333313, 4.000000, 4.000000, 4.000000, 4.000000, 4.000000, 4.000000, 4.000000, 4.000000, 4.000000, 4.000000, 4.000000, 4.000000, 4.000000, 4.000000, 4.000000, 4.000000
67.000000, 0.000000, 4201.538574, 4204.615234, 4206.153809, 4212.820313, 4204.615234, 4200.000000, 4196.922852, 4197.948730, 4188.205078, 4123.589844, 4209.743652, 4203.076660, 4194.358887, 4205.641113, 2155.000000, 8250.000000, 8140.000000, 0.000000, 0.000000, 0.000000, -20951.000000, 381.538452, 4.000000, 4.000000, 4.000000, 4.000000, 4.000000, 4.000000, 4.000000, 4.000000, 4.000000, 4.000000, 4.000000, 4.000000, 4.000000, 4.000000, 4.000000, 4.000000
68.000000, 0.000000, 4198.974121, 4196.922852, 4205.127930, 4205.641113, 4198.461426, 4189.230469, 4197.948730, 4198.974121, 4183.076660, 4116.410156, 4202.051270, 4188.205078, 4182.563965, 4202.563965, 3535.000000, 8250.000000, 8140.000000, 0.000000, 0.000000, 0.000000, -20951.000000, 389.230774, 4.000000, 4.000000, 4.000000, 4.000000, 4.000000, 4.000000, 4.000000, 4.000000, 4.000000, 4.000000, 4.000000, 4.000000, 4.000000, 4.000000, 4.000000, 4.000000
69.000000, 0.000000, 4200.000000, 4199.487305, 4214.871582, 4207.692383, 4198.461426, 4189.743652, 4202.051270, 4197.436035, 4183.589844, 4121.538574, 4199.487305, 4190.769043, 4183.076660, 4201.538574, 3542.000000, 8243.000000, 8138.000000, 0.000000, 0.000000, 0.000000, -20951.000000, 396.923065, 4.000000, 4.000000, 4.000000, 4.000000, 4.000000, 4.000000, 4.000000, 4.000000, 4.000000, 4.000000, 4.000000, 4.000000, 4.000000, 4.000000, 4.000000, 4.000000
70.000000, 0.000000, 4208.205078, 4205.641113, 4224.615234, 4214.358887, 4201.025391, 4201.025391, 4204.615234, 4197.948730, 4189.743652, 4131.794922, 4204.615234, 4198.461426, 4195.897461, 4200.512695, 3060.000000, 8243.000000, 8138.000000, 0.000000, 0.000000, 0.000000, -20951.000000, 404.615387, 4.000000, 4.000000, 4.000000, 4.000000, 4.000000, 4.000000, 4.000000, 4.000000, 4.000000, 4.000000, 4.000000, 4.000000, 4.000000, 4.000000, 4.000000, 4.000000
71.000000, 0.000000, 4215.897461, 4206.666504, 4230.769043, 4215.897461, 4203.076660, 4206.666504, 4210.769043, 4215.384277, 4206.153809, 4144.102539, 4221.538574, 4214.358887, 4205.127930, 4210.256348, 3515.000000, 8244.000000, 8145.000000, 0.000000, 0.000000, 0.000000, -20951.000000, 412.820496, 4.000000, 4.000000, 4.000000, 4.000000, 4.000000, 4.000000, 4.000000, 4.000000, 4.000000, 4.000000, 4.000000, 4.000000, 4.000000, 4.000000, 4.000000, 4.000000
72.000000, 0.000000, 4214.358887, 4203.589844, 4225.127930, 4209.230469, 4201.025391, 4203.589844, 4216.922852, 4228.717773, 4212.307617, 4147.692383, 4227.692383, 4218.461426, 4202.051270, 4209.743652, 3468.000000, 8244.000000, 8145.000000, 0.000000, 0.000000, 0.000000, -20951.000000, 420.512817, 4.000000, 4.000000, 4.000000, 4.000000, 4.000000, 4.000000, 4.000000, 4.000000, 4.000000, 4.000000, 4.000000, 4.000000, 4.000000, 4.000000, 4.000000, 4.000000
73.000000, 0.000000, 4208.205078, 4199.487305, 4204.102539, 4203.589844, 4202.051270, 4204.102539, 4214.358887, 4221.025391, 4202.051270, 4140.000000, 4218.461426, 4204.615234, 4202.563965, 4198.974121, 3545.000000, 8249.000000, 8149.000000, 0.000000, 0.000000, 0.000000, -20951.000000, 428.205109, 4.000000, 4.000000, 4.000000, 4.000000, 4.000000, 4.000000, 4.000000, 4.000000, 4.000000, 4.000000, 4.000000, 4.000000, 4.000000, 4.000000, 4.000000, 4.000000
74.000000, 0.000000, 4204.615234, 4198.461426, 4187.179199, 4199.487305, 4207.692383, 4205.127930, 4211.794922, 4213.333008, 4195.384277, 4133.333008, 4208.717773, 4189.743652, 4201.538574, 4206.666504, 3541.000000, 8249.000000, 8149.000000, 0.000000, 0.000000, 0.000000, -20951.000000, 435.897430, 4.000000, 4.000000, 4.000000, 4.000000, 4.000000, 4.000000, 4.000000, 4.000000, 4.000000, 4.000000, 4.000000, 4.000000, 4.000000, 4.000000, 4.000000, 4.000000
75.000000, 0.000000, 4207.692383, 4200.000000, 4189.743652, 4200.000000, 4206.153809, 4195.897461, 4206.666504, 4214.358887, 4200.000000, 4133.846191, 4203.076660, 4182.563965, 4190.769043, 4209.230469, 529.000000, 8253.000000, 8164.000000, 0.000000, 0.000000, 0.000000, -20951.000000, 444.102539, 4.000000, 4.000000, 4.000000, 4.000000, 4.000000, 4.000000, 4.000000, 4.000000, 4.000000, 4.000000, 4.000000, 4.000000, 4.000000, 4.000000, 4.000000, 4.000000
76.000000, 0.000000, 4211.794922, 4201.025391, 4210.256348, 4210.769043, 4203.589844, 4190.256348, 4200.512695, 4213.333008, 4202.563965, 4136.922852, 4205.127930, 4189.743652, 4191.281738, 4206.666504, 3478.000000, 8253.000000, 8164.000000, 0.000000, 0.000000, 0.000000, -20951.000000, 451.794861, 4.000000, 4.000000, 4.000000, 4.000000, 4.000000, 4.000000, 4.000000, 4.000000, 4.000000, 4.000000, 4.000000, 4.000000, 4.000000, 4.000000, 4.000000, 4.000000
77.000000, 0.000000, 4222.051270, 4204.615234, 4235.384277, 4220.512695, 4212.307617, 4195.384277, 4205.127930, 4213.846191, 4202.051270, 4139.487305, 4215.897461, 4208.717773, 4204.615234, 4208.205078, 3404.000000, 8255.000000, 8171.000000, 0.000000, 0.000000, 0.000000, -20951.000000, 460.000000, 4.000000, 4.000000, 4.000000, 4.000000, 4.000000, 4.000000, 4.000000, 4.000000, 4.000000, 4.000000, 4.000000, 4.000000, 4.000000, 4.000000, 4.000000, 4.000000
78.000000, 0.000000, 4226.666504, 4207.179199, 4235.897461, 4219.487305, 4217.948730, 4202.051270, 4213.333008, 4219.487305, 4204.102539, 4142.051270, 4223.589844, 4214.358887, 4204.615234, 4205.127930, 3541.000000, 8255.000000, 8171.000000, 0.000000, 0.000000, 0.000000, -20951.000000, 467.692291, 4.000000, 4.000000, 4.000000, 4.000000, 4.000000, 4.000000, 4.000000, 4.000000, 4.000000, 4.000000, 4.000000, 4.000000, 4.000000, 4.000000, 4.000000, 4.000000
79.000000, 0.000000, 4213.846191, 4203.589844, 4211.794922, 4206.153809, 4213.846191, 4205.641113, 4216.410156, 4217.948730, 4202.563965, 4140.000000, 4214.871582, 4203.589844, 4191.794922, 4204.615234, 529.000000, 8262.000000, 8171.000000, 0.000000, 0.000000, 0.000000, -20951.000000, 475.384613, 4.000000, 4.000000, 4.000000, 4.000000, 4.000000, 4.000000, 4.000000, 4.000000, 4.000000, 4.000000, 4.000000, 4.000000, 4.000000, 4.000000, 4.000000, 4.000000
80.000000, 0.000000, 4209.743652, 4198.974121, 4197.948730, 4201.025391, 4213.333008, 4214.358887, 4217.436035, 4207.179199, 4192.307617, 4132.307617, 4202.563965, 4192.820313, 4184.102539, 4202.563965, 3478.000000, 8262.000000, 8171.000000, 0.000000, 0.000000, 0.000000, -20951.000000, 483.589722, 4.000000, 4.000000, 4.000000, 4.000000, 4.000000, 4.000000, 4.000000, 4.000000, 4.000000, 4.000000, 4.000000, 4.000000, 4.000000, 4.000000, 4.000000, 4.000000
81.000000, 0.000000, 4212.307617, 4200.000000, 4201.538574, 4206.153809, 4215.897461, 4216.922852, 4215.384277, 4199.487305, 4182.563965, 4125.641113, 4200.512695, 4184.102539, 4181.025391, 4203.076660, 3404.000000, 8265.000000, 8167.000000, 0.000000, 0.000000, 0.000000, -20951.000000, 491.282043, 4.000000, 4.000000, 4.000000, 4.000000, 4.000000, 4.000000, 4.000000, 4.000000, 4.000000, 4.000000, 4.000000, 4.000000, 4.000000, 4.000000, 4.000000, 4.000000
82.000000, 0.000000, 4213.333008, 4201.025391, 4200.512695, 4207.179199, 4213.846191, 4206.153809, 4205.127930, 4197.948730, 4183.076660, 4123.589844, 4200.512695, 4177.948730, 4180.000000, 4205.127930, 3541.000000, 8265.000000, 8167.000000, 0.000000, 0.000000, 0.000000, -20951.000000, 498.974335, 4.000000, 4.000000, 4.000000, 4.000000, 4.000000, 4.000000, 4.000000, 4.000000, 4.000000, 4.000000, 4.000000, 4.000000, 4.000000, 4.000000, 4.000000, 4.000000
83.000000, 0.000000, 4219.487305, 4201.025391, 4196.922852, 4207.692383, 4213.846191, 4199.487305, 4195.384277, 4199.487305, 4188.205078, 4126.153809, 4202.051270, 4182.051270, 4184.615234, 4204.102539, 529.000000, 8271.000000, 8162.000000, 0.000000, 0.000000, 0.000000, -20951.000000, 507.179474, 4.000000, 4.000000, 4.000000, 4.000000, 4.000000, 4.000000, 4.000000, 4.000000, 4.000000, 4.000000, 4.000000, 4.000000, 4.000000, 4.000000, 4.000000, 4.000000
84.000000, 0.000000, 4223.076660, 4204.102539, 4208.717773, 4216.922852, 4214.358887, 4200.512695, 4192.820313, 4200.000000, 4189.743652, 4127.692383, 4205.127930, 4194.358887, 4187.179199, 4209.230469, 3478.000000, 8271.000000, 8162.000000, 0.000000, 0.000000, 0.000000, -20951.000000, 514.871765, 4.000000, 4.000000, 4.000000, 4.000000, 4.000000, 4.000000, 4.000000, 4.000000, 4.000000, 4.000000, 4.000000, 4.000000, 4.000000, 4.000000, 4.000000, 4.000000
85.000000, 0.000000, 4224.102539, 4207.692383, 4220.512695, 4223.076660, 4211.794922, 4200.000000, 4194.871582, 4201.025391, 4187.179199, 4126.153809, 4203.589844, 4196.922852, 4178.974121, 4205.127930, 3404.000000, 8278.000000, 8159.000000, 0.000000, 0.000000, 0.000000, -20951.000000, 522.564087, 4.000000, 4.000000, 4.000000, 4.000000, 4.000000, 4.000000, 4.000000, 4.000000, 4.000000, 4.000000, 4.000000, 4.000000, 4.000000, 4.000000, 4.000000, 4.000000
86.000000, 0.000000, 4220.000000, 4206.153809, 4218.461426, 4216.922852, 4210.769043, 4200.512695, 4200.512695, 4202.051270, 4178.461426, 4121.538574, 4198.461426, 4190.256348, 4169.230469, 4201.538574, 3541.000000, 8278.000000, 8159.000000, 0.000000, 0.000000, 0.000000, -20951.000000, 530.256409, 4.000000, 4.000000, 4.000000, 4.000000, 4.000000, 4.000000, 4.000000, 4.000000, 4.000000, 4.000000, 4.000000, 4.000000, 4.000000, 4.000000, 4.000000, 4.000000
87.000000, 0.000000, 4220.512695, 4204.102539, 4215.897461, 4214.358887, 4212.307617, 4201.538574, 4199.487305, 4196.410156, 4169.743652, 4120.512695, 4197.436035, 4188.205078, 4166.153809, 4205.641113, 529.000000, 8278.000000, 8155.000000, 0.000000, 0.000000, 0.000000, -20951.000000, 538.461548, 4.000000, 4.000000, 4.000000, 4.000000, 4.000000, 4.000000, 4.000000, 4.000000, 4.000000, 4.000000, 4.000000, 4.000000, 4.000000, 4.000000, 4.000000, 4.000000
88.000000, 0.000000, 4229.743652, 4204.615234, 4211.281738, 4220.000000, 4213.333008, 4200.512695, 4196.922852, 4188.717773, 4172.307617, 4127.692383, 4199.487305, 4186.153809, 4168.717773, 4201.025391, 3478.000000, 8278.000000, 8155.000000, 0.000000, 0.000000, 0.000000, -20951.000000, 546.153809, 4.000000, 4.000000, 4.000000, 4.000000, 4.000000, 4.000000, 4.000000, 4.000000, 4.000000, 4.000000, 4.000000, 4.000000, 4.000000, 4.000000, 4.000000, 4.000000
89.000000, 0.000000, 4222.051270, 4202.563965, 4195.384277, 4214.871582, 4211.281738, 4201.538574, 4207.692383, 4185.127930, 4175.897461, 4126.153809, 4194.358887, 4176.410156, 4165.127930, 4200.512695, 3404.000000, 8283.000000, 8150.000000, 0.000000, 0.000000, 0.000000, -20951.000000, 554.358948, 4.000000, 4.000000, 4.000000, 4.000000, 4.000000, 4.000000, 4.000000, 4.000000, 4.000000, 4.000000, 4.000000, 4.000000, 4.000000, 4.000000, 4.000000, 4.000000
90.000000, 0.000000, 4209.230469, 4195.897461, 4181.025391, 4198.461426, 4208.205078, 4203.076660, 4218.461426, 4185.641113, 4171.281738, 4115.384277, 4184.102539, 4163.076660, 4152.307617, 4202.051270, 3541.000000, 8283.000000, 8150.000000, 0.000000, 0.000000, 0.000000, -20951.000000, 562.051270, 4.000000, 4.000000, 4.000000, 4.000000, 4.000000, 4.000000, 4.000000, 4.000000, 4.000000, 4.000000, 4.000000, 4.000000, 4.000000, 4.000000, 4.000000, 4.000000
91.000000, 0.000000, 4215.384277, 4198.974121, 4180.512695, 4201.025391, 4209.230469, 4204.615234, 4214.358887, 4190.256348, 4177.948730, 4124.102539, 4186.666504, 4162.563965, 4162.051270, 4201.538574, 529.000000, 8278.000000, 8149.000000, 0.000000, 0.000000, 0.000000, -20951.000000, 569.743591, 4.000000, 4.000000, 4.000000, 4.000000, 4.000000, 4.000000, 4.000000, 4.000000, 4.000000, 4.000000, 4.000000, 4.000000, 4.000000, 4.000000, 4.000000, 4.000000
92.000000, 0.000000, 4226.666504, 4207.692383, 4185.641113, 4214.871582, 4210.769043, 4204.615234, 4208.717773, 4193.846191, 4185.641113, 4141.025391, 4197.948730, 4175.897461, 4181.025391, 4205.127930, 3478.000000, 8278.000000, 8149.000000, 0.000000, 0.000000, 0.000000, -20951.000000, 577.948730, 4.000000, 4.000000, 4.000000, 4.000000, 4.000000, 4.000000, 4.000000, 4.000000, 4.000000, 4.000000, 4.000000, 4.000000, 4.000000, 4.000000, 4.000000, 4.000000
93.000000, 0.000000, 4226.666504, 4204.102539, 4192.820313, 4207.692383, 4204.615234, 4203.076660, 4209.230469, 4188.205078, 4172.820313, 4135.384277, 4194.871582, 4182.563965, 4173.333008, 4202.563965, 3404.000000, 8271.000000, 8153.000000, 0.000000, 0.000000, 0.000000, -20951.000000, 585.640991, 4.000000, 4.000000, 4.000000, 4.000000, 4.000000, 4.000000, 4.000000, 4.000000, 4.000000, 4.000000, 4.000000, 4.000000, 4.000000, 4.000000, 4.000000, 4.000000
94.000000, 0.000000, 4217.948730, 4196.922852, 4197.948730, 4195.897461, 4198.974121, 4207.692383, 4217.436035, 4184.102539, 4164.615234, 4126.666504, 4182.563965, 4175.384277, 4160.512695, 4201.025391, 3541.000000, 8271.000000, 8153.000000, 0.000000, 0.000000, 0.000000, -20951.000000, 593.333313, 4.000000, 4.000000, 4.000000, 4.000000, 4.000000, 4.000000, 4.000000, 4.000000, 4.000000, 4.000000, 4.000000, 4.000000, 4.000000, 4.000000, 4.000000, 4.000000
95.000000, 0.000000, 4221.025391, 4199.487305, 4197.948730, 4201.538574, 4202.051270, 4210.256348, 4218.461426, 4184.615234, 4173.846191, 4134.871582, 4180.512695, 4173.333008, 4166.666504, 4203.076660, 529.000000, 8253.000000, 8156.000000, 0.000000, 0.000000, 0.000000, -20951.000000, 601.538452, 4.000000, 4.000000, 4.000000, 4.000000, 4.000000, 4.000000, 4.000000, 4.000000, 4.000000, 4.000000, 4.000000, 4.000000, 4.000000, 4.000000, 4.000000, 4.000000
96.000000, 0.000000, 4226.153809, 4202.563965, 4200.000000, 4207.179199, 4206.666504, 4206.153809, 4205.127930, 4186.153809, 4183.076660, 4147.692383, 4194.358887, 4182.563965, 4175.897461, 4205.127930, 3478.000000, 8253.000000, 8156.000000, 0.000000, 0.000000, 0.000000, -20951.000000, 609.230774, 4.000000, 4.000000, 4.000000, 4.000000, 4.000000, 4.000000, 4.000000, 4.000000, 4.000000, 4.000000, 4.000000, 4.000000, 4.000000, 4.000000, 4.000000, 4.000000
97.000000, 0.000000, 4224.102539, 4203.076660, 4198.461426, 4206.153809, 4204.615234, 4202.563965, 4204.615234, 4191.794922, 4182.051270, 4152.307617, 4198.974121, 4178.974121, 4174.358887, 4206.153809, 3404.000000, 8248.000000, 8163.000000, 0.000000, 0.000000, 0.000000, -20951.000000, 617.435852, 4.000000, 4.000000, 4.000000, 4.000000, 4.000000, 4.000000, 4.000000, 4.000000, 4.000000, 4.000000, 4.000000, 4.000000, 4.000000, 4.000000, 4.000000, 4.000000
98.000000, 0.000000, 4224.615234, 4203.076660, 4189.743652, 4203.076660, 4202.563965, 4204.615234, 4213.333008, 4194.871582, 4174.358887, 4150.256348, 4188.717773, 4165.641113, 4169.743652, 4201.025391, 3541.000000, 8248.000000, 8163.000000, 0.000000, 0.000000, 0.000000, -20951.000000, 625.128174, 4.000000, 4.000000, 4.000000, 4.000000, 4.000000, 4.000000, 4.000000, 4.000000, 4.000000, 4.000000, 4.000000, 4.000000, 4.000000, 4.000000, 4.000000, 4.000000
99.000000, 0.000000, 4223.076660, 4197.436035, 4188.205078, 4198.974121, 4204.615234, 4207.692383, 4207.692383, 4193.333008, 4172.307617, 4147.179199, 4186.666504, 4169.743652, 4169.743652, 4203.589844, 529.000000, 8224.000000, 8173.000000, 0.000000, 0.000000, 0.000000, -20951.000000, 632.820496, 4.000000, 4.000000, 4.000000, 4.000000, 4.000000, 4.000000, 4.000000, 4.000000, 4.000000, 4.000000, 4.000000, 4.000000, 4.000000, 4.000000, 4.000000, 4.000000
100.000000, 0.000000, 4228.717773, 4199.487305, 4200.512695, 4204.615234, 4211.281738, 4210.256348, 4205.127930, 4197.948730, 4181.538574, 4149.743652, 4194.358887, 4182.051270, 4178.461426, 4207.179199, 3478.000000, 8224.000000, 8173.000000, 0.000000, 0.000000, 0.000000, -20951.000000, 641.025635, 4.000000, 4.000000, 4.000000, 4.000000, 4.000000, 4.000000, 4.000000, 4.000000, 4.000000, 4.000000, 4.000000, 4.000000, 4.000000, 4.000000, 4.000000, 4.000000
101.000000, 0.000000, 4239.487305, 4212.820313, 4212.820313, 4218.461426, 4217.948730, 4215.897461, 4218.974121, 4205.127930, 4190.769043, 4157.436035, 4201.538574, 4188.205078, 4189.743652, 4203.076660, 3404.000000, 8213.000000, 8181.000000, 0.000000, 0.000000, 0.000000, -20951.000000, 648.717957, 4.000000, 4.000000, 4.000000, 4.000000, 4.000000, 4.000000, 4.000000, 4.000000, 4.000000, 4.000000, 4.000000, 4.000000, 4.000000, 4.000000, 4.000000, 4.000000
102.000000, 0.000000, 4240.000000, 4214.871582, 4211.794922, 4218.461426, 4214.358887, 4215.897461, 4223.076660, 4202.563965, 4189.230469, 4154.871582, 4201.025391, 4190.769043, 4188.717773, 4205.127930, 3541.000000, 8213.000000, 8181.000000, 0.000000, 0.000000, 0.000000, -20951.000000, 656.410217, 4.000000, 4.000000, 4.000000, 4.000000, 4.000000, 4.000000, 4.000000, 4.000000, 4.000000, 4.000000, 4.000000, 4.000000, 4.000000, 4.000000, 4.000000, 4.000000
103.000000, 0.000000, 4238.461426, 4208.205078, 4203.076660, 4208.205078, 4203.589844, 4207.692383, 4212.307617, 4195.384277, 4180.000000, 4146.666504, 4190.256348, 4184.615234, 4176.410156, 4205.127930, 529.000000, 8197.000000, 8176.000000, 0.000000, 0.000000, 0.000000, -20951.000000, 664.615356, 4.000000, 4.000000, 4.000000, 4.000000, 4.000000, 4.000000, 4.000000, 4.000000, 4.000000, 4.000000, 4.000000, 4.000000, 4.000000, 4.000000, 4.000000, 4.000000
104.000000, 0.000000, 4235.897461, 4208.717773, 4197.436035, 4207.179199, 4204.615234, 4197.948730, 4204.615234, 4190.769043, 4173.846191, 4156.410156, 4183.076660, 4175.384277, 4170.769043, 4205.641113, 3478.000000, 8197.000000, 8176.000000, 0.000000, 0.000000, 0.000000, -20951.000000, 672.307678, 4.000000, 4.000000, 4.000000, 4.000000, 4.000000, 4.000000, 4.000000, 4.000000, 4.000000, 4.000000, 4.000000, 4.000000, 4.000000, 4.000000, 4.000000, 4.000000
105.000000, 0.000000, 4237.948730, 4215.897461, 4200.000000, 4215.897461, 4213.846191, 4198.461426, 4202.051270, 4190.769043, 4177.948730, 4178.461426, 4193.333008, 4173.333008, 4179.487305, 4207.179199, 3404.000000, 8193.000000, 8177.000000, 0.000000, 0.000000, 0.000000, -20951.000000, 680.512817, 4.000000, 4.000000, 4.000000, 4.000000, 4.000000, 4.000000, 4.000000, 4.000000, 4.000000, 4.000000, 4.000000, 4.000000, 4.000000, 4.000000, 4.000000, 4.000000
106.000000, 0.000000, 4244.615234, 4222.051270, 4211.794922, 4227.179199, 4221.538574, 4211.281738, 4208.717773, 4201.025391, 4186.666504, 4188.717773, 4206.153809, 4181.538574, 4191.281738, 4205.127930, 3541.000000, 8193.000000, 8177.000000, 0.000000, 0.000000, 0.000000, -20951.000000, 688.205139, 4.000000, 4.000000, 4.000000, 4.000000, 4.000000, 4.000000, 4.000000, 4.000000, 4.000000, 4.000000, 4.000000, 4.000000, 4.000000, 4.000000, 4.000000, 4.000000
107.000000, 0.000000, 4246.153809, 4224.615234, 4217.436035, 4233.846191, 4219.487305, 4214.358887, 4216.922852, 4209.743652, 4187.179199, 4186.153809, 4206.666504, 4189.230469, 4192.307617, 4208.205078, 529.000000, 8188.000000, 8188.000000, 0.000000, 0.000000, 0.000000, -20951.000000, 695.897400, 4.000000, 4.000000, 4.000000, 4.000000, 4.000000, 4.000000, 4.000000, 4.000000, 4.000000, 4.000000, 4.000000, 4.000000, 4.000000, 4.000000, 4.000000, 4.000000
108.000000, 0.000000, 4245.127930, 4220.512695, 4208.205078, 4225.127930, 4203.076660, 4201.025391, 4212.820313, 4205.641113, 4180.512695, 4182.563965, 4197.436035, 4182.563965, 4183.589844, 4205.641113, 3478.000000, 8188.000000, 8188.000000, 0.000000, 0.000000, 0.000000, -20951.000000, 703.589722, 4.000000, 4.000000, 4.000000, 4.000000, 4.000000, 4.000000, 4.000000, 4.000000, 4.000000, 4.000000, 4.000000, 4.000000, 4.000000, 4.000000, 4.000000, 4.000000
109.000000, 0.000000, 4237.948730, 4213.333008, 4197.436035, 4213.333008, 4196.410156, 4194.871582, 4211.794922, 4204.615234, 4175.384277, 4185.127930, 4186.153809, 4172.820313, 4177.436035, 4202.051270, 3404.000000, 8178.000000, 8189.000000, 0.000000, 0.000000, 0.000000, -20951.000000, 711.794861, 4.000000, 4.000000, 4.000000, 4.000000, 4.000000, 4.000000, 4.000000, 4.000000, 4.000000, 4.000000, 4.000000, 4.000000, 4.000000, 4.000000, 4.000000, 4.000000
110.000000, 0.000000, 4236.922852, 4215.384277, 4199.487305, 4215.384277, 4214.358887, 4210.256348, 4224.615234, 4213.333008, 4180.000000, 4190.256348, 4185.641113, 4172.820313, 4181.025391, 4203.076660, 3541.000000, 8178.000000, 8189.000000, 0.000000, 0.000000, 0.000000, -20951.000000, 719.487183, 4.000000, 4.000000, 4.000000, 4.000000, 4.000000, 4.000000, 4.000000, 4.000000, 4.000000, 4.000000, 4.000000, 4.000000, 4.000000, 4.000000, 4.000000, 4.000000
111.000000, 0.000000, 4241.025391, 4218.461426, 4200.000000, 4218.461426, 4225.127930, 4220.512695, 4233.333008, 4218.461426, 4191.281738, 4194.871582, 4188.717773, 4173.846191, 4187.692383, 4202.051270, 529.000000, 8181.000000, 8191.000000, 0.000000, 0.000000, 0.000000, -20951.000000, 727.692261, 4.000000, 4.000000, 4.000000, 4.000000, 4.000000, 4.000000, 4.000000, 4.000000, 4.000000, 4.000000, 4.000000, 4.000000, 4.000000, 4.000000, 4.000000, 4.000000
112.000000, 0.000000, 4232.307617, 4213.333008, 4191.794922, 4206.666504, 4211.281738, 4208.205078, 4225.127930, 4203.589844, 4187.179199, 4194.871582, 4184.102539, 4168.205078, 4185.127930, 4205.641113, 3478.000000, 8181.000000, 8191.000000, 0.000000, 0.000000, 0.000000, -20951.000000, 735.384583, 4.000000, 4.000000, 4.000000, 4.000000, 4.000000, 4.000000, 4.000000, 4.000000, 4.000000, 4.000000, 4.000000, 4.000000, 4.000000, 4.000000, 4.000000, 4.000000
113.000000, 0.000000, 4227.692383, 4207.692383, 4193.846191, 4196.410156, 4201.025391, 4197.948730, 4216.410156, 4186.153809, 4170.769043, 4191.794922, 4181.538574, 4169.230469, 4177.948730, 4204.102539, 3404.000000, 8174.000000, 8189.000000, 0.000000, 0.000000, 0.000000, -20951.000000, 743.076904, 4.000000, 4.000000, 4.000000, 4.000000, 4.000000, 4.000000, 4.000000, 4.000000, 4.000000, 4.000000, 4.000000, 4.000000, 4.000000, 4.000000, 4.000000, 4.000000
114.000000, 0.000000, 4229.230469, 4206.153809, 4201.538574, 4205.641113, 4202.051270, 4200.512695, 4217.436035, 4190.769043, 4171.794922, 4189.230469, 4187.692383, 4180.512695, 4174.871582, 4204.615234, 3541.000000, 8174.000000, 8189.000000, 0.000000, 0.000000, 0.000000, -20951.000000, 751.282043, 4.000000, 4.000000, 4.000000, 4.000000, 4.000000, 4.000000, 4.000000, 4.000000, 4.000000, 4.000000, 4.000000, 4.000000, 4.000000, 4.000000, 4.000000, 4.000000
115.000000, 0.000000, 4230.256348, 4208.205078, 4202.563965, 4213.846191, 4202.563965, 4202.563965, 4212.820313, 4197.948730, 4180.000000, 4184.615234, 4185.127930, 4186.153809, 4174.358887, 4207.692383, 529.000000, 8175.000000, 8186.000000, 0.000000, 0.000000, 0.000000, -20951.000000, 758.974365, 4.000000, 4.000000, 4.000000, 4.000000, 4.000000, 4.000000, 4.000000, 4.000000, 4.000000, 4.000000, 4.000000, 4.000000, 4.000000, 4.000000, 4.000000, 4.000000
116.000000, 0.000000, 4231.281738, 4208.205078, 4206.666504, 4209.230469, 4202.051270, 4198.974121, 4203.076660, 4187.179199, 4168.717773, 4176.922852, 4175.897461, 4182.563965, 4175.384277, 4202.051270, 3478.000000, 8175.000000, 8186.000000, 0.000000, 0.000000, 0.000000, -20951.000000, 766.666626, 4.000000, 4.000000, 4.000000, 4.000000, 4.000000, 4.000000, 4.000000, 4.000000, 4.000000, 4.000000, 4.000000, 4.000000, 4.000000, 4.000000, 4.000000, 4.000000
117.000000, 0.000000, 4229.230469, 4212.307617, 4214.358887, 4210.256348, 4201.538574, 4199.487305, 4201.538574, 4177.948730, 4155.897461, 4175.384277, 4178.974121, 4186.153809, 4173.846191, 4202.563965, 3404.000000, 8180.000000, 8183.000000, 0.000000, 0.000000, 0.000000, -20951.000000, 774.871765, 4.000000, 4.000000, 4.000000, 4.000000, 4.000000, 4.000000, 4.000000, 4.000000, 4.000000, 4.000000, 4.000000, 4.000000, 4.000000, 4.000000, 4.000000, 4.000000
118.000000, 0.000000, 4232.307617, 4216.922852, 4211.794922, 4215.897461, 4203.589844, 4202.563965, 4205.641113, 4184.615234, 4165.641113, 4178.974121, 4184.102539, 4191.281738, 4173.333008, 4205.127930, 3541.000000, 8180.000000, 8183.000000, 0.000000, 0.000000, 0.000000, -20951.000000, 782.564087, 4.000000, 4.000000, 4.000000, 4.000000, 4.000000, 4.000000, 4.000000, 4.000000, 4.000000, 4.000000, 4.000000, 4.000000, 4.000000, 4.000000, 4.000000, 4.000000
119.000000, 0.000000, 4229.743652, 4210.769043, 4200.000000, 4207.179199, 4204.615234, 4202.051270, 4206.666504, 4187.179199, 4173.333008, 4175.897461, 4181.025391, 4189.743652, 4172.307617, 4204.102539, 529.000000, 8181.000000, 8178.000000, 0.000000, 0.000000, 0.000000, -20951.000000, 790.769226, 4.000000, 4.000000, 4.000000, 4.000000, 4.000000, 4.000000, 4.000000, 4.000000, 4.000000, 4.000000, 4.000000, 4.000000, 4.000000, 4.000000, 4.000000, 4.000000
120.000000, 0.000000, 4222.563965, 4203.076660, 4199.487305, 4197.948730, 4203.076660, 4196.922852, 4202.051270, 4180.512695, 4163.589844, 4168.717773, 4179.487305, 4187.692383, 4168.717773, 4206.153809, 3478.000000, 8181.000000, 8178.000000, 0.000000, 0.000000, 0.000000, -20951.000000, 798.461548, 4.000000, 4.000000, 4.000000, 4.000000, 4.000000, 4.000000, 4.000000, 4.000000, 4.000000, 4.000000, 4.000000, 4.000000, 4.000000, 4.000000, 4.000000, 4.000000
121.000000, 0.000000, 4223.589844, 4206.666504, 4203.076660, 4203.076660, 4198.974121, 4189.743652, 4196.410156, 4184.102539, 4163.076660, 4174.358887, 4182.563965, 4187.179199, 4170.256348, 4203.076660, 3404.000000, 8183.000000, 8175.000000, 0.000000, 0.000000, 0.000000, -20951.000000, 806.153809, 4.000000, 4.000000, 4.000000, 4.000000, 4.000000, 4.000000, 4.000000, 4.000000, 4.000000, 4.000000, 4.000000, 4.000000, 4.000000, 4.000000, 4.000000, 4.000000
122.000000, 0.000000, 4221.025391, 4213.846191, 4201.025391, 4204.102539, 4197.436035, 4185.127930, 4196.922852, 4194.358887, 4176.922852, 4187.692383, 4181.025391, 4190.256348, 4172.307617, 4206.153809, 3541.000000, 8183.000000, 8175.000000, 0.000000, 0.000000, 0.000000, -20951.000000, 813.846130, 4.000000, 4.000000, 4.000000, 4.000000, 4.000000, 4.000000, 4.000000, 4.000000, 4.000000, 4.000000, 4.000000, 4.000000, 4.000000, 4.000000, 4.000000, 4.000000
123.000000, 0.000000, 4222.563965, 4214.871582, 4201.025391, 4202.051270, 4203.076660, 4188.717773, 4201.538574, 4198.974121, 4182.051270, 4196.410156, 4181.538574, 4198.461426, 4173.333008, 4207.692383, 529.000000, 8186.000000, 8172.000000, 0.000000, 0.000000, 0.000000, -20951.000000, 822.051270, 4.000000, 4.000000, 4.000000, 4.000000, 4.000000, 4.000000, 4.000000, 4.000000, 4.000000, 4.000000, 4.000000, 4.000000, 4.000000, 4.000000, 4.000000, 4.000000
124.000000, 0.000000, 4227.179199, 4213.846191, 4201.538574, 4209.230469, 4196.922852, 4197.436035, 4204.102539, 4198.461426, 4177.436035, 4201.025391, 4189.743652, 4196.922852, 4180.512695, 4203.589844, 3478.000000, 8186.000000, 8172.000000, 0.000000, 0.000000, 0.000000, -20951.000000, 830.256409, 4.000000, 4.000000, 4.000000, 4.000000, 4.000000, 4.000000, 4.000000, 4.000000, 4.000000, 4.000000, 4.000000, 4.000000, 4.000000, 4.000000, 4.000000, 4.000000
125.000000, 0.000000, 4226.153809, 4215.897461, 4198.461426, 4212.307617, 4186.153809, 4200.000000, 4204.102539, 4200.000000, 4179.487305, 4204.615234, 4188.717773, 4188.205078, 4184.102539, 4204.615234, 3404.000000, 8186.000000, 8167.000000, 0.000000, 0.000000, 0.000000, -20951.000000, 837.948669, 4.000000, 4.000000, 4.000000, 4.000000, 4.000000, 4.000000, 4.000000, 4.000000, 4.000000, 4.000000, 4.000000, 4.000000, 4.000000, 4.000000, 4.000000, 4.000000
126.000000, 0.000000, 4229.230469, 4217.948730, 4200.512695, 4210.769043, 4201.538574, 4198.461426, 4200.512695, 4201.538574, 4187.179199, 4215.897461, 4188.717773, 4186.666504, 4185.127930, 4202.051270, 3541.000000, 8186.000000, 8167.000000, 0.000000, 0.000000, 0.000000, -20951.000000, 845.640991, 4.000000, 4.000000, 4.000000, 4.000000, 4.000000, 4.000000, 4.000000, 4.000000, 4.000000, 4.000000, 4.000000, 4.000000, 4.000000, 4.000000, 4.000000, 4.000000
