title:winkLeft1, recorded:16.05.18 19.50.29, timestamp started:2018-05-12T20:28:52.032863+02:00            , sampling:128, subject:Noé, labels:COUNTER INTERPOLATED AF3 F7 F3 FC5 T7 P7 O1 O2 P8 T8 FC6 F4 F8 AF4 RAW_CQ GYROX GYROY MARKER MARKER_HARDWARE SYNC TIME_STAMP_s TIME_STAMP_ms CQ_AF3 CQ_F7 CQ_F3 CQ_FC5 CQ_T7 CQ_P7 CQ_O1 CQ_O2 CQ_P8 CQ_T8 CQ_FC6 CQ_F4 CQ_F8 CQ_AF4 CQ_CMS CQ_DRL, chan:40, samples:7059, units:emotiv
103.000000, 0.000000, 4333.333008, 4172.307617, 4124.102539, 4183.589844, 4195.897461, 4178.974121, 4185.641113, 4184.102539, 4188.205078, 4177.948730, 4192.820313, 4187.692383, 4101.025391, 4154.871582, 2430.000000, 8200.000000, 8163.000000, 0.000000, 0.000000, 0.000000, 15618.000000, 201.538452, 4.000000, 4.000000, 4.000000, 4.000000, 4.000000, 4.000000, 4.000000, 4.000000, 4.000000, 4.000000, 4.000000, 4.000000, 4.000000, 4.000000, 4.000000, 4.000000
104.000000, 0.000000, 4313.333008, 4169.743652, 4118.974121, 4175.384277, 4189.230469, 4172.820313, 4184.102539, 4173.846191, 4177.948730, 4172.307617, 4186.153809, 4184.615234, 4096.922852, 4152.307617, 3479.000000, 8200.000000, 8163.000000, 0.000000, 0.000000, 0.000000, 15618.000000, 209.743591, 4.000000, 4.000000, 4.000000, 4.000000, 4.000000, 4.000000, 4.000000, 4.000000, 4.000000, 4.000000, 4.000000, 4.000000, 4.000000, 4.000000, 4.000000, 4.000000
105.000000, 0.000000, 4310.769043, 4167.179199, 4114.871582, 4173.846191, 4179.487305, 4173.846191, 4183.076660, 4172.307617, 4176.922852, 4167.692383, 4178.974121, 4186.666504, 4092.820313, 4150.256348, 2393.000000, 8189.000000, 8159.000000, 0.000000, 0.000000, 0.000000, 15618.000000, 217.435898, 4.000000, 4.000000, 4.000000, 4.000000, 4.000000, 4.000000, 4.000000, 4.000000, 4.000000, 4.000000, 4.000000, 4.000000, 4.000000, 4.000000, 4.000000, 4.000000
106.000000, 0.000000, 4321.538574, 4165.641113, 4124.102539, 4176.410156, 4181.538574, 4173.333008, 4183.589844, 4182.051270, 4185.641113, 4171.281738, 4183.589844, 4185.641113, 4090.256348, 4155.384277, 3104.000000, 8189.000000, 8159.000000, 0.000000, 0.000000, 0.000000, 15618.000000, 225.641022, 4.000000, 4.000000, 4.000000, 4.000000, 4.000000, 4.000000, 4.000000, 4.000000, 4.000000, 4.000000, 4.000000, 4.000000, 4.000000, 4.000000, 4.000000, 4.000000
107.000000, 0.000000, 4307.179199, 4172.820313, 4126.666504, 4177.436035, 4188.717773, 4172.307617, 4183.076660, 4187.692383, 4193.846191, 4181.538574, 4190.256348, 4184.102539, 4087.179443, 4157.948730, 2430.000000, 8182.000000, 8156.000000, 0.000000, 0.000000, 0.000000, 15618.000000, 233.846146, 4.000000, 4.000000, 4.000000, 4.000000, 4.000000, 4.000000, 4.000000, 4.000000, 4.000000, 4.000000, 4.000000, 4.000000, 4.000000, 4.000000, 4.000000, 4.000000
108.000000, 0.000000, 4274.358887, 4170.256348, 4126.666504, 4169.743652, 4185.641113, 4175.384277, 4188.205078, 4193.333008, 4195.384277, 4182.563965, 4187.179199, 4187.179199, 4083.589600, 4158.461426, 3479.000000, 8182.000000, 8156.000000, 0.000000, 0.000000, 0.000000, 15618.000000, 241.538452, 4.000000, 4.000000, 4.000000, 4.000000, 4.000000, 4.000000, 4.000000, 4.000000, 4.000000, 4.000000, 4.000000, 4.000000, 4.000000, 4.000000, 4.000000, 4.000000
109.000000, 0.000000, 4270.256348, 4172.307617, 4132.307617, 4170.769043, 4192.307617, 4178.461426, 4195.897461, 4198.461426, 4196.410156, 4185.641113, 4194.358887, 4190.256348, 4096.410156, 4155.897461, 2393.000000, 8173.000000, 8158.000000, 0.000000, 0.000000, 0.000000, 15618.000000, 249.230759, 4.000000, 4.000000, 4.000000, 4.000000, 4.000000, 4.000000, 4.000000, 4.000000, 4.000000, 4.000000, 4.000000, 4.000000, 4.000000, 4.000000, 4.000000, 4.000000
110.000000, 0.000000, 4306.153809, 4186.153809, 4135.897461, 4180.512695, 4203.589844, 4173.846191, 4189.743652, 4202.051270, 4202.051270, 4201.025391, 4210.256348, 4200.000000, 4109.230469, 4158.974121, 3104.000000, 8173.000000, 8158.000000, 0.000000, 0.000000, 0.000000, 15618.000000, 257.435883, 4.000000, 4.000000, 4.000000, 4.000000, 4.000000, 4.000000, 4.000000, 4.000000, 4.000000, 4.000000, 4.000000, 4.000000, 4.000000, 4.000000, 4.000000, 4.000000
111.000000, 0.000000, 4274.871582, 4177.436035, 4128.717773, 4173.846191, 4189.743652, 4168.717773, 4181.025391, 4201.025391, 4198.974121, 4198.974121, 4205.641113, 4203.076660, 4102.051270, 4155.897461, 2430.000000, 8154.000000, 8147.000000, 0.000000, 0.000000, 0.000000, 15618.000000, 265.641022, 4.000000, 4.000000, 4.000000, 4.000000, 4.000000, 4.000000, 4.000000, 4.000000, 4.000000, 4.000000, 4.000000, 4.000000, 4.000000, 4.000000, 4.000000, 4.000000
112.000000, 0.000000, 4155.897461, 4159.487305, 4119.487305, 4163.076660, 4177.436035, 4168.205078, 4184.102539, 4194.358887, 4189.743652, 4180.512695, 4192.820313, 4191.281738, 4097.948730, 4141.538574, 3479.000000, 8154.000000, 8147.000000, 0.000000, 0.000000, 0.000000, 15618.000000, 273.333313, 4.000000, 4.000000, 4.000000, 4.000000, 4.000000, 4.000000, 4.000000, 4.000000, 4.000000, 4.000000, 4.000000, 4.000000, 4.000000, 4.000000, 4.000000, 4.000000
113.000000, 0.000000, 4069.230713, 4163.076660, 4127.179199, 4167.179199, 4183.076660, 4166.666504, 4185.641113, 4189.743652, 4190.769043, 4181.538574, 4193.846191, 4191.281738, 4107.179199, 4142.051270, 2393.000000, 8151.000000, 8144.000000, 0.000000, 0.000000, 0.000000, 15618.000000, 281.538452, 4.000000, 4.000000, 4.000000, 4.000000, 4.000000, 4.000000, 4.000000, 4.000000, 4.000000, 4.000000, 4.000000, 4.000000, 4.000000, 4.000000, 4.000000, 4.000000
114.000000, 0.000000, 4025.128174, 4169.230469, 4137.436035, 4166.666504, 4177.948730, 4168.205078, 4184.102539, 4192.820313, 4194.871582, 4190.769043, 4194.871582, 4197.948730, 4102.051270, 4146.153809, 3104.000000, 8151.000000, 8144.000000, 0.000000, 0.000000, 0.000000, 15618.000000, 289.230774, 4.000000, 4.000000, 4.000000, 4.000000, 4.000000, 4.000000, 4.000000, 4.000000, 4.000000, 4.000000, 4.000000, 4.000000, 4.000000, 4.000000, 4.000000, 4.000000
115.000000, 0.000000, 3997.435791, 4164.102539, 4136.922852, 4157.948730, 4172.307617, 4168.717773, 4187.692383, 4196.922852, 4192.820313, 4185.641113, 4190.256348, 4196.410156, 4077.948730, 4141.538574, 2430.000000, 8150.000000, 8136.000000, 0.000000, 0.000000, 0.000000, 15618.000000, 297.435883, 4.000000, 4.000000, 4.000000, 4.000000, 4.000000, 4.000000, 4.000000, 4.000000, 4.000000, 4.000000, 4.000000, 4.000000, 4.000000, 4.000000, 4.000000, 4.000000
116.000000, 1.000000, 4030.769043, 4164.102539, 4136.410156, 4160.000000, 4174.871582, 4167.692383, 4186.153809, 4194.358887, 4190.769043, 4183.589844, 4188.717773, 4194.871582, 4076.923096, 4142.051270, 2424.000000, 8150.000000, 8136.000000, 0.000000, 0.000000, 0.000000, 15618.000000, 305.128204, 4.000000, 4.000000, 4.000000, 4.000000, 4.000000, 4.000000, 4.000000, 4.000000, 4.000000, 4.000000, 4.000000, 4.000000, 4.000000, 4.000000, 4.000000, 4.000000
117.000000, 1.000000, 4063.589600, 4164.102539, 4135.384277, 4161.538574, 4177.436035, 4166.666504, 4185.127930, 4191.794922, 4188.717773, 4181.538574, 4187.692383, 4192.820313, 4076.410156, 4142.051270, 2418.000000, 8150.000000, 8136.000000, 0.000000, 0.000000, 0.000000, 15618.000000, 312.820496, 4.000000, 4.000000, 4.000000, 4.000000, 4.000000, 4.000000, 4.000000, 4.000000, 4.000000, 4.000000, 4.000000, 4.000000, 4.000000, 4.000000, 4.000000, 4.000000
118.000000, 1.000000, 4096.922852, 4164.102539, 4134.871582, 4163.589844, 4180.000000, 4165.127930, 4183.589844, 4189.230469, 4186.153809, 4179.487305, 4186.153809, 4191.281738, 4075.897217, 4142.563965, 2412.000000, 8150.000000, 8136.000000, 0.000000, 0.000000, 0.000000, 15618.000000, 321.025635, 4.000000, 4.000000, 4.000000, 4.000000, 4.000000, 4.000000, 4.000000, 4.000000, 4.000000, 4.000000, 4.000000, 4.000000, 4.000000, 4.000000, 4.000000, 4.000000
119.000000, 1.000000, 4130.256348, 4164.102539, 4133.846191, 4165.127930, 4182.051270, 4164.102539, 4182.563965, 4186.666504, 4184.102539, 4177.436035, 4185.127930, 4189.230469, 4075.384521, 4142.563965, 2406.000000, 8150.000000, 8136.000000, 0.000000, 0.000000, 0.000000, 15618.000000, 328.717926, 4.000000, 4.000000, 4.000000, 4.000000, 4.000000, 4.000000, 4.000000, 4.000000, 4.000000, 4.000000, 4.000000, 4.000000, 4.000000, 4.000000, 4.000000, 4.000000
120.000000, 1.000000, 4163.589844, 4164.102539, 4133.333008, 4167.179199, 4184.615234, 4163.076660, 4181.025391, 4184.102539, 4182.051270, 4175.384277, 4183.589844, 4187.692383, 4074.358887, 4143.076660, 2400.000000, 8150.000000, 8136.000000, 0.000000, 0.000000, 0.000000, 15618.000000, 336.923065, 4.000000, 4.000000, 4.000000, 4.000000, 4.000000, 4.000000, 4.000000, 4.000000, 4.000000, 4.000000, 4.000000, 4.000000, 4.000000, 4.000000, 4.000000, 4.000000
121.000000, 0.000000, 4196.922852, 4163.589844, 4132.307617, 4169.230469, 4187.179199, 4161.538574, 4179.487305, 4181.538574, 4180.000000, 4172.820313, 4182.563965, 4185.641113, 4073.845947, 4143.589844, 2393.000000, 8150.000000, 8136.000000, 0.000000, 0.000000, 0.000000, 15618.000000, 344.615387, 4.000000, 4.000000, 4.000000, 4.000000, 4.000000, 4.000000, 4.000000, 4.000000, 4.000000, 4.000000, 4.000000, 4.000000, 4.000000, 4.000000, 4.000000, 4.000000
122.000000, 0.000000, 4361.025391, 4161.025391, 4125.127930, 4172.820313, 4186.666504, 4154.358887, 4169.230469, 4170.256348, 4170.256348, 4170.256348, 4180.512695, 4181.025391, 4077.435791, 4140.512695, 3104.000000, 8150.000000, 8136.000000, 0.000000, 0.000000, 0.000000, 15618.000000, 352.307678, 4.000000, 4.000000, 4.000000, 4.000000, 4.000000, 4.000000, 4.000000, 4.000000, 4.000000, 4.000000, 4.000000, 4.000000, 4.000000, 4.000000, 4.000000, 4.000000
123.000000, 0.000000, 4461.025391, 4157.436035, 4114.358887, 4172.820313, 4193.846191, 4156.922852, 4168.717773, 4163.076660, 4163.076660, 4168.717773, 4179.487305, 4182.051270, 4075.384521, 4142.563965, 2430.000000, 8160.000000, 8142.000000, 0.000000, 0.000000, 0.000000, 15618.000000, 360.512817, 4.000000, 4.000000, 4.000000, 4.000000, 4.000000, 4.000000, 4.000000, 4.000000, 4.000000, 4.000000, 4.000000, 4.000000, 4.000000, 4.000000, 4.000000, 4.000000
124.000000, 0.000000, 4506.666504, 4155.384277, 4110.769043, 4168.205078, 4193.333008, 4161.025391, 4170.769043, 4168.205078, 4170.769043, 4170.769043, 4178.461426, 4183.589844, 4078.461426, 4145.127930, 3479.000000, 8160.000000, 8142.000000, 0.000000, 0.000000, 0.000000, 15618.000000, 368.205109, 4.000000, 4.000000, 4.000000, 4.000000, 4.000000, 4.000000, 4.000000, 4.000000, 4.000000, 4.000000, 4.000000, 4.000000, 4.000000, 4.000000, 4.000000, 4.000000
125.000000, 0.000000, 4520.512695, 4159.487305, 4111.794922, 4167.692383, 4184.102539, 4154.871582, 4170.256348, 4172.307617, 4176.410156, 4173.846191, 4179.487305, 4184.102539, 4086.153809, 4143.076660, 2393.000000, 8180.000000, 8121.000000, 0.000000, 0.000000, 0.000000, 15618.000000, 376.410248, 4.000000, 4.000000, 4.000000, 4.000000, 4.000000, 4.000000, 4.000000, 4.000000, 4.000000, 4.000000, 4.000000, 4.000000, 4.000000, 4.000000, 4.000000, 4.000000
126.000000, 0.000000, 4515.384277, 4168.717773, 4114.358887, 4170.256348, 4183.589844, 4148.717773, 4168.717773, 4171.281738, 4173.333008, 4175.384277, 4184.102539, 4185.127930, 4093.845947, 4147.179199, 3104.000000, 8180.000000, 8121.000000, 0.000000, 0.000000, 0.000000, 15618.000000, 384.102570, 4.000000, 4.000000, 4.000000, 4.000000, 4.000000, 4.000000, 4.000000, 4.000000, 4.000000, 4.000000, 4.000000, 4.000000, 4.000000, 4.000000, 4.000000, 4.000000
127.000000, 0.000000, 4534.358887, 4176.410156, 4122.051270, 4173.333008, 4186.666504, 4145.127930, 4157.436035, 4169.743652, 4172.307617, 4173.846191, 4187.179199, 4184.102539, 4097.436035, 4146.666504, 55.000000, 8189.000000, 8108.000000, 0.000000, 0.000000, 0.000000, 15618.000000, 391.794861, 4.000000, 4.000000, 4.000000, 4.000000, 4.000000, 4.000000, 4.000000, 4.000000, 4.000000, 4.000000, 4.000000, 4.000000, 4.000000, 4.000000, 4.000000, 4.000000
0.000000, 0.000000, 4520.512695, 4174.358887, 4131.794922, 4175.384277, 4181.025391, 4138.461426, 4151.794922, 4166.153809, 4168.717773, 4166.153809, 4185.127930, 4187.179199, 4087.179443, 4146.153809, 3124.000000, 8189.000000, 8108.000000, 0.000000, 0.000000, 0.000000, 15618.000000, 399.487183, 4.000000, 4.000000, 4.000000, 4.000000, 4.000000, 4.000000, 4.000000, 4.000000, 4.000000, 4.000000, 4.000000, 4.000000, 4.000000, 4.000000, 4.000000, 4.000000
1.000000, 0.000000, 4442.563965, 4176.922852, 4136.410156, 4174.871582, 4183.589844, 4136.410156, 4162.563965, 4166.666504, 4166.153809, 4167.692383, 4186.153809, 4190.256348, 4061.025635, 4150.769043, 3537.000000, 8211.000000, 8082.000000, 0.000000, 0.000000, 0.000000, 15618.000000, 407.692291, 4.000000, 4.000000, 4.000000, 4.000000, 4.000000, 4.000000, 4.000000, 4.000000, 4.000000, 4.000000, 4.000000, 4.000000, 4.000000, 4.000000, 4.000000, 4.000000
2.000000, 0.000000, 4361.538574, 4182.051270, 4136.410156, 4178.974121, 4195.897461, 4142.563965, 4166.153809, 4170.256348, 4172.820313, 4180.000000, 4188.205078, 4192.307617, 4023.076904, 4149.230469, 1930.000000, 8211.000000, 8082.000000, 0.000000, 0.000000, 0.000000, 15618.000000, 415.384613, 4.000000, 4.000000, 4.000000, 4.000000, 4.000000, 4.000000, 4.000000, 4.000000, 4.000000, 4.000000, 4.000000, 4.000000, 4.000000, 4.000000, 4.000000, 4.000000
3.000000, 0.000000, 4275.384277, 4181.538574, 4137.948730, 4179.487305, 4193.846191, 4150.256348, 4163.076660, 4170.769043, 4173.846191, 4176.410156, 4185.127930, 4194.358887, 3990.256348, 4145.641113, 3552.000000, 8222.000000, 8064.000000, 0.000000, 0.000000, 0.000000, 15618.000000, 423.076904, 4.000000, 4.000000, 4.000000, 4.000000, 4.000000, 4.000000, 4.000000, 4.000000, 4.000000, 4.000000, 4.000000, 4.000000, 4.000000, 4.000000, 4.000000, 4.000000
4.000000, 0.000000, 4261.538574, 4185.127930, 4138.461426, 4176.922852, 4186.666504, 4152.307617, 4165.127930, 4169.743652, 4168.717773, 4169.230469, 4184.615234, 4194.358887, 3980.000000, 4144.102539, 3494.000000, 8222.000000, 8064.000000, 0.000000, 0.000000, 0.000000, 15618.000000, 431.282043, 4.000000, 4.000000, 4.000000, 4.000000, 4.000000, 4.000000, 4.000000, 4.000000, 4.000000, 4.000000, 4.000000, 4.000000, 4.000000, 4.000000, 4.000000, 4.000000
5.000000, 0.000000, 4415.384277, 4189.743652, 4138.974121, 4182.563965, 4193.846191, 4153.846191, 4168.717773, 4172.307617, 4174.871582, 4182.563965, 4194.358887, 4202.563965, 3980.000000, 4149.743652, 3512.000000, 8239.000000, 8058.000000, 0.000000, 0.000000, 0.000000, 15618.000000, 438.974335, 4.000000, 4.000000, 4.000000, 4.000000, 4.000000, 4.000000, 4.000000, 4.000000, 4.000000, 4.000000, 4.000000, 4.000000, 4.000000, 4.000000, 4.000000, 4.000000
6.000000, 0.000000, 4556.410156, 4190.769043, 4136.922852, 4183.076660, 4198.974121, 4153.846191, 4169.743652, 4173.846191, 4177.436035, 4193.333008, 4199.487305, 4202.563965, 3974.871582, 4150.256348, 3380.000000, 8239.000000, 8058.000000, 0.000000, 0.000000, 0.000000, 15618.000000, 446.666656, 4.000000, 4.000000, 4.000000, 4.000000, 4.000000, 4.000000, 4.000000, 4.000000, 4.000000, 4.000000, 4.000000, 4.000000, 4.000000, 4.000000, 4.000000, 4.000000
7.000000, 0.000000, 4547.692383, 4185.641113, 4133.333008, 4172.307617, 4190.769043, 4152.820313, 4169.743652, 4172.307617, 4172.820313, 4186.666504, 4191.794922, 4194.871582, 3968.717773, 4143.589844, 3143.000000, 8263.000000, 8023.000000, 0.000000, 0.000000, 0.000000, 15618.000000, 454.358978, 4.000000, 4.000000, 4.000000, 4.000000, 4.000000, 4.000000, 4.000000, 4.000000, 4.000000, 4.000000, 4.000000, 4.000000, 4.000000, 4.000000, 4.000000, 4.000000
8.000000, 0.000000, 4541.025391, 4184.102539, 4135.384277, 4171.794922, 4185.127930, 4151.794922, 4165.641113, 4169.743652, 4173.333008, 4181.538574, 4187.692383, 4196.922852, 3971.794678, 4148.205078, 3519.000000, 8263.000000, 8023.000000, 0.000000, 0.000000, 0.000000, 15618.000000, 462.051270, 4.000000, 4.000000, 4.000000, 4.000000, 4.000000, 4.000000, 4.000000, 4.000000, 4.000000, 4.000000, 4.000000, 4.000000, 4.000000, 4.000000, 4.000000, 4.000000
9.000000, 0.000000, 4630.256348, 4187.692383, 4133.333008, 4181.538574, 4189.230469, 4151.281738, 4166.153809, 4168.717773, 4174.871582, 4182.563965, 4191.281738, 4199.487305, 3983.076904, 4150.769043, 3510.000000, 8273.000000, 8018.000000, 0.000000, 0.000000, 0.000000, 15618.000000, 470.256409, 4.000000, 4.000000, 4.000000, 4.000000, 4.000000, 4.000000, 4.000000, 4.000000, 4.000000, 4.000000, 4.000000, 4.000000, 4.000000, 4.000000, 4.000000, 4.000000
10.000000, 0.000000, 4695.384277, 4185.127930, 4133.333008, 4175.384277, 4194.871582, 4156.410156, 4181.025391, 4175.897461, 4178.461426, 4182.563965, 4190.256348, 4198.974121, 3988.205078, 4148.717773, 3106.000000, 8273.000000, 8018.000000, 0.000000, 0.000000, 0.000000, 15618.000000, 477.948700, 4.000000, 4.000000, 4.000000, 4.000000, 4.000000, 4.000000, 4.000000, 4.000000, 4.000000, 4.000000, 4.000000, 4.000000, 4.000000, 4.000000, 4.000000, 4.000000
11.000000, 0.000000, 4675.897461, 4183.076660, 4138.974121, 4167.179199, 4193.846191, 4165.641113, 4189.230469, 4184.102539, 4181.025391, 4180.000000, 4184.615234, 4193.333008, 3989.743408, 4149.743652, 2427.000000, 8291.000000, 7987.000000, 0.000000, 0.000000, 0.000000, 15618.000000, 485.641022, 4.000000, 4.000000, 4.000000, 4.000000, 4.000000, 4.000000, 4.000000, 4.000000, 4.000000, 4.000000, 4.000000, 4.000000, 4.000000, 4.000000, 4.000000, 4.000000
12.000000, 0.000000, 4709.743652, 4187.179199, 4135.384277, 4169.743652, 4195.897461, 4171.281738, 4182.051270, 4184.615234, 4178.461426, 4180.000000, 4186.153809, 4193.846191, 3998.461426, 4149.743652, 3479.000000, 8291.000000, 7987.000000, 0.000000, 0.000000, 0.000000, 15618.000000, 493.333313, 4.000000, 4.000000, 4.000000, 4.000000, 4.000000, 4.000000, 4.000000, 4.000000, 4.000000, 4.000000, 4.000000, 4.000000, 4.000000, 4.000000, 4.000000, 4.000000
13.000000, 0.000000, 4789.743652, 4191.794922, 4129.743652, 4170.256348, 4198.974121, 4167.692383, 4174.358887, 4181.538574, 4178.461426, 4184.102539, 4186.666504, 4201.538574, 4016.923096, 4151.281738, 2397.000000, 8304.000000, 7972.000000, 0.000000, 0.000000, 0.000000, 15618.000000, 501.538452, 4.000000, 4.000000, 4.000000, 4.000000, 4.000000, 4.000000, 4.000000, 4.000000, 4.000000, 4.000000, 4.000000, 4.000000, 4.000000, 4.000000, 4.000000, 4.000000
14.000000, 0.000000, 4725.641113, 4188.717773, 4127.692383, 4168.717773, 4195.384277, 4161.025391, 4165.127930, 4178.974121, 4178.461426, 4181.538574, 4178.974121, 4195.897461, 4027.692139, 4146.666504, 3106.000000, 8304.000000, 7972.000000, 0.000000, 0.000000, 0.000000, 15618.000000, 509.230743, 4.000000, 4.000000, 4.000000, 4.000000, 4.000000, 4.000000, 4.000000, 4.000000, 4.000000, 4.000000, 4.000000, 4.000000, 4.000000, 4.000000, 4.000000, 4.000000
15.000000, 0.000000, 4627.179199, 4183.589844, 4128.717773, 4168.717773, 4194.358887, 4163.076660, 4155.897461, 4171.794922, 4171.281738, 4170.256348, 4170.769043, 4189.230469, 4032.307617, 4146.153809, 2427.000000, 8321.000000, 7963.000000, 0.000000, 0.000000, 0.000000, 15618.000000, 516.923035, 4.000000, 4.000000, 4.000000, 4.000000, 4.000000, 4.000000, 4.000000, 4.000000, 4.000000, 4.000000, 4.000000, 4.000000, 4.000000, 4.000000, 4.000000, 4.000000
16.000000, 0.000000, 4635.897461, 4184.615234, 4130.769043, 4169.230469, 4200.512695, 4168.717773, 4155.897461, 4161.538574, 4163.589844, 4162.563965, 4166.153809, 4188.717773, 4044.102539, 4153.333008, 0.000000, 8321.000000, 7963.000000, 0.000000, 0.000000, 0.000000, 15618.000000, 524.615356, 4.000000, 4.000000, 4.000000, 4.000000, 4.000000, 4.000000, 4.000000, 4.000000, 4.000000, 4.000000, 4.000000, 4.000000, 4.000000, 4.000000, 4.000000, 4.000000
17.000000, 0.000000, 4657.435547, 4187.179199, 4127.179199, 4169.230469, 4196.922852, 4165.127930, 4164.615234, 4161.025391, 4158.461426, 4162.563965, 4165.127930, 4187.179199, 4055.897217, 4150.769043, 0.000000, 8421.000000, 7953.000000, 0.000000, 0.000000, 0.000000, 15618.000000, 532.820496, 4.000000, 4.000000, 4.000000, 4.000000, 4.000000, 4.000000, 4.000000, 4.000000, 4.000000, 4.000000, 4.000000, 4.000000, 4.000000, 4.000000, 4.000000, 4.000000
18.000000, 0.000000, 4665.127930, 4184.102539, 4126.153809, 4167.179199, 4184.102539, 4153.846191, 4170.256348, 4168.717773, 4153.333008, 4163.076660, 4160.000000, 4186.666504, 4060.512695, 4148.205078, 0.000000, 8421.000000, 7953.000000, 0.000000, 0.000000, 0.000000, 15618.000000, 540.512817, 4.000000, 4.000000, 4.000000, 4.000000, 4.000000, 4.000000, 4.000000, 4.000000, 4.000000, 4.000000, 4.000000, 4.000000, 4.000000, 4.000000, 4.000000, 4.000000
19.000000, 0.000000, 4700.512695, 4182.563965, 4125.127930, 4167.179199, 4183.589844, 4151.281738, 4170.769043, 4172.820313, 4153.846191, 4163.589844, 4151.794922, 4189.743652, 4069.743408, 4148.717773, 0.000000, 8503.000000, 7951.000000, 0.000000, 0.000000, 0.000000, 15618.000000, 548.205139, 4.000000, 4.000000, 4.000000, 4.000000, 4.000000, 4.000000, 4.000000, 4.000000, 4.000000, 4.000000, 4.000000, 4.000000, 4.000000, 4.000000, 4.000000, 4.000000
20.000000, 0.000000, 4743.076660, 4184.102539, 4124.615234, 4167.692383, 4186.153809, 4151.794922, 4169.743652, 4170.256348, 4149.230469, 4162.563965, 4143.589844, 4195.897461, 4080.000000, 4150.769043, 0.000000, 8503.000000, 7951.000000, 0.000000, 0.000000, 0.000000, 15618.000000, 555.897400, 4.000000, 4.000000, 4.000000, 4.000000, 4.000000, 4.000000, 4.000000, 4.000000, 4.000000, 4.000000, 4.000000, 4.000000, 4.000000, 4.000000, 4.000000, 4.000000
21.000000, 0.000000, 4750.256348, 4182.563965, 4132.307617, 4167.692383, 4183.076660, 4151.794922, 4170.256348, 4168.717773, 4143.076660, 4165.127930, 4140.512695, 4194.358887, 4085.128174, 4153.846191, 0.000000, 8649.000000, 8005.000000, 0.000000, 0.000000, 0.000000, 15618.000000, 563.589722, 4.000000, 4.000000, 4.000000, 4.000000, 4.000000, 4.000000, 4.000000, 4.000000, 4.000000, 4.000000, 4.000000, 4.000000, 4.000000, 4.000000, 4.000000, 4.000000
22.000000, 0.000000, 4714.358887, 4186.153809, 4135.384277, 4174.871582, 4188.205078, 4153.846191, 4172.820313, 4173.333008, 4149.743652, 4172.820313, 4141.538574, 4188.717773, 4099.487305, 4151.794922, 0.000000, 8649.000000, 8005.000000, 0.000000, 0.000000, 0.000000, 15618.000000, 571.282043, 4.000000, 4.000000, 4.000000, 4.000000, 4.000000, 4.000000, 4.000000, 4.000000, 4.000000, 4.000000, 4.000000, 4.000000, 4.000000, 4.000000, 4.000000, 4.000000
23.000000, 0.000000, 4690.769043, 4188.205078, 4135.897461, 4179.487305, 4197.436035, 4153.846191, 4173.846191, 4173.333008, 4153.333008, 4173.846191, 4137.436035, 4189.743652, 4112.820313, 4155.384277, 0.000000, 8708.000000, 8034.000000, 0.000000, 0.000000, 0.000000, 15618.000000, 579.487183, 4.000000, 4.000000, 4.000000, 4.000000, 4.000000, 4.000000, 4.000000, 4.000000, 4.000000, 4.000000, 4.000000, 4.000000, 4.000000, 4.000000, 4.000000, 4.000000
24.000000, 0.000000, 4689.230469, 4183.589844, 4137.948730, 4176.410156, 4198.461426, 4152.820313, 4170.769043, 4171.281738, 4149.230469, 4170.769043, 4130.769043, 4188.717773, 4110.769043, 4156.922852, 0.000000, 8708.000000, 8034.000000, 0.000000, 0.000000, 0.000000, 15618.000000, 587.179443, 4.000000, 4.000000, 4.000000, 4.000000, 4.000000, 4.000000, 4.000000, 4.000000, 4.000000, 4.000000, 4.000000, 4.000000, 4.000000, 4.000000, 4.000000, 4.000000
25.000000, 0.000000, 4688.717773, 4185.641113, 4132.307617, 4179.487305, 4196.410156, 4153.333008, 4172.307617, 4176.410156, 4152.820313, 4173.333008, 4130.256348, 4191.794922, 4112.307617, 4155.897461, 0.000000, 8754.000000, 8055.000000, 0.000000, 0.000000, 0.000000, 15618.000000, 594.871765, 4.000000, 4.000000, 4.000000, 4.000000, 4.000000, 4.000000, 4.000000, 4.000000, 4.000000, 4.000000, 4.000000, 4.000000, 4.000000, 4.000000, 4.000000, 4.000000
26.000000, 0.000000, 4745.127930, 4192.820313, 4129.743652, 4184.615234, 4198.461426, 4153.846191, 4175.384277, 4183.589844, 4160.000000, 4179.487305, 4136.410156, 4196.410156, 4124.102539, 4162.563965, 0.000000, 8754.000000, 8055.000000, 0.000000, 0.000000, 0.000000, 15618.000000, 602.564087, 4.000000, 4.000000, 4.000000, 4.000000, 4.000000, 4.000000, 4.000000, 4.000000, 4.000000, 4.000000, 4.000000, 4.000000, 4.000000, 4.000000, 4.000000, 4.000000
27.000000, 0.000000, 4815.897461, 4204.615234, 4132.820313, 4188.717773, 4201.538574, 4153.846191, 4173.846191, 4185.127930, 4167.179199, 4185.127930, 4148.205078, 4196.922852, 4134.871582, 4167.179199, 0.000000, 8786.000000, 8050.000000, 0.000000, 0.000000, 0.000000, 15618.000000, 610.769226, 4.000000, 4.000000, 4.000000, 4.000000, 4.000000, 4.000000, 4.000000, 4.000000, 4.000000, 4.000000, 4.000000, 4.000000, 4.000000, 4.000000, 4.000000, 4.000000
28.000000, 0.000000, 4788.205078, 4217.948730, 4135.897461, 4196.410156, 4200.512695, 4155.384277, 4171.281738, 4184.102539, 4169.743652, 4188.717773, 4164.615234, 4204.615234, 4146.666504, 4174.358887, 0.000000, 8786.000000, 8050.000000, 0.000000, 0.000000, 0.000000, 15618.000000, 618.461548, 4.000000, 4.000000, 4.000000, 4.000000, 4.000000, 4.000000, 4.000000, 4.000000, 4.000000, 4.000000, 4.000000, 4.000000, 4.000000, 4.000000, 4.000000, 4.000000
29.000000, 0.000000, 4777.435547, 4220.512695, 4129.743652, 4194.358887, 4202.051270, 4157.436035, 4173.333008, 4184.102539, 4165.641113, 4189.743652, 4173.333008, 4206.153809, 4152.820313, 4177.436035, 0.000000, 8780.000000, 8037.000000, 0.000000, 0.000000, 0.000000, 15618.000000, 626.153809, 4.000000, 4.000000, 4.000000, 4.000000, 4.000000, 4.000000, 4.000000, 4.000000, 4.000000, 4.000000, 4.000000, 4.000000, 4.000000, 4.000000, 4.000000, 4.000000
30.000000, 0.000000, 4843.589844, 4222.563965, 4121.025391, 4186.666504, 4201.538574, 4156.922852, 4175.384277, 4185.127930, 4162.563965, 4185.641113, 4177.436035, 4202.051270, 4148.717773, 4175.384277, 0.000000, 8780.000000, 8037.000000, 0.000000, 0.000000, 0.000000, 15618.000000, 633.846130, 4.000000, 4.000000, 4.000000, 4.000000, 4.000000, 4.000000, 4.000000, 4.000000, 4.000000, 4.000000, 4.000000, 4.000000, 4.000000, 4.000000, 4.000000, 4.000000
31.000000, 0.000000, 4847.179199, 4238.974121, 4130.769043, 4193.846191, 4194.358887, 4154.871582, 4174.871582, 4186.153809, 4167.179199, 4183.076660, 4189.743652, 4209.230469, 4151.794922, 4181.025391, 0.000000, 8721.000000, 8004.000000, 0.000000, 0.000000, 0.000000, 15618.000000, 641.538452, 4.000000, 4.000000, 4.000000, 4.000000, 4.000000, 4.000000, 4.000000, 4.000000, 4.000000, 4.000000, 4.000000, 4.000000, 4.000000, 4.000000, 4.000000, 4.000000
32.000000, 0.000000, 4786.153809, 4254.358887, 4139.487305, 4204.615234, 4197.436035, 4156.922852, 4170.769043, 4183.076660, 4173.846191, 4191.794922, 4206.153809, 4215.897461, 4170.256348, 4183.589844, 0.000000, 8721.000000, 8004.000000, 0.000000, 0.000000, 0.000000, 15618.000000, 649.743591, 4.000000, 4.000000, 4.000000, 4.000000, 4.000000, 4.000000, 4.000000, 4.000000, 4.000000, 4.000000, 4.000000, 4.000000, 4.000000, 4.000000, 4.000000, 4.000000
33.000000, 0.000000, 4803.076660, 4248.717773, 4135.384277, 4197.436035, 4201.025391, 4154.358887, 4165.127930, 4178.461426, 4171.281738, 4194.871582, 4215.384277, 4212.820313, 4172.307617, 4180.512695, 0.000000, 8681.000000, 7999.000000, 0.000000, 0.000000, 0.000000, 15618.000000, 657.435852, 4.000000, 4.000000, 4.000000, 4.000000, 4.000000, 4.000000, 4.000000, 4.000000, 4.000000, 4.000000, 4.000000, 4.000000, 4.000000, 4.000000, 4.000000, 4.000000
34.000000, 0.000000, 4876.922852, 4236.410156, 4129.743652, 4186.153809, 4188.717773, 4141.538574, 4163.589844, 4175.897461, 4167.692383, 4181.025391, 4218.461426, 4206.666504, 4150.256348, 4173.846191, 0.000000, 8681.000000, 7999.000000, 0.000000, 0.000000, 0.000000, 15618.000000, 665.128174, 4.000000, 4.000000, 4.000000, 4.000000, 4.000000, 4.000000, 4.000000, 4.000000, 4.000000, 4.000000, 4.000000, 4.000000, 4.000000, 4.000000, 4.000000, 4.000000
35.000000, 0.000000, 4914.871582, 4235.384277, 4128.717773, 4186.666504, 4183.589844, 4141.025391, 4163.076660, 4177.948730, 4173.333008, 4176.410156, 4220.512695, 4210.769043, 4134.358887, 4168.717773, 0.000000, 8578.000000, 7977.000000, 0.000000, 0.000000, 0.000000, 15618.000000, 672.820496, 4.000000, 4.000000, 4.000000, 4.000000, 4.000000, 4.000000, 4.000000, 4.000000, 4.000000, 4.000000, 4.000000, 4.000000, 4.000000, 4.000000, 4.000000, 4.000000
36.000000, 0.000000, 4913.846191, 4234.871582, 4132.307617, 4184.102539, 4184.102539, 4147.179199, 4162.051270, 4181.025391, 4179.487305, 4186.153809, 4218.974121, 4214.358887, 4128.717773, 4168.717773, 0.000000, 8578.000000, 7977.000000, 0.000000, 0.000000, 0.000000, 15618.000000, 680.512817, 4.000000, 4.000000, 4.000000, 4.000000, 4.000000, 4.000000, 4.000000, 4.000000, 4.000000, 4.000000, 4.000000, 4.000000, 4.000000, 4.000000, 4.000000, 4.000000
37.000000, 0.000000, 4829.230469, 4225.127930, 4129.743652, 4176.922852, 4171.794922, 4141.025391, 4160.512695, 4174.358887, 4175.897461, 4183.589844, 4213.846191, 4206.153809, 4123.589844, 4158.461426, 0.000000, 8527.000000, 7957.000000, 0.000000, 0.000000, 0.000000, 15618.000000, 688.717957, 4.000000, 4.000000, 4.000000, 4.000000, 4.000000, 4.000000, 4.000000, 4.000000, 4.000000, 4.000000, 4.000000, 4.000000, 4.000000, 4.000000, 4.000000, 4.000000
38.000000, 0.000000, 4694.358887, 4216.922852, 4130.256348, 4173.846191, 4168.717773, 4139.487305, 4162.051270, 4165.641113, 4166.666504, 4166.153809, 4206.666504, 4200.000000, 4120.512695, 4151.281738, 0.000000, 8527.000000, 7957.000000, 0.000000, 0.000000, 0.000000, 15618.000000, 696.410217, 4.000000, 4.000000, 4.000000, 4.000000, 4.000000, 4.000000, 4.000000, 4.000000, 4.000000, 4.000000, 4.000000, 4.000000, 4.000000, 4.000000, 4.000000, 4.000000
39.000000, 0.000000, 4688.717773, 4212.307617, 4133.333008, 4173.846191, 4186.666504, 4155.384277, 4163.589844, 4165.641113, 4159.487305, 4154.871582, 4199.487305, 4193.333008, 4118.461426, 4149.743652, 0.000000, 8475.000000, 7931.000000, 0.000000, 0.000000, 0.000000, 15618.000000, 704.102539, 4.000000, 4.000000, 4.000000, 4.000000, 4.000000, 4.000000, 4.000000, 4.000000, 4.000000, 4.000000, 4.000000, 4.000000, 4.000000, 4.000000, 4.000000, 4.000000
40.000000, 0.000000, 4771.794922, 4205.127930, 4125.127930, 4170.256348, 4198.974121, 4167.179199, 4169.743652, 4172.820313, 4161.538574, 4162.051270, 4200.000000, 4191.794922, 4113.846191, 4149.743652, 0.000000, 8475.000000, 7931.000000, 0.000000, 0.000000, 0.000000, 15618.000000, 711.794861, 4.000000, 4.000000, 4.000000, 4.000000, 4.000000, 4.000000, 4.000000, 4.000000, 4.000000, 4.000000, 4.000000, 4.000000, 4.000000, 4.000000, 4.000000, 4.000000
41.000000, 0.000000, 4760.000000, 4195.384277, 4123.589844, 4165.641113, 4193.846191, 4168.717773, 4187.692383, 4187.179199, 4178.461426, 4172.820313, 4207.179199, 4201.538574, 4114.871582, 4157.948730, 0.000000, 8368.000000, 7905.000000, 0.000000, 0.000000, 0.000000, 15618.000000, 720.000000, 4.000000, 4.000000, 4.000000, 4.000000, 4.000000, 4.000000, 4.000000, 4.000000, 4.000000, 4.000000, 4.000000, 4.000000, 4.000000, 4.000000, 4.000000, 4.000000
42.000000, 0.000000, 4744.102539, 4194.358887, 4130.256348, 4166.153809, 4191.281738, 4174.871582, 4193.333008, 4198.974121, 4192.820313, 4182.051270, 4218.974121, 4204.615234, 4122.051270, 4161.538574, 0.000000, 8368.000000, 7905.000000, 0.000000, 0.000000, 0.000000, 15618.000000, 727.692261, 4.000000, 4.000000, 4.000000, 4.000000, 4.000000, 4.000000, 4.000000, 4.000000, 4.000000, 4.000000, 4.000000, 4.000000, 4.000000, 4.000000, 4.000000, 4.000000
43.000000, 0.000000, 4796.922852, 4197.948730, 4137.948730, 4174.871582, 4195.384277, 4174.358887, 4176.922852, 4194.358887, 4189.743652, 4189.743652, 4225.127930, 4208.205078, 4127.179199, 4161.538574, 0.000000, 8318.000000, 7887.000000, 0.000000, 0.000000, 0.000000, 15618.000000, 735.384583, 4.000000, 4.000000, 4.000000, 4.000000, 4.000000, 4.000000, 4.000000, 4.000000, 4.000000, 4.000000, 4.000000, 4.000000, 4.000000, 4.000000, 4.000000, 4.000000
44.000000, 0.000000, 4724.615234, 4201.538574, 4141.025391, 4179.487305, 4191.794922, 4162.051270, 4165.641113, 4185.127930, 4183.589844, 4191.794922, 4220.512695, 4210.769043, 4125.641113, 4158.461426, 0.000000, 8318.000000, 7887.000000, 0.000000, 0.000000, 0.000000, 15618.000000, 743.076904, 4.000000, 4.000000, 4.000000, 4.000000, 4.000000, 4.000000, 4.000000, 4.000000, 4.000000, 4.000000, 4.000000, 4.000000, 4.000000, 4.000000, 4.000000, 4.000000
45.000000, 0.000000, 4590.769043, 4205.127930, 4136.410156, 4175.897461, 4185.641113, 4161.025391, 4171.794922, 4185.641113, 4188.717773, 4194.358887, 4220.512695, 4207.179199, 4121.025391, 4149.743652, 0.000000, 8235.000000, 7871.000000, 0.000000, 0.000000, 0.000000, 15618.000000, 750.769226, 4.000000, 4.000000, 4.000000, 4.000000, 4.000000, 4.000000, 4.000000, 4.000000, 4.000000, 4.000000, 4.000000, 4.000000, 4.000000, 4.000000, 4.000000, 4.000000
46.000000, 0.000000, 4617.948730, 4198.974121, 4132.307617, 4172.820313, 4185.127930, 4171.794922, 4176.922852, 4187.179199, 4192.820313, 4197.436035, 4219.487305, 4204.615234, 4114.358887, 4144.102539, 0.000000, 8235.000000, 7871.000000, 0.000000, 0.000000, 0.000000, 15618.000000, 758.461548, 4.000000, 4.000000, 4.000000, 4.000000, 4.000000, 4.000000, 4.000000, 4.000000, 4.000000, 4.000000, 4.000000, 4.000000, 4.000000, 4.000000, 4.000000, 4.000000
47.000000, 0.000000, 4646.153809, 4183.076660, 4125.127930, 4163.076660, 4184.102539, 4166.666504, 4170.769043, 4178.461426, 4185.641113, 4194.358887, 4207.692383, 4195.897461, 4098.461426, 4134.871582, 0.000000, 8207.000000, 7863.000000, 0.000000, 0.000000, 0.000000, 15618.000000, 766.666626, 4.000000, 4.000000, 4.000000, 4.000000, 4.000000, 4.000000, 4.000000, 4.000000, 4.000000, 4.000000, 4.000000, 4.000000, 4.000000, 4.000000, 4.000000, 4.000000
48.000000, 0.000000, 4551.281738, 4169.230469, 4122.051270, 4153.333008, 4179.487305, 4150.769043, 4158.461426, 4168.205078, 4173.846191, 4181.025391, 4197.436035, 4192.820313, 4084.102539, 4134.358887, 0.000000, 8207.000000, 7863.000000, 0.000000, 0.000000, 0.000000, 15618.000000, 774.358948, 4.000000, 4.000000, 4.000000, 4.000000, 4.000000, 4.000000, 4.000000, 4.000000, 4.000000, 4.000000, 4.000000, 4.000000, 4.000000, 4.000000, 4.000000, 4.000000
49.000000, 0.000000, 4455.897461, 4169.743652, 4128.717773, 4178.974121, 4179.487305, 4151.281738, 4152.307617, 4166.666504, 4164.102539, 4172.307617, 4195.897461, 4198.461426, 4087.179443, 4146.153809, 0.000000, 8181.000000, 7860.000000, 0.000000, 0.000000, 0.000000, 15618.000000, 782.051270, 4.000000, 4.000000, 4.000000, 4.000000, 4.000000, 4.000000, 4.000000, 4.000000, 4.000000, 4.000000, 4.000000, 4.000000, 4.000000, 4.000000, 4.000000, 4.000000
50.000000, 0.000000, 4402.051270, 4170.769043, 4127.179199, 4215.384277, 4179.487305, 4154.871582, 4155.384277, 4169.743652, 4156.410156, 4167.692383, 4185.127930, 4198.974121, 4090.769043, 4144.102539, 0.000000, 8181.000000, 7860.000000, 0.000000, 0.000000, 0.000000, 15618.000000, 789.743591, 4.000000, 4.000000, 4.000000, 4.000000, 4.000000, 4.000000, 4.000000, 4.000000, 4.000000, 4.000000, 4.000000, 4.000000, 4.000000, 4.000000, 4.000000, 4.000000
51.000000, 0.000000, 4401.025391, 4163.076660, 4122.051270, 4217.948730, 4175.897461, 4149.230469, 4160.512695, 4174.871582, 4154.871582, 4160.512695, 4168.717773, 4194.871582, 4092.307617, 4138.974121, 0.000000, 8130.000000, 7852.000000, 0.000000, 0.000000, 0.000000, 15618.000000, 797.435852, 4.000000, 4.000000, 4.000000, 4.000000, 4.000000, 4.000000, 4.000000, 4.000000, 4.000000, 4.000000, 4.000000, 4.000000, 4.000000, 4.000000, 4.000000, 4.000000
52.000000, 0.000000, 4443.076660, 4165.641113, 4121.538574, 4214.871582, 4185.127930, 4154.358887, 4168.205078, 4184.102539, 4167.179199, 4171.281738, 4170.769043, 4193.846191, 4106.666504, 4141.025391, 0.000000, 8130.000000, 7852.000000, 0.000000, 0.000000, 0.000000, 15618.000000, 805.640991, 4.000000, 4.000000, 4.000000, 4.000000, 4.000000, 4.000000, 4.000000, 4.000000, 4.000000, 4.000000, 4.000000, 4.000000, 4.000000, 4.000000, 4.000000, 4.000000
53.000000, 0.000000, 4452.820313, 4171.281738, 4122.563965, 4223.076660, 4188.205078, 4162.563965, 4175.384277, 4190.769043, 4181.538574, 4186.666504, 4174.871582, 4198.461426, 4112.307617, 4142.563965, 0.000000, 8113.000000, 7854.000000, 0.000000, 0.000000, 0.000000, 15618.000000, 813.333313, 4.000000, 4.000000, 4.000000, 4.000000, 4.000000, 4.000000, 4.000000, 4.000000, 4.000000, 4.000000, 4.000000, 4.000000, 4.000000, 4.000000, 4.000000, 4.000000
54.000000, 0.000000, 4433.333008, 4163.589844, 4123.589844, 4216.410156, 4176.922852, 4155.384277, 4171.281738, 4188.205078, 4178.461426, 4183.589844, 4166.153809, 4193.333008, 4108.717773, 4146.666504, 0.000000, 8113.000000, 7854.000000, 0.000000, 0.000000, 0.000000, 15618.000000, 821.025635, 4.000000, 4.000000, 4.000000, 4.000000, 4.000000, 4.000000, 4.000000, 4.000000, 4.000000, 4.000000, 4.000000, 4.000000, 4.000000, 4.000000, 4.000000, 4.000000
55.000000, 0.000000, 4465.641113, 4161.025391, 4122.051270, 4210.769043, 4176.410156, 4152.307617, 4169.743652, 4190.769043, 4174.358887, 4181.538574, 4165.127930, 4187.692383, 4116.922852, 4149.743652, 0.000000, 8087.000000, 7851.000000, 0.000000, 0.000000, 0.000000, 15618.000000, 828.717957, 4.000000, 4.000000, 4.000000, 4.000000, 4.000000, 4.000000, 4.000000, 4.000000, 4.000000, 4.000000, 4.000000, 4.000000, 4.000000, 4.000000, 4.000000, 4.000000
56.000000, 0.000000, 4462.563965, 4165.127930, 4120.512695, 4210.256348, 4173.333008, 4160.512695, 4183.076660, 4192.820313, 4172.307617, 4181.538574, 4165.641113, 4191.281738, 4115.384277, 4148.717773, 0.000000, 8087.000000, 7851.000000, 0.000000, 0.000000, 0.000000, 15618.000000, 836.410217, 4.000000, 4.000000, 4.000000, 4.000000, 4.000000, 4.000000, 4.000000, 4.000000, 4.000000, 4.000000, 4.000000, 4.000000, 4.000000, 4.000000, 4.000000, 4.000000
57.000000, 0.000000, 4375.384277, 4164.615234, 4120.000000, 4206.153809, 4164.615234, 4163.589844, 4191.281738, 4186.153809, 4167.179199, 4173.846191, 4157.948730, 4190.256348, 4102.563965, 4146.153809, 0.000000, 8074.000000, 7852.000000, 0.000000, 0.000000, 0.000000, 15618.000000, 844.102539, 4.000000, 4.000000, 4.000000, 4.000000, 4.000000, 4.000000, 4.000000, 4.000000, 4.000000, 4.000000, 4.000000, 4.000000, 4.000000, 4.000000, 4.000000, 4.000000
58.000000, 0.000000, 4405.127930, 4166.666504, 4126.153809, 4209.743652, 4173.846191, 4159.487305, 4185.127930, 4184.615234, 4161.538574, 4172.820313, 4158.974121, 4191.794922, 4094.358887, 4148.205078, 0.000000, 8074.000000, 7852.000000, 0.000000, 0.000000, 0.000000, 15618.000000, 852.307678, 4.000000, 4.000000, 4.000000, 4.000000, 4.000000, 4.000000, 4.000000, 4.000000, 4.000000, 4.000000, 4.000000, 4.000000, 4.000000, 4.000000, 4.000000, 4.000000
59.000000, 0.000000, 4553.846191, 4171.281738, 4133.846191, 4214.871582, 4182.563965, 4153.846191, 4172.820313, 4180.000000, 4151.794922, 4169.743652, 4161.538574, 4191.794922, 4066.666504, 4145.127930, 0.000000, 8060.000000, 7847.000000, 0.000000, 0.000000, 0.000000, 15618.000000, 860.000000, 4.000000, 4.000000, 4.000000, 4.000000, 4.000000, 4.000000, 4.000000, 4.000000, 4.000000, 4.000000, 4.000000, 4.000000, 4.000000, 4.000000, 4.000000, 4.000000
60.000000, 0.000000, 4576.922852, 4173.846191, 4130.769043, 4213.333008, 4176.410156, 4155.897461, 4167.692383, 4169.230469, 4145.127930, 4164.102539, 4153.846191, 4181.538574, 4025.640869, 4132.307617, 0.000000, 8060.000000, 7847.000000, 0.000000, 0.000000, 0.000000, 15618.000000, 867.692261, 4.000000, 4.000000, 4.000000, 4.000000, 4.000000, 4.000000, 4.000000, 4.000000, 4.000000, 4.000000, 4.000000, 4.000000, 4.000000, 4.000000, 4.000000, 4.000000
61.000000, 0.000000, 4505.127930, 4177.948730, 4130.769043, 4218.461426, 4178.461426, 4162.563965, 4172.307617, 4167.692383, 4147.692383, 4169.743652, 4150.769043, 4179.487305, 4016.410156, 4134.358887, 0.000000, 8054.000000, 7842.000000, 0.000000, 0.000000, 0.000000, 15618.000000, 875.384583, 4.000000, 4.000000, 4.000000, 4.000000, 4.000000, 4.000000, 4.000000, 4.000000, 4.000000, 4.000000, 4.000000, 4.000000, 4.000000, 4.000000, 4.000000, 4.000000
62.000000, 0.000000, 4533.333008, 4182.563965, 4138.974121, 4229.743652, 4184.102539, 4161.025391, 4170.769043, 4172.307617, 4156.410156, 4178.974121, 4156.922852, 4184.102539, 4027.179443, 4140.512695, 0.000000, 8054.000000, 7842.000000, 0.000000, 0.000000, 0.000000, 15618.000000, 883.076904, 4.000000, 4.000000, 4.000000, 4.000000, 4.000000, 4.000000, 4.000000, 4.000000, 4.000000, 4.000000, 4.000000, 4.000000, 4.000000, 4.000000, 4.000000, 4.000000
63.000000, 0.000000, 4561.538574, 4185.127930, 4137.436035, 4233.846191, 4180.000000, 4161.538574, 4165.641113, 4170.256348, 4156.410156, 4182.563965, 4159.487305, 4186.153809, 4021.025635, 4135.384277, 0.000000, 8054.000000, 7845.000000, 0.000000, 0.000000, 0.000000, 15618.000000, 891.282043, 4.000000, 4.000000, 4.000000, 4.000000, 4.000000, 4.000000, 4.000000, 4.000000, 4.000000, 4.000000, 4.000000, 4.000000, 4.000000, 4.000000, 4.000000, 4.000000
64.000000, 0.000000, 4506.153809, 4183.589844, 4131.281738, 4227.692383, 4183.589844, 4166.153809, 4177.436035, 4172.820313, 4150.256348, 4180.000000, 4155.384277, 4185.641113, 4013.845947, 4135.897461, 3130.000000, 8054.000000, 7845.000000, 0.000000, 0.000000, 0.000000, 15618.000000, 898.974365, 4.000000, 4.000000, 4.000000, 4.000000, 4.000000, 4.000000, 4.000000, 4.000000, 4.000000, 4.000000, 4.000000, 4.000000, 4.000000, 4.000000, 4.000000, 4.000000
65.000000, 0.000000, 4464.102539, 4177.948730, 4127.692383, 4221.538574, 4189.743652, 4162.051270, 4184.615234, 4182.051270, 4150.769043, 4174.358887, 4152.307617, 4184.615234, 4028.205078, 4139.487305, 3536.000000, 8062.000000, 7843.000000, 0.000000, 0.000000, 0.000000, 15618.000000, 906.666626, 4.000000, 4.000000, 4.000000, 4.000000, 4.000000, 4.000000, 4.000000, 4.000000, 4.000000, 4.000000, 4.000000, 4.000000, 4.000000, 4.000000, 4.000000, 4.000000
66.000000, 0.000000, 4498.461426, 4172.307617, 4130.769043, 4217.436035, 4184.102539, 4157.436035, 4172.307617, 4176.410156, 4148.717773, 4171.281738, 4149.743652, 4188.205078, 4028.717773, 4143.589844, 1892.000000, 8062.000000, 7843.000000, 0.000000, 0.000000, 0.000000, 15618.000000, 914.358948, 4.000000, 4.000000, 4.000000, 4.000000, 4.000000, 4.000000, 4.000000, 4.000000, 4.000000, 4.000000, 4.000000, 4.000000, 4.000000, 4.000000, 4.000000, 4.000000
67.000000, 0.000000, 4537.435547, 4168.717773, 4134.358887, 4213.846191, 4181.538574, 4162.051270, 4171.794922, 4166.153809, 4139.487305, 4169.230469, 4142.563965, 4185.127930, 4003.589600, 4142.051270, 3552.000000, 8065.000000, 7835.000000, 0.000000, 0.000000, 0.000000, 15618.000000, 922.051270, 4.000000, 4.000000, 4.000000, 4.000000, 4.000000, 4.000000, 4.000000, 4.000000, 4.000000, 4.000000, 4.000000, 4.000000, 4.000000, 4.000000, 4.000000, 4.000000
68.000000, 0.000000, 4528.717773, 4172.307617, 4127.179199, 4211.794922, 4187.179199, 4165.127930, 4183.589844, 4167.179199, 4134.358887, 4161.025391, 4129.230469, 4175.897461, 3993.333252, 4137.436035, 3498.000000, 8065.000000, 7835.000000, 0.000000, 0.000000, 0.000000, 15618.000000, 929.743591, 4.000000, 4.000000, 4.000000, 4.000000, 4.000000, 4.000000, 4.000000, 4.000000, 4.000000, 4.000000, 4.000000, 4.000000, 4.000000, 4.000000, 4.000000, 4.000000
69.000000, 0.000000, 4545.127930, 4177.436035, 4127.179199, 4210.769043, 4187.179199, 4163.076660, 4184.102539, 4168.717773, 4135.384277, 4154.871582, 4121.025391, 4176.922852, 4001.025635, 4144.102539, 3516.000000, 8080.000000, 7827.000000, 0.000000, 0.000000, 0.000000, 15618.000000, 937.948669, 4.000000, 4.000000, 4.000000, 4.000000, 4.000000, 4.000000, 4.000000, 4.000000, 4.000000, 4.000000, 4.000000, 4.000000, 4.000000, 4.000000, 4.000000, 4.000000
70.000000, 0.000000, 4561.538574, 4173.333008, 4131.281738, 4205.127930, 4181.025391, 4164.615234, 4180.512695, 4165.127930, 4133.846191, 4156.922852, 4120.512695, 4177.436035, 4000.512695, 4143.589844, 3386.000000, 8080.000000, 7827.000000, 0.000000, 0.000000, 0.000000, 15618.000000, 945.640991, 4.000000, 4.000000, 4.000000, 4.000000, 4.000000, 4.000000, 4.000000, 4.000000, 4.000000, 4.000000, 4.000000, 4.000000, 4.000000, 4.000000, 4.000000, 4.000000
71.000000, 0.000000, 4568.205078, 4172.307617, 4133.846191, 4200.512695, 4178.974121, 4166.153809, 4183.589844, 4169.743652, 4137.436035, 4158.974121, 4125.127930, 4179.487305, 4005.640869, 4137.436035, 3144.000000, 8080.000000, 7832.000000, 0.000000, 0.000000, 0.000000, 15618.000000, 953.333313, 4.000000, 4.000000, 4.000000, 4.000000, 4.000000, 4.000000, 4.000000, 4.000000, 4.000000, 4.000000, 4.000000, 4.000000, 4.000000, 4.000000, 4.000000, 4.000000
72.000000, 0.000000, 4597.948730, 4183.076660, 4137.436035, 4204.615234, 4185.127930, 4169.230469, 4185.127930, 4183.076660, 4153.846191, 4170.256348, 4137.948730, 4189.743652, 4015.897217, 4144.102539, 3529.000000, 8080.000000, 7832.000000, 0.000000, 0.000000, 0.000000, 15618.000000, 961.025635, 4.000000, 4.000000, 4.000000, 4.000000, 4.000000, 4.000000, 4.000000, 4.000000, 4.000000, 4.000000, 4.000000, 4.000000, 4.000000, 4.000000, 4.000000, 4.000000
73.000000, 0.000000, 4634.358887, 4182.563965, 4135.384277, 4205.641113, 4193.333008, 4172.307617, 4188.717773, 4189.743652, 4161.538574, 4178.461426, 4142.051270, 4195.384277, 3995.384521, 4144.102539, 3513.000000, 8080.000000, 7834.000000, 0.000000, 0.000000, 0.000000, 15618.000000, 968.717896, 4.000000, 4.000000, 4.000000, 4.000000, 4.000000, 4.000000, 4.000000, 4.000000, 4.000000, 4.000000, 4.000000, 4.000000, 4.000000, 4.000000, 4.000000, 4.000000
74.000000, 0.000000, 4656.922852, 4177.436035, 4136.410156, 4202.563965, 4197.436035, 4170.256348, 4189.230469, 4184.102539, 4155.897461, 4178.461426, 4136.410156, 4194.358887, 3981.538330, 4139.487305, 3110.000000, 8080.000000, 7834.000000, 0.000000, 0.000000, 0.000000, 15618.000000, 976.923035, 4.000000, 4.000000, 4.000000, 4.000000, 4.000000, 4.000000, 4.000000, 4.000000, 4.000000, 4.000000, 4.000000, 4.000000, 4.000000, 4.000000, 4.000000, 4.000000
75.000000, 0.000000, 4671.794922, 4189.743652, 4137.948730, 4207.179199, 4196.922852, 4170.769043, 4184.102539, 4184.615234, 4160.512695, 4188.205078, 4146.153809, 4195.897461, 4018.461426, 4140.000000, 2431.000000, 8076.000000, 7830.000000, 0.000000, 0.000000, 0.000000, 15618.000000, 984.615356, 4.000000, 4.000000, 4.000000, 4.000000, 4.000000, 4.000000, 4.000000, 4.000000, 4.000000, 4.000000, 4.000000, 4.000000, 4.000000, 4.000000, 4.000000, 4.000000
76.000000, 0.000000, 4687.179199, 4194.871582, 4137.436035, 4207.692383, 4191.281738, 4172.307617, 4187.692383, 4191.794922, 4167.179199, 4191.794922, 4157.948730, 4204.615234, 4047.179443, 4142.563965, 3480.000000, 8076.000000, 7830.000000, 0.000000, 0.000000, 0.000000, 15618.000000, 992.307678, 4.000000, 4.000000, 4.000000, 4.000000, 4.000000, 4.000000, 4.000000, 4.000000, 4.000000, 4.000000, 4.000000, 4.000000, 4.000000, 4.000000, 4.000000, 4.000000
77.000000, 0.000000, 4630.256348, 4179.487305, 4129.230469, 4194.358887, 4182.563965, 4167.179199, 4190.256348, 4188.205078, 4151.794922, 4174.358887, 4148.717773, 4201.538574, 4028.717773, 4140.000000, 2399.000000, 8077.000000, 7836.000000, 0.000000, 0.000000, 0.000000, 15619.000000, 0.000000, 4.000000, 4.000000, 4.000000, 4.000000, 4.000000, 4.000000, 4.000000, 4.000000, 4.000000, 4.000000, 4.000000, 4.000000, 4.000000, 4.000000, 4.000000, 4.000000
78.000000, 0.000000, 4523.589844, 4176.410156, 4120.512695, 4186.666504, 4182.051270, 4163.589844, 4177.948730, 4181.538574, 4137.948730, 4162.051270, 4137.948730, 4192.307617, 4012.820313, 4135.897461, 3110.000000, 8077.000000, 7836.000000, 0.000000, 0.000000, 0.000000, 15619.000000, 7.692307, 4.000000, 4.000000, 4.000000, 4.000000, 4.000000, 4.000000, 4.000000, 4.000000, 4.000000, 4.000000, 4.000000, 4.000000, 4.000000, 4.000000, 4.000000, 4.000000
79.000000, 0.000000, 4450.256348, 4181.538574, 4127.179199, 4189.230469, 4182.563965, 4164.102539, 4172.307617, 4182.563965, 4137.948730, 4164.615234, 4136.410156, 4190.769043, 4019.487061, 4138.461426, 2431.000000, 8073.000000, 7858.000000, 0.000000, 0.000000, 0.000000, 15619.000000, 15.897435, 4.000000, 4.000000, 4.000000, 4.000000, 4.000000, 4.000000, 4.000000, 4.000000, 4.000000, 4.000000, 4.000000, 4.000000, 4.000000, 4.000000, 4.000000, 4.000000
80.000000, 0.000000, 4474.358887, 4177.436035, 4127.179199, 4188.717773, 4181.538574, 4160.000000, 4180.000000, 4183.589844, 4140.512695, 4169.743652, 4131.794922, 4186.153809, 4025.128174, 4137.436035, 3480.000000, 8073.000000, 7858.000000, 0.000000, 0.000000, 0.000000, 15619.000000, 23.589743, 4.000000, 4.000000, 4.000000, 4.000000, 4.000000, 4.000000, 4.000000, 4.000000, 4.000000, 4.000000, 4.000000, 4.000000, 4.000000, 4.000000, 4.000000, 4.000000
81.000000, 0.000000, 4557.435547, 4175.384277, 4114.871582, 4182.563965, 4181.538574, 4155.384277, 4175.384277, 4186.666504, 4148.717773, 4176.922852, 4130.769043, 4185.127930, 4013.845947, 4138.974121, 2399.000000, 8072.000000, 7863.000000, 0.000000, 0.000000, 0.000000, 15619.000000, 31.282051, 4.000000, 4.000000, 4.000000, 4.000000, 4.000000, 4.000000, 4.000000, 4.000000, 4.000000, 4.000000, 4.000000, 4.000000, 4.000000, 4.000000, 4.000000, 4.000000
82.000000, 0.000000, 4503.589844, 4176.922852, 4111.281738, 4175.384277, 4181.025391, 4155.897461, 4167.179199, 4188.717773, 4151.281738, 4185.641113, 4132.307617, 4185.641113, 3987.179443, 4144.102539, 3110.000000, 8072.000000, 7863.000000, 0.000000, 0.000000, 0.000000, 15619.000000, 38.974358, 4.000000, 4.000000, 4.000000, 4.000000, 4.000000, 4.000000, 4.000000, 4.000000, 4.000000, 4.000000, 4.000000, 4.000000, 4.000000, 4.000000, 4.000000, 4.000000
83.000000, 0.000000, 4468.717773, 4175.897461, 4114.871582, 4174.871582, 4182.563965, 4156.410156, 4170.256348, 4184.615234, 4146.666504, 4188.205078, 4132.307617, 4185.127930, 3968.205078, 4141.025391, 2431.000000, 8066.000000, 7875.000000, 0.000000, 0.000000, 0.000000, 15619.000000, 47.179485, 4.000000, 4.000000, 4.000000, 4.000000, 4.000000, 4.000000, 4.000000, 4.000000, 4.000000, 4.000000, 4.000000, 4.000000, 4.000000, 4.000000, 4.000000, 4.000000
84.000000, 0.000000, 4687.179199, 4177.948730, 4121.025391, 4176.922852, 4184.615234, 4153.846191, 4167.692383, 4181.025391, 4146.666504, 4189.230469, 4134.871582, 4189.230469, 3975.384521, 4147.692383, 3480.000000, 8066.000000, 7875.000000, 0.000000, 0.000000, 0.000000, 15619.000000, 54.871792, 4.000000, 4.000000, 4.000000, 4.000000, 4.000000, 4.000000, 4.000000, 4.000000, 4.000000, 4.000000, 4.000000, 4.000000, 4.000000, 4.000000, 4.000000, 4.000000
85.000000, 0.000000, 4788.205078, 4184.615234, 4121.538574, 4176.410156, 4186.153809, 4153.333008, 4160.512695, 4183.589844, 4147.179199, 4190.769043, 4135.897461, 4187.179199, 3997.948730, 4155.384277, 2399.000000, 8068.000000, 7885.000000, 0.000000, 0.000000, 0.000000, 15619.000000, 62.564102, 4.000000, 4.000000, 4.000000, 4.000000, 4.000000, 4.000000, 4.000000, 4.000000, 4.000000, 4.000000, 4.000000, 4.000000, 4.000000, 4.000000, 4.000000, 4.000000
86.000000, 0.000000, 4562.563965, 4184.615234, 4118.974121, 4174.871582, 4184.615234, 4151.281738, 4166.666504, 4184.615234, 4146.153809, 4183.589844, 4132.307617, 4183.076660, 4010.769043, 4154.358887, 3110.000000, 8068.000000, 7885.000000, 0.000000, 0.000000, 0.000000, 15619.000000, 70.256409, 4.000000, 4.000000, 4.000000, 4.000000, 4.000000, 4.000000, 4.000000, 4.000000, 4.000000, 4.000000, 4.000000, 4.000000, 4.000000, 4.000000, 4.000000, 4.000000
87.000000, 0.000000, 4364.102539, 4184.102539, 4125.641113, 4179.487305, 4183.076660, 4152.307617, 4173.333008, 4184.102539, 4150.256348, 4178.461426, 4131.794922, 4187.179199, 4020.512695, 4157.948730, 2431.000000, 8071.000000, 7905.000000, 0.000000, 0.000000, 0.000000, 15619.000000, 77.948715, 4.000000, 4.000000, 4.000000, 4.000000, 4.000000, 4.000000, 4.000000, 4.000000, 4.000000, 4.000000, 4.000000, 4.000000, 4.000000, 4.000000, 4.000000, 4.000000
88.000000, 0.000000, 4275.897461, 4196.410156, 4127.179199, 4188.717773, 4190.256348, 4156.922852, 4167.692383, 4186.666504, 4148.717773, 4185.127930, 4132.820313, 4190.256348, 4031.794678, 4156.410156, 3480.000000, 8071.000000, 7905.000000, 0.000000, 0.000000, 0.000000, 15619.000000, 86.153847, 4.000000, 4.000000, 4.000000, 4.000000, 4.000000, 4.000000, 4.000000, 4.000000, 4.000000, 4.000000, 4.000000, 4.000000, 4.000000, 4.000000, 4.000000, 4.000000
89.000000, 0.000000, 4174.871582, 4200.512695, 4122.051270, 4184.102539, 4188.205078, 4155.897461, 4167.692383, 4186.666504, 4137.948730, 4182.051270, 4122.563965, 4184.615234, 4022.563965, 4154.871582, 2399.000000, 8080.000000, 7925.000000, 0.000000, 0.000000, 0.000000, 15619.000000, 93.846153, 4.000000, 4.000000, 4.000000, 4.000000, 4.000000, 4.000000, 4.000000, 4.000000, 4.000000, 4.000000, 4.000000, 4.000000, 4.000000, 4.000000, 4.000000, 4.000000
90.000000, 0.000000, 4115.384277, 4192.307617, 4114.358887, 4172.820313, 4171.281738, 4152.820313, 4172.307617, 4179.487305, 4133.333008, 4171.794922, 4113.333008, 4174.358887, 3995.897217, 4158.974121, 3110.000000, 8080.000000, 7925.000000, 0.000000, 0.000000, 0.000000, 15619.000000, 101.538460, 4.000000, 4.000000, 4.000000, 4.000000, 4.000000, 4.000000, 4.000000, 4.000000, 4.000000, 4.000000, 4.000000, 4.000000, 4.000000, 4.000000, 4.000000, 4.000000
91.000000, 0.000000, 4114.358887, 4194.358887, 4113.846191, 4174.871582, 4173.846191, 4151.794922, 4168.205078, 4178.974121, 4134.358887, 4176.410156, 4121.538574, 4182.051270, 3986.153809, 4164.615234, 2431.000000, 8086.000000, 7929.000000, 0.000000, 0.000000, 0.000000, 15619.000000, 109.230766, 4.000000, 4.000000, 4.000000, 4.000000, 4.000000, 4.000000, 4.000000, 4.000000, 4.000000, 4.000000, 4.000000, 4.000000, 4.000000, 4.000000, 4.000000, 4.000000
92.000000, 0.000000, 4173.333008, 4206.666504, 4124.615234, 4182.563965, 4194.871582, 4155.384277, 4165.641113, 4182.051270, 4136.922852, 4187.692383, 4133.333008, 4190.769043, 3990.256348, 4172.820313, 3480.000000, 8086.000000, 7929.000000, 0.000000, 0.000000, 0.000000, 15619.000000, 116.923073, 4.000000, 4.000000, 4.000000, 4.000000, 4.000000, 4.000000, 4.000000, 4.000000, 4.000000, 4.000000, 4.000000, 4.000000, 4.000000, 4.000000, 4.000000, 4.000000
93.000000, 0.000000, 4276.922852, 4213.333008, 4124.102539, 4180.512695, 4194.871582, 4156.922852, 4172.820313, 4177.436035, 4143.076660, 4190.769043, 4131.794922, 4184.102539, 3991.281982, 4171.794922, 2399.000000, 8100.000000, 7951.000000, 0.000000, 0.000000, 0.000000, 15619.000000, 124.615379, 4.000000, 4.000000, 4.000000, 4.000000, 4.000000, 4.000000, 4.000000, 4.000000, 4.000000, 4.000000, 4.000000, 4.000000, 4.000000, 4.000000, 4.000000, 4.000000
94.000000, 0.000000, 4285.127930, 4211.794922, 4118.974121, 4175.384277, 4180.512695, 4153.846191, 4176.410156, 4172.820313, 4139.487305, 4182.051270, 4121.025391, 4204.102539, 4001.025635, 4166.666504, 3110.000000, 8100.000000, 7951.000000, 0.000000, 0.000000, 0.000000, 15619.000000, 132.820511, 4.000000, 4.000000, 4.000000, 4.000000, 4.000000, 4.000000, 4.000000, 4.000000, 4.000000, 4.000000, 4.000000, 4.000000, 4.000000, 4.000000, 4.000000, 4.000000
95.000000, 0.000000, 4199.487305, 4209.743652, 4118.974121, 4177.948730, 4182.051270, 4151.281738, 4168.205078, 4172.307617, 4131.281738, 4174.871582, 4114.871582, 4240.000000, 4009.230713, 4158.974121, 2431.000000, 8107.000000, 7965.000000, 0.000000, 0.000000, 0.000000, 15619.000000, 140.512817, 4.000000, 4.000000, 4.000000, 4.000000, 4.000000, 4.000000, 4.000000, 4.000000, 4.000000, 4.000000, 4.000000, 4.000000, 4.000000, 4.000000, 4.000000, 4.000000
96.000000, 0.000000, 4148.717773, 4205.641113, 4113.846191, 4175.897461, 4185.127930, 4151.281738, 4164.102539, 4170.256348, 4131.281738, 4177.436035, 4116.922852, 4251.794922, 3997.948730, 4157.948730, 3480.000000, 8107.000000, 7965.000000, 0.000000, 0.000000, 0.000000, 15619.000000, 148.205124, 4.000000, 4.000000, 4.000000, 4.000000, 4.000000, 4.000000, 4.000000, 4.000000, 4.000000, 4.000000, 4.000000, 4.000000, 4.000000, 4.000000, 4.000000, 4.000000
97.000000, 0.000000, 4092.820313, 4202.051270, 4108.717773, 4169.743652, 4180.000000, 4152.820313, 4170.769043, 4168.717773, 4131.794922, 4180.512695, 4119.487305, 4248.717773, 3981.538330, 4168.205078, 2399.000000, 8119.000000, 7975.000000, 0.000000, 0.000000, 0.000000, 15619.000000, 155.897430, 4.000000, 4.000000, 4.000000, 4.000000, 4.000000, 4.000000, 4.000000, 4.000000, 4.000000, 4.000000, 4.000000, 4.000000, 4.000000, 4.000000, 4.000000, 4.000000
98.000000, 0.000000, 4002.563965, 4201.538574, 4105.127930, 4168.205078, 4179.487305, 4152.307617, 4169.743652, 4170.256348, 4124.615234, 4175.384277, 4113.846191, 4245.641113, 3965.640869, 4163.589844, 3110.000000, 8119.000000, 7975.000000, 0.000000, 0.000000, 0.000000, 15619.000000, 163.589737, 4.000000, 4.000000, 4.000000, 4.000000, 4.000000, 4.000000, 4.000000, 4.000000, 4.000000, 4.000000, 4.000000, 4.000000, 4.000000, 4.000000, 4.000000, 4.000000
99.000000, 0.000000, 3992.307617, 4197.948730, 4107.692383, 4167.179199, 4183.589844, 4150.256348, 4158.974121, 4166.666504, 4116.410156, 4166.666504, 4104.615234, 4242.051270, 3950.769043, 4158.461426, 2431.000000, 8142.000000, 7996.000000, 0.000000, 0.000000, 0.000000, 15619.000000, 171.794861, 4.000000, 4.000000, 4.000000, 4.000000, 4.000000, 4.000000, 4.000000, 4.000000, 4.000000, 4.000000, 4.000000, 4.000000, 4.000000, 4.000000, 4.000000, 4.000000
100.000000, 0.000000, 4064.102539, 4197.948730, 4116.922852, 4167.692383, 4181.025391, 4150.256348, 4161.538574, 4168.717773, 4121.025391, 4168.717773, 4107.179199, 4238.974121, 3949.743408, 4165.127930, 3480.000000, 8142.000000, 7996.000000, 0.000000, 0.000000, 0.000000, 15619.000000, 179.487183, 4.000000, 4.000000, 4.000000, 4.000000, 4.000000, 4.000000, 4.000000, 4.000000, 4.000000, 4.000000, 4.000000, 4.000000, 4.000000, 4.000000, 4.000000, 4.000000
101.000000, 0.000000, 4120.512695, 4198.461426, 4124.615234, 4169.230469, 4170.256348, 4151.794922, 4173.846191, 4173.846191, 4128.717773, 4180.000000, 4109.743652, 4242.051270, 3947.179443, 4166.666504, 2399.000000, 8155.000000, 8021.000000, 0.000000, 0.000000, 0.000000, 15619.000000, 187.179489, 4.000000, 4.000000, 4.000000, 4.000000, 4.000000, 4.000000, 4.000000, 4.000000, 4.000000, 4.000000, 4.000000, 4.000000, 4.000000, 4.000000, 4.000000, 4.000000
102.000000, 0.000000, 4155.384277, 4196.922852, 4129.230469, 4168.205078, 4171.794922, 4151.794922, 4173.333008, 4170.769043, 4126.666504, 4181.538574, 4105.127930, 4240.512695, 3935.897461, 4166.666504, 3110.000000, 8155.000000, 8021.000000, 0.000000, 0.000000, 0.000000, 15619.000000, 194.871796, 4.000000, 4.000000, 4.000000, 4.000000, 4.000000, 4.000000, 4.000000, 4.000000, 4.000000, 4.000000, 4.000000, 4.000000, 4.000000, 4.000000, 4.000000, 4.000000
103.000000, 0.000000, 4189.743652, 4198.461426, 4124.615234, 4167.692383, 4187.179199, 4153.846191, 4167.179199, 4176.922852, 4131.281738, 4177.948730, 4106.666504, 4231.794922, 3940.000000, 4161.538574, 2431.000000, 8184.000000, 8061.000000, 0.000000, 0.000000, 0.000000, 15619.000000, 202.564102, 4.000000, 4.000000, 4.000000, 4.000000, 4.000000, 4.000000, 4.000000, 4.000000, 4.000000, 4.000000, 4.000000, 4.000000, 4.000000, 4.000000, 4.000000, 4.000000
104.000000, 0.000000, 4206.666504, 4198.461426, 4122.563965, 4167.692383, 4188.205078, 4159.487305, 4170.769043, 4186.666504, 4138.461426, 4180.000000, 4108.205078, 4231.281738, 3959.487061, 4156.922852, 3480.000000, 8184.000000, 8061.000000, 0.000000, 0.000000, 0.000000, 15619.000000, 210.256409, 4.000000, 4.000000, 4.000000, 4.000000, 4.000000, 4.000000, 4.000000, 4.000000, 4.000000, 4.000000, 4.000000, 4.000000, 4.000000, 4.000000, 4.000000, 4.000000
105.000000, 0.000000, 4147.692383, 4196.410156, 4125.127930, 4165.127930, 4178.974121, 4158.461426, 4171.794922, 4183.589844, 4133.846191, 4186.153809, 4103.589844, 4230.769043, 3983.076904, 4157.436035, 2399.000000, 8193.000000, 8076.000000, 0.000000, 0.000000, 0.000000, 15619.000000, 218.461533, 4.000000, 4.000000, 4.000000, 4.000000, 4.000000, 4.000000, 4.000000, 4.000000, 4.000000, 4.000000, 4.000000, 4.000000, 4.000000, 4.000000, 4.000000, 4.000000
106.000000, 0.000000, 4065.128174, 4197.436035, 4120.512695, 4161.538574, 4180.000000, 4154.358887, 4162.051270, 4180.512695, 4130.256348, 4186.153809, 4104.615234, 4227.692383, 4001.538330, 4154.358887, 3110.000000, 8193.000000, 8076.000000, 0.000000, 0.000000, 0.000000, 15619.000000, 226.153839, 4.000000, 4.000000, 4.000000, 4.000000, 4.000000, 4.000000, 4.000000, 4.000000, 4.000000, 4.000000, 4.000000, 4.000000, 4.000000, 4.000000, 4.000000, 4.000000
107.000000, 0.000000, 4079.487061, 4199.487305, 4128.717773, 4165.127930, 4184.615234, 4156.410156, 4154.358887, 4185.127930, 4134.871582, 4183.589844, 4114.358887, 4230.769043, 4010.256348, 4154.871582, 2431.000000, 8204.000000, 8092.000000, 0.000000, 0.000000, 0.000000, 15619.000000, 233.846146, 4.000000, 4.000000, 4.000000, 4.000000, 4.000000, 4.000000, 4.000000, 4.000000, 4.000000, 4.000000, 4.000000, 4.000000, 4.000000, 4.000000, 4.000000, 4.000000
108.000000, 0.000000, 4102.051270, 4205.127930, 4142.051270, 4173.846191, 4185.127930, 4160.000000, 4161.538574, 4183.589844, 4138.974121, 4189.743652, 4121.025391, 4233.846191, 4020.000000, 4154.358887, 3480.000000, 8204.000000, 8092.000000, 0.000000, 0.000000, 0.000000, 15619.000000, 241.538452, 4.000000, 4.000000, 4.000000, 4.000000, 4.000000, 4.000000, 4.000000, 4.000000, 4.000000, 4.000000, 4.000000, 4.000000, 4.000000, 4.000000, 4.000000, 4.000000
109.000000, 0.000000, 4071.794678, 4213.846191, 4140.000000, 4175.384277, 4186.666504, 4157.436035, 4172.820313, 4175.384277, 4135.897461, 4191.281738, 4120.000000, 4237.436035, 4034.358887, 4158.461426, 2399.000000, 8212.000000, 8128.000000, 0.000000, 0.000000, 0.000000, 15619.000000, 249.230759, 4.000000, 4.000000, 4.000000, 4.000000, 4.000000, 4.000000, 4.000000, 4.000000, 4.000000, 4.000000, 4.000000, 4.000000, 4.000000, 4.000000, 4.000000, 4.000000
110.000000, 0.000000, 4074.871582, 4215.384277, 4134.871582, 4168.717773, 4181.025391, 4154.358887, 4170.769043, 4172.307617, 4135.384277, 4188.717773, 4118.974121, 4236.410156, 4048.717773, 4165.641113, 3110.000000, 8212.000000, 8128.000000, 0.000000, 0.000000, 0.000000, 15619.000000, 257.435883, 4.000000, 4.000000, 4.000000, 4.000000, 4.000000, 4.000000, 4.000000, 4.000000, 4.000000, 4.000000, 4.000000, 4.000000, 4.000000, 4.000000, 4.000000, 4.000000
111.000000, 0.000000, 4110.256348, 4215.897461, 4140.512695, 4172.307617, 4176.922852, 4157.436035, 4166.666504, 4174.358887, 4140.512695, 4190.769043, 4124.102539, 4235.384277, 4065.128174, 4163.589844, 2431.000000, 8211.000000, 8147.000000, 0.000000, 0.000000, 0.000000, 15619.000000, 265.128204, 4.000000, 4.000000, 4.000000, 4.000000, 4.000000, 4.000000, 4.000000, 4.000000, 4.000000, 4.000000, 4.000000, 4.000000, 4.000000, 4.000000, 4.000000, 4.000000
112.000000, 0.000000, 4163.076660, 4219.487305, 4146.666504, 4180.512695, 4177.436035, 4155.897461, 4170.769043, 4172.820313, 4137.948730, 4189.230469, 4125.127930, 4237.948730, 4077.948730, 4161.025391, 3480.000000, 8211.000000, 8147.000000, 0.000000, 0.000000, 0.000000, 15619.000000, 272.820496, 4.000000, 4.000000, 4.000000, 4.000000, 4.000000, 4.000000, 4.000000, 4.000000, 4.000000, 4.000000, 4.000000, 4.000000, 4.000000, 4.000000, 4.000000, 4.000000
113.000000, 0.000000, 4229.230469, 4202.563965, 4135.897461, 4172.820313, 4173.333008, 4151.794922, 4167.179199, 4166.153809, 4131.281738, 4184.102539, 4122.563965, 4232.307617, 4078.974365, 4157.948730, 2399.000000, 8215.000000, 8181.000000, 0.000000, 0.000000, 0.000000, 15619.000000, 280.512817, 4.000000, 4.000000, 4.000000, 4.000000, 4.000000, 4.000000, 4.000000, 4.000000, 4.000000, 4.000000, 4.000000, 4.000000, 4.000000, 4.000000, 4.000000, 4.000000
114.000000, 0.000000, 4273.333008, 4187.692383, 4133.846191, 4163.589844, 4167.692383, 4153.333008, 4156.922852, 4162.051270, 4132.820313, 4184.102539, 4124.102539, 4233.333008, 4074.871582, 4160.512695, 3110.000000, 8215.000000, 8181.000000, 0.000000, 0.000000, 0.000000, 15619.000000, 288.205109, 4.000000, 4.000000, 4.000000, 4.000000, 4.000000, 4.000000, 4.000000, 4.000000, 4.000000, 4.000000, 4.000000, 4.000000, 4.000000, 4.000000, 4.000000, 4.000000
115.000000, 0.000000, 4274.358887, 4202.563965, 4143.589844, 4168.205078, 4166.666504, 4149.743652, 4152.820313, 4157.436035, 4134.871582, 4182.563965, 4123.076660, 4235.384277, 4080.512695, 4163.589844, 2431.000000, 8217.000000, 8202.000000, 0.000000, 0.000000, 0.000000, 15619.000000, 296.410248, 4.000000, 4.000000, 4.000000, 4.000000, 4.000000, 4.000000, 4.000000, 4.000000, 4.000000, 4.000000, 4.000000, 4.000000, 4.000000, 4.000000, 4.000000, 4.000000
116.000000, 0.000000, 4270.769043, 4221.025391, 4137.436035, 4171.794922, 4170.256348, 4144.102539, 4150.769043, 4156.410156, 4132.820313, 4180.000000, 4124.102539, 4232.307617, 4090.769043, 4160.512695, 3480.000000, 8217.000000, 8202.000000, 0.000000, 0.000000, 0.000000, 15619.000000, 304.102570, 4.000000, 4.000000, 4.000000, 4.000000, 4.000000, 4.000000, 4.000000, 4.000000, 4.000000, 4.000000, 4.000000, 4.000000, 4.000000, 4.000000, 4.000000, 4.000000
117.000000, 0.000000, 4234.358887, 4223.589844, 4140.000000, 4170.769043, 4171.281738, 4146.666504, 4150.769043, 4166.666504, 4135.897461, 4181.538574, 4127.692383, 4237.436035, 4093.333252, 4167.179199, 2399.000000, 8214.000000, 8233.000000, 0.000000, 0.000000, 0.000000, 15619.000000, 311.794861, 4.000000, 4.000000, 4.000000, 4.000000, 4.000000, 4.000000, 4.000000, 4.000000, 4.000000, 4.000000, 4.000000, 4.000000, 4.000000, 4.000000, 4.000000, 4.000000
118.000000, 0.000000, 4164.615234, 4233.333008, 4151.281738, 4180.512695, 4170.769043, 4153.333008, 4154.358887, 4170.256348, 4140.000000, 4184.615234, 4129.230469, 4236.410156, 4098.461426, 4170.256348, 3110.000000, 8214.000000, 8233.000000, 0.000000, 0.000000, 0.000000, 15619.000000, 320.000000, 4.000000, 4.000000, 4.000000, 4.000000, 4.000000, 4.000000, 4.000000, 4.000000, 4.000000, 4.000000, 4.000000, 4.000000, 4.000000, 4.000000, 4.000000, 4.000000
119.000000, 0.000000, 4193.846191, 4243.589844, 4147.179199, 4189.230469, 4175.384277, 4153.846191, 4155.384277, 4160.000000, 4137.436035, 4181.538574, 4124.102539, 4227.179199, 4100.000000, 4163.076660, 2431.000000, 8214.000000, 8247.000000, 0.000000, 0.000000, 0.000000, 15619.000000, 327.692291, 4.000000, 4.000000, 4.000000, 4.000000, 4.000000, 4.000000, 4.000000, 4.000000, 4.000000, 4.000000, 4.000000, 4.000000, 4.000000, 4.000000, 4.000000, 4.000000
120.000000, 0.000000, 4190.256348, 4237.436035, 4137.948730, 4181.025391, 4182.051270, 4148.205078, 4150.769043, 4150.256348, 4130.256348, 4174.358887, 4114.358887, 4221.538574, 4088.205078, 4159.487305, 3480.000000, 8214.000000, 8247.000000, 0.000000, 0.000000, 0.000000, 15619.000000, 335.897430, 4.000000, 4.000000, 4.000000, 4.000000, 4.000000, 4.000000, 4.000000, 4.000000, 4.000000, 4.000000, 4.000000, 4.000000, 4.000000, 4.000000, 4.000000, 4.000000
121.000000, 0.000000, 4024.615234, 4237.948730, 4134.871582, 4172.820313, 4180.000000, 4146.666504, 4150.769043, 4157.948730, 4134.358887, 4174.871582, 4115.897461, 4221.538574, 4091.281982, 4155.384277, 2399.000000, 8214.000000, 8255.000000, 0.000000, 0.000000, 0.000000, 15619.000000, 343.589722, 4.000000, 4.000000, 4.000000, 4.000000, 4.000000, 4.000000, 4.000000, 4.000000, 4.000000, 4.000000, 4.000000, 4.000000, 4.000000, 4.000000, 4.000000, 4.000000
122.000000, 0.000000, 3921.025635, 4237.948730, 4135.897461, 4170.769043, 4168.205078, 4149.743652, 4156.922852, 4170.769043, 4141.538574, 4176.410156, 4119.487305, 4224.615234, 4097.948730, 4154.871582, 3110.000000, 8214.000000, 8255.000000, 0.000000, 0.000000, 0.000000, 15619.000000, 351.794861, 4.000000, 4.000000, 4.000000, 4.000000, 4.000000, 4.000000, 4.000000, 4.000000, 4.000000, 4.000000, 4.000000, 4.000000, 4.000000, 4.000000, 4.000000, 4.000000
123.000000, 0.000000, 3963.589600, 4231.281738, 4132.820313, 4170.256348, 4166.666504, 4150.769043, 4153.846191, 4168.717773, 4138.461426, 4174.358887, 4113.846191, 4215.384277, 4059.487061, 4151.794922, 2431.000000, 8211.000000, 8270.000000, 0.000000, 0.000000, 0.000000, 15619.000000, 359.487183, 4.000000, 4.000000, 4.000000, 4.000000, 4.000000, 4.000000, 4.000000, 4.000000, 4.000000, 4.000000, 4.000000, 4.000000, 4.000000, 4.000000, 4.000000, 4.000000
124.000000, 0.000000, 3982.563965, 4240.000000, 4129.230469, 4175.384277, 4177.948730, 4149.743652, 4142.563965, 4163.589844, 4135.384277, 4175.384277, 4111.281738, 4208.717773, 3993.845947, 4151.281738, 3480.000000, 8211.000000, 8270.000000, 0.000000, 0.000000, 0.000000, 15619.000000, 367.179474, 4.000000, 4.000000, 4.000000, 4.000000, 4.000000, 4.000000, 4.000000, 4.000000, 4.000000, 4.000000, 4.000000, 4.000000, 4.000000, 4.000000, 4.000000, 4.000000
125.000000, 0.000000, 3976.923096, 4246.666504, 4127.179199, 4172.820313, 4179.487305, 4153.333008, 4147.692383, 4162.051270, 4134.871582, 4170.769043, 4108.205078, 4208.205078, 3945.640869, 4153.846191, 2399.000000, 8212.000000, 8276.000000, 0.000000, 0.000000, 0.000000, 15619.000000, 375.384613, 4.000000, 4.000000, 4.000000, 4.000000, 4.000000, 4.000000, 4.000000, 4.000000, 4.000000, 4.000000, 4.000000, 4.000000, 4.000000, 4.000000, 4.000000, 4.000000
126.000000, 0.000000, 4030.769043, 4234.871582, 4117.948730, 4161.538574, 4172.820313, 4150.769043, 4157.436035, 4158.461426, 4133.846191, 4165.127930, 4104.615234, 4203.076660, 3926.153809, 4148.205078, 3110.000000, 8212.000000, 8276.000000, 0.000000, 0.000000, 0.000000, 15619.000000, 383.076904, 4.000000, 4.000000, 4.000000, 4.000000, 4.000000, 4.000000, 4.000000, 4.000000, 4.000000, 4.000000, 4.000000, 4.000000, 4.000000, 4.000000, 4.000000, 4.000000
127.000000, 0.000000, 4048.205078, 4225.641113, 4115.384277, 4158.974121, 4169.230469, 4140.512695, 4146.666504, 4158.974121, 4133.333008, 4169.743652, 4111.794922, 4203.589844, 3925.640869, 4150.769043, 55.000000, 8212.000000, 8290.000000, 0.000000, 0.000000, 0.000000, 15619.000000, 390.769226, 4.000000, 4.000000, 4.000000, 4.000000, 4.000000, 4.000000, 4.000000, 4.000000, 4.000000, 4.000000, 4.000000, 4.000000, 4.000000, 4.000000, 4.000000, 4.000000
0.000000, 0.000000, 3973.333252, 4232.820313, 4118.974121, 4165.641113, 4172.307617, 4140.000000, 4139.487305, 4165.127930, 4137.436035, 4177.948730, 4119.487305, 4204.102539, 3925.128174, 4154.871582, 3126.000000, 8212.000000, 8290.000000, 0.000000, 0.000000, 0.000000, 15619.000000, 398.461517, 4.000000, 4.000000, 4.000000, 4.000000, 4.000000, 4.000000, 4.000000, 4.000000, 4.000000, 4.000000, 4.000000, 4.000000, 4.000000, 4.000000, 4.000000, 4.000000
1.000000, 0.000000, 3911.794678, 4240.000000, 4118.461426, 4168.717773, 4177.948730, 4152.307617, 4154.358887, 4169.743652, 4145.641113, 4179.487305, 4118.974121, 4205.641113, 3920.000000, 4152.307617, 3533.000000, 8217.000000, 8292.000000, 0.000000, 0.000000, 0.000000, 15619.000000, 406.153839, 4.000000, 4.000000, 4.000000, 4.000000, 4.000000, 4.000000, 4.000000, 4.000000, 4.000000, 4.000000, 4.000000, 4.000000, 4.000000, 4.000000, 4.000000, 4.000000
2.000000, 0.000000, 3908.205078, 4236.922852, 4125.641113, 4168.205078, 4182.563965, 4162.051270, 4165.641113, 4171.281738, 4149.230469, 4177.948730, 4120.512695, 4211.794922, 3916.410156, 4157.948730, 1955.000000, 8217.000000, 8292.000000, 0.000000, 0.000000, 0.000000, 15619.000000, 414.358978, 4.000000, 4.000000, 4.000000, 4.000000, 4.000000, 4.000000, 4.000000, 4.000000, 4.000000, 4.000000, 4.000000, 4.000000, 4.000000, 4.000000, 4.000000, 4.000000
3.000000, 0.000000, 3903.076904, 4234.358887, 4130.769043, 4170.769043, 4184.615234, 4162.563965, 4164.102539, 4172.307617, 4145.641113, 4173.846191, 4128.205078, 4212.307617, 3920.000000, 4160.512695, 3550.000000, 8222.000000, 8287.000000, 0.000000, 0.000000, 0.000000, 15619.000000, 422.051270, 4.000000, 4.000000, 4.000000, 4.000000, 4.000000, 4.000000, 4.000000, 4.000000, 4.000000, 4.000000, 4.000000, 4.000000, 4.000000, 4.000000, 4.000000, 4.000000
4.000000, 0.000000, 3889.230713, 4236.410156, 4130.769043, 4175.384277, 4185.127930, 4162.563965, 4168.717773, 4176.410156, 4147.692383, 4175.897461, 4131.281738, 4216.410156, 3927.692139, 4160.512695, 3495.000000, 8222.000000, 8287.000000, 0.000000, 0.000000, 0.000000, 15619.000000, 429.743591, 4.000000, 4.000000, 4.000000, 4.000000, 4.000000, 4.000000, 4.000000, 4.000000, 4.000000, 4.000000, 4.000000, 4.000000, 4.000000, 4.000000, 4.000000, 4.000000
5.000000, 0.000000, 3885.128174, 4233.846191, 4131.794922, 4175.384277, 4178.974121, 4168.205078, 4175.897461, 4185.127930, 4160.000000, 4184.615234, 4128.205078, 4218.461426, 3933.333252, 4159.487305, 3516.000000, 8236.000000, 8283.000000, 0.000000, 0.000000, 0.000000, 15619.000000, 437.435883, 4.000000, 4.000000, 4.000000, 4.000000, 4.000000, 4.000000, 4.000000, 4.000000, 4.000000, 4.000000, 4.000000, 4.000000, 4.000000, 4.000000, 4.000000, 4.000000
6.000000, 0.000000, 3888.717773, 4228.717773, 4129.743652, 4170.769043, 4167.692383, 4171.794922, 4174.358887, 4187.179199, 4162.051270, 4184.102539, 4123.589844, 4212.307617, 3935.384521, 4156.922852, 3388.000000, 8236.000000, 8283.000000, 0.000000, 0.000000, 0.000000, 15619.000000, 445.641022, 4.000000, 4.000000, 4.000000, 4.000000, 4.000000, 4.000000, 4.000000, 4.000000, 4.000000, 4.000000, 4.000000, 4.000000, 4.000000, 4.000000, 4.000000, 4.000000
7.000000, 0.000000, 3905.128174, 4224.615234, 4128.205078, 4167.179199, 4172.307617, 4161.538574, 4168.717773, 4178.974121, 4152.820313, 4176.922852, 4121.538574, 4206.666504, 3938.974365, 4157.948730, 3144.000000, 8243.000000, 8292.000000, 0.000000, 0.000000, 0.000000, 15619.000000, 453.333313, 4.000000, 4.000000, 4.000000, 4.000000, 4.000000, 4.000000, 4.000000, 4.000000, 4.000000, 4.000000, 4.000000, 4.000000, 4.000000, 4.000000, 4.000000, 4.000000
8.000000, 0.000000, 3888.205078, 4224.615234, 4124.615234, 4171.794922, 4188.205078, 4155.384277, 4167.179199, 4174.871582, 4154.358887, 4177.948730, 4123.076660, 4205.641113, 3947.179443, 4156.922852, 3529.000000, 8243.000000, 8292.000000, 0.000000, 0.000000, 0.000000, 15619.000000, 461.025635, 4.000000, 4.000000, 4.000000, 4.000000, 4.000000, 4.000000, 4.000000, 4.000000, 4.000000, 4.000000, 4.000000, 4.000000, 4.000000, 4.000000, 4.000000, 4.000000
9.000000, 0.000000, 3880.000000, 4228.717773, 4123.076660, 4174.358887, 4186.666504, 4166.153809, 4169.743652, 4174.358887, 4161.538574, 4177.436035, 4121.538574, 4207.179199, 3952.820313, 4160.000000, 3513.000000, 8254.000000, 8280.000000, 0.000000, 0.000000, 0.000000, 15619.000000, 469.230743, 4.000000, 4.000000, 4.000000, 4.000000, 4.000000, 4.000000, 4.000000, 4.000000, 4.000000, 4.000000, 4.000000, 4.000000, 4.000000, 4.000000, 4.000000, 4.000000
10.000000, 0.000000, 3952.820313, 4227.179199, 4121.538574, 4166.666504, 4174.871582, 4166.666504, 4170.769043, 4171.794922, 4159.487305, 4172.820313, 4117.436035, 4200.000000, 3957.435791, 4163.076660, 3111.000000, 8254.000000, 8280.000000, 0.000000, 0.000000, 0.000000, 15619.000000, 476.923065, 4.000000, 4.000000, 4.000000, 4.000000, 4.000000, 4.000000, 4.000000, 4.000000, 4.000000, 4.000000, 4.000000, 4.000000, 4.000000, 4.000000, 4.000000, 4.000000
11.000000, 0.000000, 4052.820313, 4218.974121, 4113.846191, 4163.076660, 4178.461426, 4159.487305, 4171.794922, 4168.717773, 4155.897461, 4169.230469, 4117.436035, 4194.871582, 3962.051270, 4158.974121, 2426.000000, 8263.000000, 8257.000000, 0.000000, 0.000000, 0.000000, 15619.000000, 485.128204, 4.000000, 4.000000, 4.000000, 4.000000, 4.000000, 4.000000, 4.000000, 4.000000, 4.000000, 4.000000, 4.000000, 4.000000, 4.000000, 4.000000, 4.000000, 4.000000
12.000000, 0.000000, 4075.897217, 4219.487305, 4116.410156, 4164.615234, 4179.487305, 4164.102539, 4171.281738, 4166.666504, 4155.897461, 4166.153809, 4119.487305, 4197.948730, 3971.794678, 4161.025391, 3486.000000, 8263.000000, 8257.000000, 0.000000, 0.000000, 0.000000, 15619.000000, 493.333313, 4.000000, 4.000000, 4.000000, 4.000000, 4.000000, 4.000000, 4.000000, 4.000000, 4.000000, 4.000000, 4.000000, 4.000000, 4.000000, 4.000000, 4.000000, 4.000000
13.000000, 0.000000, 3999.487061, 4222.051270, 4117.948730, 4160.000000, 4164.102539, 4166.666504, 4171.281738, 4167.692383, 4158.461426, 4166.153809, 4124.615234, 4197.436035, 3987.692139, 4161.538574, 2393.000000, 8279.000000, 8222.000000, 0.000000, 0.000000, 0.000000, 15619.000000, 501.025635, 4.000000, 4.000000, 4.000000, 4.000000, 4.000000, 4.000000, 4.000000, 4.000000, 4.000000, 4.000000, 4.000000, 4.000000, 4.000000, 4.000000, 4.000000, 4.000000
14.000000, 0.000000, 3960.512695, 4215.384277, 4116.410156, 4157.436035, 4162.563965, 4162.563965, 4172.820313, 4168.717773, 4158.461426, 4167.179199, 4129.230469, 4201.025391, 3995.384521, 4164.102539, 3111.000000, 8279.000000, 8222.000000, 0.000000, 0.000000, 0.000000, 15619.000000, 508.717926, 4.000000, 4.000000, 4.000000, 4.000000, 4.000000, 4.000000, 4.000000, 4.000000, 4.000000, 4.000000, 4.000000, 4.000000, 4.000000, 4.000000, 4.000000, 4.000000
15.000000, 0.000000, 4001.025635, 4218.461426, 4120.512695, 4166.153809, 4173.333008, 4164.102539, 4172.820313, 4167.179199, 4155.897461, 4170.256348, 4130.256348, 4203.076660, 4009.230713, 4168.717773, 2426.000000, 8289.000000, 8214.000000, 0.000000, 0.000000, 0.000000, 15619.000000, 516.923035, 4.000000, 4.000000, 4.000000, 4.000000, 4.000000, 4.000000, 4.000000, 4.000000, 4.000000, 4.000000, 4.000000, 4.000000, 4.000000, 4.000000, 4.000000, 4.000000
16.000000, 0.000000, 4002.563965, 4225.127930, 4122.563965, 4172.820313, 4162.563965, 4164.102539, 4169.230469, 4167.179199, 4157.436035, 4173.846191, 4130.769043, 4200.000000, 4036.410156, 4163.076660, 0.000000, 8289.000000, 8214.000000, 0.000000, 0.000000, 0.000000, 15619.000000, 525.128174, 4.000000, 4.000000, 4.000000, 4.000000, 4.000000, 4.000000, 4.000000, 4.000000, 4.000000, 4.000000, 4.000000, 4.000000, 4.000000, 4.000000, 4.000000, 4.000000
17.000000, 0.000000, 3965.128174, 4210.769043, 4126.666504, 4161.538574, 4147.692383, 4157.948730, 4173.333008, 4169.743652, 4158.461426, 4173.333008, 4129.743652, 4201.538574, 4046.153809, 4165.127930, 0.000000, 8297.000000, 8214.000000, 0.000000, 0.000000, 0.000000, 15619.000000, 532.820496, 4.000000, 4.000000, 4.000000, 4.000000, 4.000000, 4.000000, 4.000000, 4.000000, 4.000000, 4.000000, 4.000000, 4.000000, 4.000000, 4.000000, 4.000000, 4.000000
18.000000, 0.000000, 3913.333252, 4203.076660, 4128.205078, 4155.384277, 4158.974121, 4157.948730, 4181.538574, 4172.307617, 4153.846191, 4173.333008, 4129.230469, 4204.615234, 4032.820313, 4174.358887, 0.000000, 8297.000000, 8214.000000, 0.000000, 0.000000, 0.000000, 15619.000000, 541.025635, 4.000000, 4.000000, 4.000000, 4.000000, 4.000000, 4.000000, 4.000000, 4.000000, 4.000000, 4.000000, 4.000000, 4.000000, 4.000000, 4.000000, 4.000000, 4.000000
19.000000, 0.000000, 3858.461426, 4213.333008, 4125.127930, 4164.615234, 4165.127930, 4155.384277, 4180.000000, 4171.281738, 4147.179199, 4169.743652, 4127.692383, 4208.205078, 4014.358887, 4176.410156, 0.000000, 8304.000000, 8233.000000, 0.000000, 0.000000, 0.000000, 15619.000000, 548.717957, 4.000000, 4.000000, 4.000000, 4.000000, 4.000000, 4.000000, 4.000000, 4.000000, 4.000000, 4.000000, 4.000000, 4.000000, 4.000000, 4.000000, 4.000000, 4.000000
20.000000, 0.000000, 3848.205078, 4209.230469, 4121.025391, 4165.127930, 4149.743652, 4153.846191, 4177.948730, 4167.692383, 4141.025391, 4160.000000, 4120.000000, 4203.589844, 3995.897217, 4173.333008, 0.000000, 8304.000000, 8233.000000, 0.000000, 0.000000, 0.000000, 15619.000000, 556.923035, 4.000000, 4.000000, 4.000000, 4.000000, 4.000000, 4.000000, 4.000000, 4.000000, 4.000000, 4.000000, 4.000000, 4.000000, 4.000000, 4.000000, 4.000000, 4.000000
21.000000, 0.000000, 3873.845947, 4190.769043, 4110.256348, 4154.358887, 4146.666504, 4167.179199, 4184.615234, 4169.743652, 4140.512695, 4151.281738, 4114.871582, 4194.871582, 3988.205078, 4168.717773, 0.000000, 8300.000000, 8248.000000, 0.000000, 0.000000, 0.000000, 15619.000000, 564.615356, 4.000000, 4.000000, 4.000000, 4.000000, 4.000000, 4.000000, 4.000000, 4.000000, 4.000000, 4.000000, 4.000000, 4.000000, 4.000000, 4.000000, 4.000000, 4.000000
22.000000, 0.000000, 3934.871582, 4184.102539, 4112.307617, 4149.743652, 4148.717773, 4173.846191, 4187.692383, 4178.974121, 4150.256348, 4153.333008, 4116.922852, 4201.538574, 4003.076904, 4172.307617, 0.000000, 8300.000000, 8248.000000, 0.000000, 0.000000, 0.000000, 15619.000000, 572.820496, 4.000000, 4.000000, 4.000000, 4.000000, 4.000000, 4.000000, 4.000000, 4.000000, 4.000000, 4.000000, 4.000000, 4.000000, 4.000000, 4.000000, 4.000000, 4.000000
23.000000, 0.000000, 4033.333252, 4184.102539, 4118.974121, 4150.769043, 4144.102539, 4163.076660, 4176.410156, 4186.153809, 4166.153809, 4167.692383, 4122.563965, 4207.692383, 4014.871582, 4171.794922, 0.000000, 8284.000000, 8268.000000, 0.000000, 0.000000, 0.000000, 15619.000000, 580.512817, 4.000000, 4.000000, 4.000000, 4.000000, 4.000000, 4.000000, 4.000000, 4.000000, 4.000000, 4.000000, 4.000000, 4.000000, 4.000000, 4.000000, 4.000000, 4.000000
24.000000, 0.000000, 4118.461426, 4185.641113, 4117.436035, 4147.692383, 4144.615234, 4151.281738, 4168.717773, 4186.666504, 4170.769043, 4181.538574, 4133.846191, 4210.769043, 4008.717773, 4174.358887, 0.000000, 8284.000000, 8268.000000, 0.000000, 0.000000, 0.000000, 15619.000000, 588.717957, 4.000000, 4.000000, 4.000000, 4.000000, 4.000000, 4.000000, 4.000000, 4.000000, 4.000000, 4.000000, 4.000000, 4.000000, 4.000000, 4.000000, 4.000000, 4.000000
25.000000, 0.000000, 4146.666504, 4190.256348, 4117.948730, 4151.281738, 4140.000000, 4151.281738, 4172.307617, 4185.127930, 4167.692383, 4185.127930, 4147.692383, 4212.820313, 4000.512695, 4183.589844, 0.000000, 8270.000000, 8282.000000, 0.000000, 0.000000, 0.000000, 15619.000000, 596.410217, 4.000000, 4.000000, 4.000000, 4.000000, 4.000000, 4.000000, 4.000000, 4.000000, 4.000000, 4.000000, 4.000000, 4.000000, 4.000000, 4.000000, 4.000000, 4.000000
26.000000, 0.000000, 4115.384277, 4193.846191, 4117.436035, 4162.051270, 4135.897461, 4153.333008, 4165.127930, 4186.666504, 4172.820313, 4187.179199, 4155.897461, 4210.769043, 4012.820313, 4180.512695, 0.000000, 8270.000000, 8282.000000, 0.000000, 0.000000, 0.000000, 15619.000000, 604.102539, 4.000000, 4.000000, 4.000000, 4.000000, 4.000000, 4.000000, 4.000000, 4.000000, 4.000000, 4.000000, 4.000000, 4.000000, 4.000000, 4.000000, 4.000000, 4.000000
27.000000, 0.000000, 4039.487061, 4200.000000, 4118.974121, 4169.743652, 4142.563965, 4150.769043, 4156.922852, 4185.641113, 4175.384277, 4190.769043, 4160.000000, 4215.384277, 4035.897217, 4180.000000, 0.000000, 8256.000000, 8291.000000, 0.000000, 0.000000, 0.000000, 15619.000000, 612.307678, 4.000000, 4.000000, 4.000000, 4.000000, 4.000000, 4.000000, 4.000000, 4.000000, 4.000000, 4.000000, 4.000000, 4.000000, 4.000000, 4.000000, 4.000000, 4.000000
28.000000, 0.000000, 3980.512695, 4204.102539, 4119.487305, 4168.205078, 4147.179199, 4159.487305, 4166.666504, 4183.076660, 4172.307617, 4191.794922, 4155.897461, 4214.358887, 4014.358887, 4173.846191, 0.000000, 8256.000000, 8291.000000, 0.000000, 0.000000, 0.000000, 15619.000000, 620.512817, 4.000000, 4.000000, 4.000000, 4.000000, 4.000000, 4.000000, 4.000000, 4.000000, 4.000000, 4.000000, 4.000000, 4.000000, 4.000000, 4.000000, 4.000000, 4.000000
29.000000, 0.000000, 4041.025635, 4193.846191, 4114.358887, 4161.538574, 4145.127930, 4171.794922, 4177.948730, 4184.615234, 4175.384277, 4186.153809, 4147.692383, 4209.230469, 3959.487061, 4162.563965, 0.000000, 8228.000000, 8298.000000, 0.000000, 0.000000, 0.000000, 15619.000000, 628.205139, 4.000000, 4.000000, 4.000000, 4.000000, 4.000000, 4.000000, 4.000000, 4.000000, 4.000000, 4.000000, 4.000000, 4.000000, 4.000000, 4.000000, 4.000000, 4.000000
30.000000, 1.000000, 4030.769043, 4193.846191, 4115.897461, 4162.563965, 4146.666504, 4171.281738, 4177.436035, 4185.127930, 4177.948730, 4191.281738, 4159.487305, 4211.281738, 3957.948730, 4167.179199, 0.000000, 8217.000000, 8289.000000, 0.000000, 0.000000, 0.000000, 15619.000000, 636.410217, 4.000000, 4.000000, 4.000000, 4.000000, 4.000000, 4.000000, 4.000000, 4.000000, 4.000000, 4.000000, 4.000000, 4.000000, 4.000000, 4.000000, 4.000000, 4.000000
31.000000, 1.000000, 4020.000000, 4193.846191, 4117.436035, 4163.076660, 4147.692383, 4171.281738, 4177.436035, 4185.127930, 4180.512695, 4195.897461, 4170.769043, 4213.846191, 3956.410156, 4171.794922, 0.000000, 8206.000000, 8280.000000, 0.000000, 0.000000, 0.000000, 15619.000000, 644.102539, 4.000000, 4.000000, 4.000000, 4.000000, 4.000000, 4.000000, 4.000000, 4.000000, 4.000000, 4.000000, 4.000000, 4.000000, 4.000000, 4.000000, 4.000000, 4.000000
32.000000, 1.000000, 4009.743408, 4193.846191, 4118.974121, 4164.102539, 4149.230469, 4171.281738, 4176.922852, 4185.641113, 4183.076660, 4200.512695, 4182.563965, 4215.897461, 3954.871582, 4176.410156, 0.000000, 8195.000000, 8271.000000, 0.000000, 0.000000, 0.000000, 15619.000000, 651.794861, 4.000000, 4.000000, 4.000000, 4.000000, 4.000000, 4.000000, 4.000000, 4.000000, 4.000000, 4.000000, 4.000000, 4.000000, 4.000000, 4.000000, 4.000000, 4.000000
33.000000, 1.000000, 3998.974365, 4193.846191, 4120.512695, 4164.615234, 4150.769043, 4171.281738, 4176.922852, 4185.641113, 4185.641113, 4205.127930, 4193.846191, 4217.948730, 3953.845947, 4181.538574, 0.000000, 8184.000000, 8262.000000, 0.000000, 0.000000, 0.000000, 15619.000000, 660.000000, 4.000000, 4.000000, 4.000000, 4.000000, 4.000000, 4.000000, 4.000000, 4.000000, 4.000000, 4.000000, 4.000000, 4.000000, 4.000000, 4.000000, 4.000000, 4.000000
34.000000, 1.000000, 3988.717773, 4193.846191, 4122.051270, 4165.641113, 4152.307617, 4170.769043, 4176.410156, 4186.153809, 4188.205078, 4210.256348, 4205.641113, 4220.000000, 3952.307617, 4186.153809, 0.000000, 8173.000000, 8253.000000, 0.000000, 0.000000, 0.000000, 15619.000000, 667.692322, 4.000000, 4.000000, 4.000000, 4.000000, 4.000000, 4.000000, 4.000000, 4.000000, 4.000000, 4.000000, 4.000000, 4.000000, 4.000000, 4.000000, 4.000000, 4.000000
35.000000, 0.000000, 3977.948730, 4193.846191, 4124.102539, 4166.153809, 4153.846191, 4170.769043, 4176.410156, 4186.666504, 4190.769043, 4214.871582, 4216.922852, 4222.563965, 3950.256348, 4191.281738, 0.000000, 8161.000000, 8242.000000, 0.000000, 0.000000, 0.000000, 15619.000000, 675.384583, 4.000000, 4.000000, 4.000000, 4.000000, 4.000000, 4.000000, 4.000000, 4.000000, 4.000000, 4.000000, 4.000000, 4.000000, 4.000000, 4.000000, 4.000000, 4.000000
36.000000, 0.000000, 3967.179443, 4181.025391, 4118.974121, 4154.358887, 4140.000000, 4168.205078, 4169.743652, 4188.717773, 4198.461426, 4213.333008, 4220.000000, 4218.974121, 3965.640869, 4187.179199, 0.000000, 8161.000000, 8242.000000, 0.000000, 0.000000, 0.000000, 15619.000000, 683.589722, 4.000000, 4.000000, 4.000000, 4.000000, 4.000000, 4.000000, 4.000000, 4.000000, 4.000000, 4.000000, 4.000000, 4.000000, 4.000000, 4.000000, 4.000000, 4.000000
37.000000, 0.000000, 3989.743408, 4177.436035, 4121.025391, 4153.333008, 4137.436035, 4168.205078, 4170.769043, 4188.205078, 4197.436035, 4206.153809, 4226.153809, 4222.563965, 3986.666504, 4191.794922, 0.000000, 8151.000000, 8201.000000, 0.000000, 0.000000, 0.000000, 15619.000000, 691.282043, 4.000000, 4.000000, 4.000000, 4.000000, 4.000000, 4.000000, 4.000000, 4.000000, 4.000000, 4.000000, 4.000000, 4.000000, 4.000000, 4.000000, 4.000000, 4.000000
38.000000, 0.000000, 3950.256348, 4182.051270, 4129.743652, 4158.461426, 4148.205078, 4170.769043, 4176.410156, 4187.692383, 4193.846191, 4203.589844, 4226.666504, 4224.615234, 3982.051270, 4194.358887, 0.000000, 8151.000000, 8201.000000, 0.000000, 0.000000, 0.000000, 15619.000000, 699.487183, 4.000000, 4.000000, 4.000000, 4.000000, 4.000000, 4.000000, 4.000000, 4.000000, 4.000000, 4.000000, 4.000000, 4.000000, 4.000000, 4.000000, 4.000000, 4.000000
39.000000, 0.000000, 3920.512695, 4181.025391, 4127.179199, 4159.487305, 4148.205078, 4167.692383, 4181.538574, 4183.076660, 4189.743652, 4204.615234, 4220.512695, 4224.102539, 3942.563965, 4193.333008, 0.000000, 8135.000000, 8188.000000, 0.000000, 0.000000, 0.000000, 15619.000000, 707.179443, 4.000000, 4.000000, 4.000000, 4.000000, 4.000000, 4.000000, 4.000000, 4.000000, 4.000000, 4.000000, 4.000000, 4.000000, 4.000000, 4.000000, 4.000000, 4.000000
40.000000, 0.000000, 3974.358887, 4176.922852, 4126.666504, 4156.922852, 4144.102539, 4165.127930, 4186.153809, 4172.307617, 4181.025391, 4200.512695, 4215.897461, 4224.615234, 3898.974365, 4199.487305, 0.000000, 8135.000000, 8188.000000, 0.000000, 0.000000, 0.000000, 15619.000000, 714.871765, 4.000000, 4.000000, 4.000000, 4.000000, 4.000000, 4.000000, 4.000000, 4.000000, 4.000000, 4.000000, 4.000000, 4.000000, 4.000000, 4.000000, 4.000000, 4.000000
41.000000, 0.000000, 4010.769043, 4180.512695, 4131.794922, 4160.512695, 4148.717773, 4174.871582, 4186.666504, 4169.743652, 4177.948730, 4197.436035, 4220.512695, 4224.615234, 3877.948730, 4202.051270, 0.000000, 8138.000000, 8189.000000, 0.000000, 0.000000, 0.000000, 15619.000000, 723.076904, 4.000000, 4.000000, 4.000000, 4.000000, 4.000000, 4.000000, 4.000000, 4.000000, 4.000000, 4.000000, 4.000000, 4.000000, 4.000000, 4.000000, 4.000000, 4.000000
42.000000, 0.000000, 3997.948730, 4174.871582, 4130.769043, 4161.538574, 4143.076660, 4174.358887, 4177.948730, 4178.461426, 4183.589844, 4197.436035, 4220.000000, 4230.769043, 3864.615234, 4202.563965, 0.000000, 8138.000000, 8189.000000, 0.000000, 0.000000, 0.000000, 15619.000000, 730.769226, 4.000000, 4.000000, 4.000000, 4.000000, 4.000000, 4.000000, 4.000000, 4.000000, 4.000000, 4.000000, 4.000000, 4.000000, 4.000000, 4.000000, 4.000000, 4.000000
43.000000, 0.000000, 4010.256348, 4160.512695, 4128.717773, 4155.897461, 4135.897461, 4154.871582, 4167.692383, 4177.948730, 4178.461426, 4193.846191, 4216.922852, 4230.256348, 3858.974365, 4205.641113, 0.000000, 8139.000000, 8189.000000, 0.000000, 0.000000, 0.000000, 15619.000000, 738.461548, 4.000000, 4.000000, 4.000000, 4.000000, 4.000000, 4.000000, 4.000000, 4.000000, 4.000000, 4.000000, 4.000000, 4.000000, 4.000000, 4.000000, 4.000000, 4.000000
44.000000, 0.000000, 4061.025635, 4161.538574, 4138.461426, 4160.512695, 4145.127930, 4154.871582, 4165.641113, 4170.256348, 4170.256348, 4195.897461, 4221.025391, 4228.717773, 3864.102539, 4203.589844, 0.000000, 8139.000000, 8189.000000, 0.000000, 0.000000, 0.000000, 15619.000000, 746.666626, 4.000000, 4.000000, 4.000000, 4.000000, 4.000000, 4.000000, 4.000000, 4.000000, 4.000000, 4.000000, 4.000000, 4.000000, 4.000000, 4.000000, 4.000000, 4.000000
45.000000, 0.000000, 4094.358887, 4166.153809, 4151.281738, 4171.794922, 4138.461426, 4164.615234, 4171.794922, 4171.794922, 4172.307617, 4197.948730, 4217.436035, 4231.794922, 3864.102539, 4205.127930, 0.000000, 8151.000000, 8190.000000, 0.000000, 0.000000, 0.000000, 15619.000000, 754.358948, 4.000000, 4.000000, 4.000000, 4.000000, 4.000000, 4.000000, 4.000000, 4.000000, 4.000000, 4.000000, 4.000000, 4.000000, 4.000000, 4.000000, 4.000000, 4.000000
46.000000, 0.000000, 4130.769043, 4158.461426, 4144.615234, 4172.307617, 4124.102539, 4157.948730, 4176.922852, 4180.512695, 4176.922852, 4189.230469, 4205.127930, 4224.102539, 3864.615234, 4200.000000, 0.000000, 8151.000000, 8190.000000, 0.000000, 0.000000, 0.000000, 15619.000000, 762.051270, 4.000000, 4.000000, 4.000000, 4.000000, 4.000000, 4.000000, 4.000000, 4.000000, 4.000000, 4.000000, 4.000000, 4.000000, 4.000000, 4.000000, 4.000000, 4.000000
47.000000, 0.000000, 4188.205078, 4150.256348, 4142.051270, 4166.666504, 4137.436035, 4157.948730, 4187.179199, 4186.153809, 4177.436035, 4186.666504, 4201.025391, 4221.025391, 3874.871582, 4193.333008, 0.000000, 8170.000000, 8192.000000, 0.000000, 0.000000, 0.000000, 15619.000000, 769.743591, 4.000000, 4.000000, 4.000000, 4.000000, 4.000000, 4.000000, 4.000000, 4.000000, 4.000000, 4.000000, 4.000000, 4.000000, 4.000000, 4.000000, 4.000000, 4.000000
48.000000, 0.000000, 4187.179199, 4149.743652, 4143.076660, 4166.666504, 4157.436035, 4171.794922, 4196.410156, 4189.230469, 4179.487305, 4194.358887, 4200.000000, 4218.974121, 3882.563965, 4193.333008, 0.000000, 8170.000000, 8192.000000, 0.000000, 0.000000, 0.000000, 15619.000000, 777.435852, 4.000000, 4.000000, 4.000000, 4.000000, 4.000000, 4.000000, 4.000000, 4.000000, 4.000000, 4.000000, 4.000000, 4.000000, 4.000000, 4.000000, 4.000000, 4.000000
49.000000, 0.000000, 4161.025391, 4150.256348, 4135.897461, 4163.589844, 4157.948730, 4172.307617, 4189.230469, 4186.153809, 4176.410156, 4188.717773, 4189.230469, 4208.717773, 3879.487061, 4187.179199, 0.000000, 8176.000000, 8194.000000, 0.000000, 0.000000, 0.000000, 15619.000000, 785.128174, 4.000000, 4.000000, 4.000000, 4.000000, 4.000000, 4.000000, 4.000000, 4.000000, 4.000000, 4.000000, 4.000000, 4.000000, 4.000000, 4.000000, 4.000000, 4.000000
50.000000, 0.000000, 4217.436035, 4147.179199, 4163.076660, 4156.922852, 4147.179199, 4166.153809, 4180.512695, 4174.871582, 4165.127930, 4177.948730, 4182.563965, 4204.615234, 3876.410156, 4186.153809, 0.000000, 8176.000000, 8194.000000, 0.000000, 0.000000, 0.000000, 15619.000000, 793.333313, 4.000000, 4.000000, 4.000000, 4.000000, 4.000000, 4.000000, 4.000000, 4.000000, 4.000000, 4.000000, 4.000000, 4.000000, 4.000000, 4.000000, 4.000000, 4.000000
51.000000, 0.000000, 4268.717773, 4147.692383, 4192.307617, 4158.974121, 4144.102539, 4169.743652, 4184.615234, 4171.281738, 4166.666504, 4183.076660, 4183.076660, 4205.641113, 3878.461426, 4188.717773, 0.000000, 8184.000000, 8192.000000, 0.000000, 0.000000, 0.000000, 15619.000000, 801.025635, 4.000000, 4.000000, 4.000000, 4.000000, 4.000000, 4.000000, 4.000000, 4.000000, 4.000000, 4.000000, 4.000000, 4.000000, 4.000000, 4.000000, 4.000000, 4.000000
52.000000, 0.000000, 4254.358887, 4145.127930, 4175.384277, 4159.487305, 4151.794922, 4171.281738, 4184.615234, 4176.410156, 4171.281738, 4184.102539, 4176.922852, 4209.230469, 3878.461426, 4187.692383, 0.000000, 8184.000000, 8192.000000, 0.000000, 0.000000, 0.000000, 15619.000000, 808.717957, 4.000000, 4.000000, 4.000000, 4.000000, 4.000000, 4.000000, 4.000000, 4.000000, 4.000000, 4.000000, 4.000000, 4.000000, 4.000000, 4.000000, 4.000000, 4.000000
53.000000, 0.000000, 4256.922852, 4140.000000, 4152.820313, 4154.358887, 4150.769043, 4163.076660, 4170.769043, 4165.127930, 4153.333008, 4167.692383, 4166.153809, 4205.127930, 3875.897461, 4182.563965, 0.000000, 8194.000000, 8182.000000, 0.000000, 0.000000, 0.000000, 15619.000000, 816.410217, 4.000000, 4.000000, 4.000000, 4.000000, 4.000000, 4.000000, 4.000000, 4.000000, 4.000000, 4.000000, 4.000000, 4.000000, 4.000000, 4.000000, 4.000000, 4.000000
54.000000, 0.000000, 4273.333008, 4139.487305, 4149.743652, 4151.794922, 4137.436035, 4160.512695, 4162.563965, 4150.769043, 4142.051270, 4163.589844, 4169.743652, 4196.410156, 3882.563965, 4175.384277, 0.000000, 8194.000000, 8182.000000, 0.000000, 0.000000, 0.000000, 15619.000000, 824.102539, 4.000000, 4.000000, 4.000000, 4.000000, 4.000000, 4.000000, 4.000000, 4.000000, 4.000000, 4.000000, 4.000000, 4.000000, 4.000000, 4.000000, 4.000000, 4.000000
55.000000, 0.000000, 4275.897461, 4142.051270, 4149.743652, 4152.820313, 4140.512695, 4167.179199, 4168.717773, 4160.000000, 4155.897461, 4171.794922, 4182.051270, 4205.127930, 3896.410156, 4184.102539, 0.000000, 8198.000000, 8174.000000, 0.000000, 0.000000, 0.000000, 15619.000000, 831.794861, 4.000000, 4.000000, 4.000000, 4.000000, 4.000000, 4.000000, 4.000000, 4.000000, 4.000000, 4.000000, 4.000000, 4.000000, 4.000000, 4.000000, 4.000000, 4.000000
56.000000, 0.000000, 4270.256348, 4142.563965, 4143.076660, 4154.871582, 4156.410156, 4173.333008, 4176.922852, 4170.256348, 4166.153809, 4174.871582, 4187.692383, 4212.307617, 3899.487061, 4189.743652, 0.000000, 8198.000000, 8174.000000, 0.000000, 0.000000, 0.000000, 15619.000000, 840.000000, 4.000000, 4.000000, 4.000000, 4.000000, 4.000000, 4.000000, 4.000000, 4.000000, 4.000000, 4.000000, 4.000000, 4.000000, 4.000000, 4.000000, 4.000000, 4.000000
57.000000, 0.000000, 4266.153809, 4139.487305, 4135.897461, 4156.922852, 4161.025391, 4172.820313, 4176.922852, 4164.615234, 4165.127930, 4176.922852, 4189.230469, 4211.794922, 3897.948730, 4184.102539, 0.000000, 8206.000000, 8170.000000, 0.000000, 0.000000, 0.000000, 15619.000000, 847.692261, 4.000000, 4.000000, 4.000000, 4.000000, 4.000000, 4.000000, 4.000000, 4.000000, 4.000000, 4.000000, 4.000000, 4.000000, 4.000000, 4.000000, 4.000000, 4.000000
58.000000, 0.000000, 4262.563965, 4132.820313, 4136.410156, 4150.769043, 4147.692383, 4164.615234, 4167.179199, 4162.051270, 4167.179199, 4182.563965, 4189.743652, 4213.846191, 3896.410156, 4191.281738, 0.000000, 8206.000000, 8170.000000, 0.000000, 0.000000, 0.000000, 15619.000000, 855.384583, 4.000000, 4.000000, 4.000000, 4.000000, 4.000000, 4.000000, 4.000000, 4.000000, 4.000000, 4.000000, 4.000000, 4.000000, 4.000000, 4.000000, 4.000000, 4.000000
59.000000, 0.000000, 4240.512695, 4130.769043, 4143.589844, 4144.102539, 4136.410156, 4155.384277, 4164.615234, 4169.743652, 4171.281738, 4186.153809, 4185.641113, 4210.256348, 3898.461426, 4203.076660, 0.000000, 8203.000000, 8169.000000, 0.000000, 0.000000, 0.000000, 15619.000000, 863.076904, 4.000000, 4.000000, 4.000000, 4.000000, 4.000000, 4.000000, 4.000000, 4.000000, 4.000000, 4.000000, 4.000000, 4.000000, 4.000000, 4.000000, 4.000000, 4.000000
60.000000, 0.000000, 4226.666504, 4130.769043, 4147.692383, 4148.717773, 4138.974121, 4152.820313, 4171.281738, 4173.846191, 4174.358887, 4189.230469, 4182.051270, 4206.666504, 3903.076904, 4203.076660, 0.000000, 8203.000000, 8169.000000, 0.000000, 0.000000, 0.000000, 15619.000000, 870.769226, 4.000000, 4.000000, 4.000000, 4.000000, 4.000000, 4.000000, 4.000000, 4.000000, 4.000000, 4.000000, 4.000000, 4.000000, 4.000000, 4.000000, 4.000000, 4.000000
61.000000, 0.000000, 4207.692383, 4119.487305, 4142.051270, 4150.256348, 4147.179199, 4152.820313, 4170.256348, 4171.281738, 4171.281738, 4189.743652, 4184.615234, 4205.641113, 3903.076904, 4189.230469, 0.000000, 8206.000000, 8161.000000, 0.000000, 0.000000, 0.000000, 15619.000000, 878.461487, 4.000000, 4.000000, 4.000000, 4.000000, 4.000000, 4.000000, 4.000000, 4.000000, 4.000000, 4.000000, 4.000000, 4.000000, 4.000000, 4.000000, 4.000000, 4.000000
62.000000, 0.000000, 4177.436035, 4114.358887, 4138.974121, 4147.179199, 4147.692383, 4153.333008, 4165.641113, 4166.666504, 4160.000000, 4176.922852, 4185.641113, 4206.666504, 3901.538330, 4179.487305, 0.000000, 8206.000000, 8161.000000, 0.000000, 0.000000, 0.000000, 15619.000000, 886.666626, 4.000000, 4.000000, 4.000000, 4.000000, 4.000000, 4.000000, 4.000000, 4.000000, 4.000000, 4.000000, 4.000000, 4.000000, 4.000000, 4.000000, 4.000000, 4.000000
63.000000, 0.000000, 4175.384277, 4131.281738, 4147.692383, 4153.846191, 4151.281738, 4158.974121, 4166.153809, 4167.692383, 4161.538574, 4177.948730, 4188.205078, 4210.769043, 3910.256348, 4187.179199, 0.000000, 8206.000000, 8169.000000, 0.000000, 0.000000, 0.000000, 15619.000000, 894.358948, 4.000000, 4.000000, 4.000000, 4.000000, 4.000000, 4.000000, 4.000000, 4.000000, 4.000000, 4.000000, 4.000000, 4.000000, 4.000000, 4.000000, 4.000000, 4.000000
64.000000, 0.000000, 4180.000000, 4150.256348, 4148.205078, 4162.051270, 4158.974121, 4162.563965, 4167.692383, 4175.384277, 4182.563965, 4201.025391, 4195.384277, 4216.410156, 3918.974365, 4191.794922, 3125.000000, 8206.000000, 8169.000000, 0.000000, 0.000000, 0.000000, 15619.000000, 902.051270, 4.000000, 4.000000, 4.000000, 4.000000, 4.000000, 4.000000, 4.000000, 4.000000, 4.000000, 4.000000, 4.000000, 4.000000, 4.000000, 4.000000, 4.000000, 4.000000
65.000000, 0.000000, 4170.256348, 4146.153809, 4144.615234, 4157.436035, 4151.794922, 4161.538574, 4168.717773, 4173.333008, 4185.127930, 4196.922852, 4191.281738, 4216.410156, 3911.794678, 4188.717773, 3532.000000, 8205.000000, 8177.000000, 0.000000, 0.000000, 0.000000, 15619.000000, 909.743591, 4.000000, 4.000000, 4.000000, 4.000000, 4.000000, 4.000000, 4.000000, 4.000000, 4.000000, 4.000000, 4.000000, 4.000000, 4.000000, 4.000000, 4.000000, 4.000000
66.000000, 0.000000, 4158.461426, 4138.974121, 4146.666504, 4155.897461, 4153.333008, 4162.563965, 4169.743652, 4166.153809, 4172.307617, 4178.974121, 4182.051270, 4205.127930, 3908.205078, 4182.563965, 1929.000000, 8205.000000, 8177.000000, 0.000000, 0.000000, 0.000000, 15619.000000, 917.435852, 4.000000, 4.000000, 4.000000, 4.000000, 4.000000, 4.000000, 4.000000, 4.000000, 4.000000, 4.000000, 4.000000, 4.000000, 4.000000, 4.000000, 4.000000, 4.000000
67.000000, 0.000000, 4146.153809, 4150.769043, 4149.230469, 4168.717773, 4168.717773, 4168.205078, 4169.743652, 4173.846191, 4177.948730, 4192.307617, 4185.127930, 4203.589844, 3921.025635, 4182.563965, 3550.000000, 8208.000000, 8185.000000, 0.000000, 0.000000, 0.000000, 15619.000000, 925.128174, 4.000000, 4.000000, 4.000000, 4.000000, 4.000000, 4.000000, 4.000000, 4.000000, 4.000000, 4.000000, 4.000000, 4.000000, 4.000000, 4.000000, 4.000000, 4.000000
68.000000, 0.000000, 4125.641113, 4160.000000, 4150.256348, 4175.384277, 4165.641113, 4170.256348, 4176.410156, 4184.615234, 4187.179199, 4208.205078, 4189.743652, 4207.179199, 3929.230713, 4191.281738, 3678.000000, 8208.000000, 8185.000000, 0.000000, 0.000000, 0.000000, 15619.000000, 933.333313, 4.000000, 4.000000, 4.000000, 4.000000, 4.000000, 4.000000, 4.000000, 4.000000, 4.000000, 4.000000, 4.000000, 4.000000, 4.000000, 4.000000, 4.000000, 4.000000
69.000000, 0.000000, 4106.153809, 4148.205078, 4142.051270, 4166.666504, 4152.820313, 4163.076660, 4183.076660, 4181.025391, 4184.615234, 4196.410156, 4183.589844, 4201.025391, 3927.692139, 4187.179199, 3516.000000, 8218.000000, 8192.000000, 0.000000, 0.000000, 0.000000, 15619.000000, 941.025635, 4.000000, 4.000000, 4.000000, 4.000000, 4.000000, 4.000000, 4.000000, 4.000000, 4.000000, 4.000000, 4.000000, 4.000000, 4.000000, 4.000000, 4.000000, 4.000000
70.000000, 0.000000, 4122.563965, 4137.948730, 4139.487305, 4160.512695, 4151.794922, 4155.897461, 4180.000000, 4169.743652, 4177.436035, 4183.589844, 4176.922852, 4204.102539, 3930.256348, 4182.051270, 3388.000000, 8218.000000, 8192.000000, 0.000000, 0.000000, 0.000000, 15619.000000, 948.717896, 4.000000, 4.000000, 4.000000, 4.000000, 4.000000, 4.000000, 4.000000, 4.000000, 4.000000, 4.000000, 4.000000, 4.000000, 4.000000, 4.000000, 4.000000, 4.000000
71.000000, 0.000000, 4149.230469, 4146.153809, 4142.051270, 4163.589844, 4153.846191, 4163.589844, 4180.000000, 4167.692383, 4175.384277, 4190.256348, 4173.333008, 4204.102539, 3939.487061, 4184.102539, 3143.000000, 8233.000000, 8200.000000, 0.000000, 0.000000, 0.000000, 15619.000000, 956.410217, 4.000000, 4.000000, 4.000000, 4.000000, 4.000000, 4.000000, 4.000000, 4.000000, 4.000000, 4.000000, 4.000000, 4.000000, 4.000000, 4.000000, 4.000000, 4.000000
72.000000, 0.000000, 4148.205078, 4150.256348, 4135.384277, 4166.666504, 4146.153809, 4172.820313, 4179.487305, 4171.281738, 4178.974121, 4196.922852, 4172.307617, 4194.358887, 3947.692139, 4183.076660, 3524.000000, 8233.000000, 8200.000000, 0.000000, 0.000000, 0.000000, 15619.000000, 964.102539, 4.000000, 4.000000, 4.000000, 4.000000, 4.000000, 4.000000, 4.000000, 4.000000, 4.000000, 4.000000, 4.000000, 4.000000, 4.000000, 4.000000, 4.000000, 4.000000
73.000000, 0.000000, 4164.615234, 4143.589844, 4128.717773, 4161.538574, 4142.563965, 4168.717773, 4170.256348, 4169.743652, 4176.922852, 4188.717773, 4168.205078, 4190.256348, 3951.281982, 4185.641113, 3513.000000, 8245.000000, 8204.000000, 0.000000, 0.000000, 0.000000, 15619.000000, 972.307678, 4.000000, 4.000000, 4.000000, 4.000000, 4.000000, 4.000000, 4.000000, 4.000000, 4.000000, 4.000000, 4.000000, 4.000000, 4.000000, 4.000000, 4.000000, 4.000000
74.000000, 0.000000, 4287.692383, 4145.127930, 4124.102539, 4156.410156, 4157.948730, 4168.717773, 4172.820313, 4173.333008, 4175.384277, 4181.025391, 4168.205078, 4191.794922, 3956.923096, 4183.076660, 3112.000000, 8245.000000, 8204.000000, 0.000000, 0.000000, 0.000000, 15619.000000, 980.000000, 4.000000, 4.000000, 4.000000, 4.000000, 4.000000, 4.000000, 4.000000, 4.000000, 4.000000, 4.000000, 4.000000, 4.000000, 4.000000, 4.000000, 4.000000, 4.000000
75.000000, 0.000000, 4501.538574, 4148.717773, 4129.743652, 4157.948730, 4166.153809, 4175.384277, 4188.717773, 4187.179199, 4184.615234, 4192.307617, 4175.897461, 4198.461426, 3964.615234, 4186.666504, 2417.000000, 8255.000000, 8209.000000, 0.000000, 0.000000, 0.000000, 15619.000000, 987.692261, 4.000000, 4.000000, 4.000000, 4.000000, 4.000000, 4.000000, 4.000000, 4.000000, 4.000000, 4.000000, 4.000000, 4.000000, 4.000000, 4.000000, 4.000000, 4.000000
76.000000, 0.000000, 4604.615234, 4150.769043, 4136.410156, 4162.563965, 4156.922852, 4171.794922, 4184.615234, 4187.179199, 4188.205078, 4204.615234, 4176.410156, 4200.000000, 3969.230713, 4191.281738, 3479.000000, 8255.000000, 8209.000000, 0.000000, 0.000000, 0.000000, 15619.000000, 995.384583, 4.000000, 4.000000, 4.000000, 4.000000, 4.000000, 4.000000, 4.000000, 4.000000, 4.000000, 4.000000, 4.000000, 4.000000, 4.000000, 4.000000, 4.000000, 4.000000
77.000000, 0.000000, 4601.025391, 4163.076660, 4129.743652, 4162.051270, 4154.358887, 4158.461426, 4170.256348, 4174.358887, 4178.974121, 4200.512695, 4174.871582, 4198.461426, 3971.281982, 4181.538574, 2525.000000, 8275.000000, 8224.000000, 0.000000, 0.000000, 0.000000, 15620.000000, 3.076923, 4.000000, 4.000000, 4.000000, 4.000000, 4.000000, 4.000000, 4.000000, 4.000000, 4.000000, 4.000000, 4.000000, 4.000000, 4.000000, 4.000000, 4.000000, 4.000000
78.000000, 0.000000, 4675.384277, 4150.769043, 4128.717773, 4151.794922, 4147.692383, 4152.820313, 4177.948730, 4175.384277, 4177.436035, 4195.384277, 4178.461426, 4203.076660, 3971.281982, 4179.487305, 3112.000000, 8275.000000, 8224.000000, 0.000000, 0.000000, 0.000000, 15620.000000, 10.769231, 4.000000, 4.000000, 4.000000, 4.000000, 4.000000, 4.000000, 4.000000, 4.000000, 4.000000, 4.000000, 4.000000, 4.000000, 4.000000, 4.000000, 4.000000, 4.000000
79.000000, 0.000000, 4753.333008, 4116.410156, 4133.846191, 4150.256348, 4130.256348, 4163.076660, 4187.692383, 4188.717773, 4189.230469, 4201.025391, 4183.076660, 4203.076660, 3971.794678, 4184.102539, 2417.000000, 8285.000000, 8223.000000, 0.000000, 0.000000, 0.000000, 15620.000000, 18.974358, 4.000000, 4.000000, 4.000000, 4.000000, 4.000000, 4.000000, 4.000000, 4.000000, 4.000000, 4.000000, 4.000000, 4.000000, 4.000000, 4.000000, 4.000000, 4.000000
80.000000, 0.000000, 4745.641113, 4125.641113, 4134.358887, 4162.051270, 4133.333008, 4171.794922, 4178.461426, 4191.281738, 4196.922852, 4207.692383, 4185.127930, 4205.641113, 3975.384521, 4192.820313, 3479.000000, 8285.000000, 8223.000000, 0.000000, 0.000000, 0.000000, 15620.000000, 26.666666, 4.000000, 4.000000, 4.000000, 4.000000, 4.000000, 4.000000, 4.000000, 4.000000, 4.000000, 4.000000, 4.000000, 4.000000, 4.000000, 4.000000, 4.000000, 4.000000
81.000000, 0.000000, 4715.384277, 4171.281738, 4135.384277, 4171.794922, 4155.384277, 4171.281738, 4171.281738, 4188.717773, 4198.974121, 4204.102539, 4179.487305, 4206.153809, 3978.461426, 4201.538574, 2525.000000, 8300.000000, 8226.000000, 0.000000, 0.000000, 0.000000, 15620.000000, 34.358974, 4.000000, 4.000000, 4.000000, 4.000000, 4.000000, 4.000000, 4.000000, 4.000000, 4.000000, 4.000000, 4.000000, 4.000000, 4.000000, 4.000000, 4.000000, 4.000000
82.000000, 0.000000, 4717.948730, 4192.307617, 4133.846191, 4174.358887, 4158.974121, 4172.307617, 4174.871582, 4184.615234, 4195.384277, 4190.769043, 4175.897461, 4202.563965, 3978.974365, 4197.436035, 3112.000000, 8300.000000, 8226.000000, 0.000000, 0.000000, 0.000000, 15620.000000, 42.051281, 4.000000, 4.000000, 4.000000, 4.000000, 4.000000, 4.000000, 4.000000, 4.000000, 4.000000, 4.000000, 4.000000, 4.000000, 4.000000, 4.000000, 4.000000, 4.000000
83.000000, 0.000000, 4736.410156, 4191.281738, 4137.436035, 4178.461426, 4148.717773, 4166.153809, 4173.333008, 4172.820313, 4182.563965, 4180.000000, 4177.436035, 4202.051270, 3976.923096, 4200.000000, 2417.000000, 8306.000000, 8232.000000, 0.000000, 0.000000, 0.000000, 15620.000000, 49.743587, 4.000000, 4.000000, 4.000000, 4.000000, 4.000000, 4.000000, 4.000000, 4.000000, 4.000000, 4.000000, 4.000000, 4.000000, 4.000000, 4.000000, 4.000000, 4.000000
84.000000, 0.000000, 4770.769043, 4200.512695, 4144.102539, 4187.692383, 4151.281738, 4160.512695, 4166.666504, 4166.153809, 4179.487305, 4183.589844, 4180.512695, 4202.563965, 3978.974365, 4208.717773, 3479.000000, 8306.000000, 8232.000000, 0.000000, 0.000000, 0.000000, 15620.000000, 57.435898, 4.000000, 4.000000, 4.000000, 4.000000, 4.000000, 4.000000, 4.000000, 4.000000, 4.000000, 4.000000, 4.000000, 4.000000, 4.000000, 4.000000, 4.000000, 4.000000
85.000000, 0.000000, 4908.717773, 4212.307617, 4149.230469, 4188.717773, 4155.384277, 4167.692383, 4162.051270, 4170.256348, 4184.102539, 4193.333008, 4182.051270, 4211.794922, 3985.128174, 4212.307617, 2525.000000, 8309.000000, 8234.000000, 0.000000, 0.000000, 0.000000, 15620.000000, 65.641022, 4.000000, 4.000000, 4.000000, 4.000000, 4.000000, 4.000000, 4.000000, 4.000000, 4.000000, 4.000000, 4.000000, 4.000000, 4.000000, 4.000000, 4.000000, 4.000000
86.000000, 0.000000, 5087.692383, 4214.358887, 4145.641113, 4183.076660, 4152.307617, 4170.769043, 4162.563965, 4165.641113, 4174.871582, 4188.717773, 4181.538574, 4213.333008, 3991.281982, 4207.692383, 3112.000000, 8309.000000, 8234.000000, 0.000000, 0.000000, 0.000000, 15620.000000, 73.333328, 4.000000, 4.000000, 4.000000, 4.000000, 4.000000, 4.000000, 4.000000, 4.000000, 4.000000, 4.000000, 4.000000, 4.000000, 4.000000, 4.000000, 4.000000, 4.000000
87.000000, 0.000000, 5109.743652, 4208.205078, 4136.410156, 4181.025391, 4142.051270, 4165.641113, 4165.641113, 4157.436035, 4164.615234, 4176.922852, 4175.384277, 4198.974121, 3988.717773, 4195.384277, 2417.000000, 8302.000000, 8242.000000, 0.000000, 0.000000, 0.000000, 15620.000000, 81.025642, 4.000000, 4.000000, 4.000000, 4.000000, 4.000000, 4.000000, 4.000000, 4.000000, 4.000000, 4.000000, 4.000000, 4.000000, 4.000000, 4.000000, 4.000000, 4.000000
88.000000, 0.000000, 5048.717773, 4195.384277, 4136.410156, 4178.974121, 4130.769043, 4163.589844, 4161.538574, 4162.563965, 4170.769043, 4174.871582, 4167.179199, 4193.333008, 3978.461426, 4190.256348, 3479.000000, 8302.000000, 8242.000000, 0.000000, 0.000000, 0.000000, 15620.000000, 88.717949, 4.000000, 4.000000, 4.000000, 4.000000, 4.000000, 4.000000, 4.000000, 4.000000, 4.000000, 4.000000, 4.000000, 4.000000, 4.000000, 4.000000, 4.000000, 4.000000
89.000000, 0.000000, 5096.410156, 4191.794922, 4137.436035, 4173.846191, 4136.410156, 4162.051270, 4153.333008, 4172.307617, 4178.461426, 4176.410156, 4169.230469, 4194.871582, 3980.512695, 4187.179199, 2525.000000, 8296.000000, 8251.000000, 0.000000, 0.000000, 0.000000, 15620.000000, 96.410255, 4.000000, 4.000000, 4.000000, 4.000000, 4.000000, 4.000000, 4.000000, 4.000000, 4.000000, 4.000000, 4.000000, 4.000000, 4.000000, 4.000000, 4.000000, 4.000000
90.000000, 0.000000, 5181.025391, 4187.692383, 4135.384277, 4168.717773, 4145.127930, 4156.410156, 4159.487305, 4169.230469, 4171.281738, 4170.769043, 4171.281738, 4196.922852, 3982.563965, 4184.615234, 3112.000000, 8296.000000, 8251.000000, 0.000000, 0.000000, 0.000000, 15620.000000, 104.102562, 4.000000, 4.000000, 4.000000, 4.000000, 4.000000, 4.000000, 4.000000, 4.000000, 4.000000, 4.000000, 4.000000, 4.000000, 4.000000, 4.000000, 4.000000, 4.000000
91.000000, 0.000000, 5199.486816, 4173.333008, 4144.102539, 4163.589844, 4134.358887, 4154.358887, 4170.769043, 4164.102539, 4164.102539, 4165.641113, 4169.230469, 4200.000000, 3976.410156, 4190.256348, 2417.000000, 8270.000000, 8263.000000, 0.000000, 0.000000, 0.000000, 15620.000000, 112.307686, 4.000000, 4.000000, 4.000000, 4.000000, 4.000000, 4.000000, 4.000000, 4.000000, 4.000000, 4.000000, 4.000000, 4.000000, 4.000000, 4.000000, 4.000000, 4.000000
92.000000, 0.000000, 5216.410156, 4166.666504, 4148.205078, 4162.051270, 4126.153809, 4156.922852, 4166.666504, 4169.743652, 4173.333008, 4172.307617, 4174.358887, 4203.589844, 3979.487061, 4189.230469, 3479.000000, 8270.000000, 8263.000000, 0.000000, 0.000000, 0.000000, 15620.000000, 120.000000, 4.000000, 4.000000, 4.000000, 4.000000, 4.000000, 4.000000, 4.000000, 4.000000, 4.000000, 4.000000, 4.000000, 4.000000, 4.000000, 4.000000, 4.000000, 4.000000
93.000000, 0.000000, 5250.769043, 4168.205078, 4146.153809, 4162.563965, 4132.820313, 4156.922852, 4160.000000, 4169.230469, 4176.922852, 4176.922852, 4181.025391, 4207.179199, 3990.769043, 4189.743652, 2525.000000, 8254.000000, 8262.000000, 0.000000, 0.000000, 0.000000, 15620.000000, 127.692307, 4.000000, 4.000000, 4.000000, 4.000000, 4.000000, 4.000000, 4.000000, 4.000000, 4.000000, 4.000000, 4.000000, 4.000000, 4.000000, 4.000000, 4.000000, 4.000000
94.000000, 0.000000, 5164.615234, 4170.256348, 4143.589844, 4162.563965, 4134.871582, 4156.410156, 4160.512695, 4156.410156, 4168.717773, 4176.410156, 4185.641113, 4206.666504, 3996.410156, 4189.743652, 3112.000000, 8254.000000, 8262.000000, 0.000000, 0.000000, 0.000000, 15620.000000, 135.384613, 4.000000, 4.000000, 4.000000, 4.000000, 4.000000, 4.000000, 4.000000, 4.000000, 4.000000, 4.000000, 4.000000, 4.000000, 4.000000, 4.000000, 4.000000, 4.000000
95.000000, 0.000000, 4909.230469, 4169.743652, 4138.974121, 4164.102539, 4128.205078, 4154.358887, 4156.410156, 4149.743652, 4164.102539, 4178.974121, 4186.666504, 4208.205078, 4001.538330, 4185.127930, 2417.000000, 8238.000000, 8256.000000, 0.000000, 0.000000, 0.000000, 15620.000000, 143.076920, 4.000000, 4.000000, 4.000000, 4.000000, 4.000000, 4.000000, 4.000000, 4.000000, 4.000000, 4.000000, 4.000000, 4.000000, 4.000000, 4.000000, 4.000000, 4.000000
96.000000, 0.000000, 4769.743652, 4167.179199, 4137.948730, 4161.538574, 4129.743652, 4152.820313, 4150.769043, 4157.436035, 4166.666504, 4176.922852, 4184.615234, 4206.153809, 4009.230713, 4186.666504, 3479.000000, 8238.000000, 8256.000000, 0.000000, 0.000000, 0.000000, 15620.000000, 150.769226, 4.000000, 4.000000, 4.000000, 4.000000, 4.000000, 4.000000, 4.000000, 4.000000, 4.000000, 4.000000, 4.000000, 4.000000, 4.000000, 4.000000, 4.000000, 4.000000
97.000000, 0.000000, 4759.487305, 4166.666504, 4137.948730, 4157.436035, 4133.846191, 4154.358887, 4155.384277, 4168.205078, 4172.820313, 4173.846191, 4187.179199, 4203.589844, 4009.743408, 4184.615234, 2525.000000, 8202.000000, 8245.000000, 0.000000, 0.000000, 0.000000, 15620.000000, 158.974350, 4.000000, 4.000000, 4.000000, 4.000000, 4.000000, 4.000000, 4.000000, 4.000000, 4.000000, 4.000000, 4.000000, 4.000000, 4.000000, 4.000000, 4.000000, 4.000000
98.000000, 0.000000, 4573.846191, 4168.205078, 4143.076660, 4160.512695, 4124.615234, 4154.358887, 4164.102539, 4172.307617, 4176.410156, 4175.897461, 4188.717773, 4207.179199, 4007.692139, 4181.025391, 3112.000000, 8202.000000, 8245.000000, 0.000000, 0.000000, 0.000000, 15620.000000, 166.666656, 4.000000, 4.000000, 4.000000, 4.000000, 4.000000, 4.000000, 4.000000, 4.000000, 4.000000, 4.000000, 4.000000, 4.000000, 4.000000, 4.000000, 4.000000, 4.000000
99.000000, 0.000000, 4462.563965, 4169.743652, 4147.692383, 4163.076660, 4118.461426, 4153.333008, 4160.512695, 4172.820313, 4175.897461, 4171.794922, 4180.512695, 4202.563965, 4016.923096, 4178.461426, 2417.000000, 8184.000000, 8234.000000, 0.000000, 0.000000, 0.000000, 15620.000000, 174.358963, 4.000000, 4.000000, 4.000000, 4.000000, 4.000000, 4.000000, 4.000000, 4.000000, 4.000000, 4.000000, 4.000000, 4.000000, 4.000000, 4.000000, 4.000000, 4.000000
100.000000, 0.000000, 4754.871582, 4169.230469, 4146.666504, 4154.358887, 4128.205078, 4150.769043, 4154.358887, 4171.281738, 4171.794922, 4158.461426, 4174.358887, 4196.410156, 4022.563965, 4177.436035, 3479.000000, 8184.000000, 8234.000000, 0.000000, 0.000000, 0.000000, 15620.000000, 182.051285, 4.000000, 4.000000, 4.000000, 4.000000, 4.000000, 4.000000, 4.000000, 4.000000, 4.000000, 4.000000, 4.000000, 4.000000, 4.000000, 4.000000, 4.000000, 4.000000
101.000000, 0.000000, 5046.153809, 4169.743652, 4154.358887, 4150.256348, 4129.743652, 4148.205078, 4160.512695, 4167.692383, 4167.179199, 4157.436035, 4178.461426, 4199.487305, 4024.615234, 4184.102539, 2525.000000, 8152.000000, 8193.000000, 0.000000, 0.000000, 0.000000, 15620.000000, 189.743591, 4.000000, 4.000000, 4.000000, 4.000000, 4.000000, 4.000000, 4.000000, 4.000000, 4.000000, 4.000000, 4.000000, 4.000000, 4.000000, 4.000000, 4.000000, 4.000000
102.000000, 0.000000, 5070.256348, 4172.307617, 4158.461426, 4161.538574, 4127.692383, 4152.307617, 4169.230469, 4165.641113, 4170.769043, 4174.871582, 4188.205078, 4203.076660, 4039.487061, 4183.589844, 3112.000000, 8152.000000, 8193.000000, 0.000000, 0.000000, 0.000000, 15620.000000, 197.435898, 4.000000, 4.000000, 4.000000, 4.000000, 4.000000, 4.000000, 4.000000, 4.000000, 4.000000, 4.000000, 4.000000, 4.000000, 4.000000, 4.000000, 4.000000, 4.000000
103.000000, 0.000000, 5113.333008, 4178.461426, 4157.436035, 4169.743652, 4137.948730, 4162.563965, 4170.769043, 4170.256348, 4176.922852, 4181.538574, 4193.846191, 4206.666504, 4058.974365, 4185.641113, 2417.000000, 8142.000000, 8179.000000, 0.000000, 0.000000, 0.000000, 15620.000000, 205.641022, 4.000000, 4.000000, 4.000000, 4.000000, 4.000000, 4.000000, 4.000000, 4.000000, 4.000000, 4.000000, 4.000000, 4.000000, 4.000000, 4.000000, 4.000000, 4.000000
104.000000, 0.000000, 5174.358887, 4187.692383, 4151.794922, 4166.666504, 4133.333008, 4165.127930, 4168.205078, 4166.153809, 4175.384277, 4173.846191, 4190.769043, 4201.538574, 4069.743408, 4189.230469, 3479.000000, 8142.000000, 8179.000000, 0.000000, 0.000000, 0.000000, 15620.000000, 213.333328, 4.000000, 4.000000, 4.000000, 4.000000, 4.000000, 4.000000, 4.000000, 4.000000, 4.000000, 4.000000, 4.000000, 4.000000, 4.000000, 4.000000, 4.000000, 4.000000
105.000000, 0.000000, 5144.102539, 4186.153809, 4143.076660, 4162.563965, 4124.102539, 4165.127930, 4170.256348, 4159.487305, 4172.820313, 4173.333008, 4190.256348, 4199.487305, 4080.512695, 4186.153809, 2525.000000, 8124.000000, 8165.000000, 0.000000, 0.000000, 0.000000, 15620.000000, 221.025635, 4.000000, 4.000000, 4.000000, 4.000000, 4.000000, 4.000000, 4.000000, 4.000000, 4.000000, 4.000000, 4.000000, 4.000000, 4.000000, 4.000000, 4.000000, 4.000000
106.000000, 0.000000, 5108.717773, 4179.487305, 4150.256348, 4166.666504, 4142.563965, 4174.358887, 4175.897461, 4165.641113, 4176.410156, 4181.538574, 4197.948730, 4209.743652, 4100.000000, 4193.846191, 3112.000000, 8124.000000, 8165.000000, 0.000000, 0.000000, 0.000000, 15620.000000, 228.717941, 4.000000, 4.000000, 4.000000, 4.000000, 4.000000, 4.000000, 4.000000, 4.000000, 4.000000, 4.000000, 4.000000, 4.000000, 4.000000, 4.000000, 4.000000, 4.000000
107.000000, 0.000000, 5081.025391, 4190.256348, 4154.358887, 4174.358887, 4156.410156, 4178.974121, 4175.897461, 4172.307617, 4180.512695, 4184.615234, 4204.102539, 4208.717773, 4113.333008, 4196.410156, 2417.000000, 8125.000000, 8160.000000, 0.000000, 0.000000, 0.000000, 15620.000000, 236.410248, 4.000000, 4.000000, 4.000000, 4.000000, 4.000000, 4.000000, 4.000000, 4.000000, 4.000000, 4.000000, 4.000000, 4.000000, 4.000000, 4.000000, 4.000000, 4.000000
108.000000, 0.000000, 5107.692383, 4185.641113, 4147.692383, 4168.717773, 4146.666504, 4174.358887, 4171.794922, 4176.922852, 4185.641113, 4179.487305, 4200.000000, 4208.205078, 4104.615234, 4190.769043, 3479.000000, 8125.000000, 8160.000000, 0.000000, 0.000000, 0.000000, 15620.000000, 244.102554, 4.000000, 4.000000, 4.000000, 4.000000, 4.000000, 4.000000, 4.000000, 4.000000, 4.000000, 4.000000, 4.000000, 4.000000, 4.000000, 4.000000, 4.000000, 4.000000
