title:winkLeft25, recorded:21.05.18 17.04.51, timestamp started:2018-05-12T20:28:52.032863+02:00            , sampling:128, subject:Noé, labels:COUNTER INTERPOLATED AF3 F7 F3 FC5 T7 P7 O1 O2 P8 T8 FC6 F4 F8 AF4 RAW_CQ GYROX GYROY MARKER MARKER_HARDWARE SYNC TIME_STAMP_s TIME_STAMP_ms CQ_AF3 CQ_F7 CQ_F3 CQ_FC5 CQ_T7 CQ_P7 CQ_O1 CQ_O2 CQ_P8 CQ_T8 CQ_FC6 CQ_F4 CQ_F8 CQ_AF4 CQ_CMS CQ_DRL, chan:40, samples:2471, units:emotiv
27.000000, 0.000000, 4286.666504, 4197.948730, 4222.563965, 4234.871582, 4218.974121, 4202.563965, 4217.436035, 4217.436035, 4200.512695, 4186.666504, 4202.051270, 4234.358887, 4242.563965, 4212.820313, 0.000000, 8349.000000, 8142.000000, 0.000000, 0.000000, 0.000000, -21072.000000, 253.846146, 4.000000, 4.000000, 4.000000, 4.000000, 4.000000, 4.000000, 4.000000, 4.000000, 1.000000, 4.000000, 4.000000, 4.000000, 4.000000, 4.000000, 4.000000, 4.000000
28.000000, 0.000000, 4257.436035, 4175.897461, 4211.794922, 4221.025391, 4221.025391, 4202.563965, 4227.179199, 4220.000000, 4194.358887, 4180.000000, 4197.436035, 4229.230469, 4231.281738, 4202.051270, 0.000000, 8349.000000, 8142.000000, 0.000000, 0.000000, 0.000000, -21072.000000, 261.538452, 4.000000, 4.000000, 4.000000, 4.000000, 4.000000, 4.000000, 4.000000, 4.000000, 1.000000, 4.000000, 4.000000, 4.000000, 4.000000, 4.000000, 4.000000, 4.000000
29.000000, 0.000000, 4227.692383, 4149.743652, 4205.127930, 4220.512695, 4212.820313, 4194.871582, 4227.179199, 4214.871582, 4190.256348, 4182.051270, 4195.897461, 4229.743652, 4229.230469, 4194.871582, 0.000000, 8378.000000, 8170.000000, 0.000000, 0.000000, 0.000000, -21072.000000, 269.743591, 4.000000, 4.000000, 4.000000, 4.000000, 4.000000, 4.000000, 4.000000, 4.000000, 1.000000, 4.000000, 4.000000, 4.000000, 4.000000, 4.000000, 4.000000, 4.000000
30.000000, 0.000000, 4216.922852, 4148.717773, 4207.179199, 4229.230469, 4215.384277, 4200.512695, 4222.051270, 4212.820313, 4196.922852, 4188.205078, 4201.538574, 4233.333008, 4236.922852, 4201.538574, 0.000000, 8378.000000, 8170.000000, 0.000000, 0.000000, 0.000000, -21072.000000, 277.435883, 4.000000, 4.000000, 4.000000, 4.000000, 4.000000, 4.000000, 4.000000, 4.000000, 1.000000, 4.000000, 4.000000, 4.000000, 4.000000, 4.000000, 4.000000, 4.000000
31.000000, 0.000000, 4208.205078, 4147.692383, 4210.256348, 4223.076660, 4223.076660, 4211.794922, 4228.205078, 4230.256348, 4200.512695, 4184.615234, 4202.051270, 4233.846191, 4223.589844, 4203.589844, 0.000000, 8380.000000, 8232.000000, 0.000000, 0.000000, 0.000000, -21072.000000, 285.641022, 4.000000, 4.000000, 4.000000, 4.000000, 4.000000, 4.000000, 4.000000, 4.000000, 1.000000, 4.000000, 4.000000, 4.000000, 4.000000, 4.000000, 4.000000, 4.000000
32.000000, 0.000000, 4195.897461, 4135.897461, 4212.307617, 4214.358887, 4228.205078, 4213.846191, 4231.281738, 4249.743652, 4196.922852, 4182.051270, 4198.461426, 4233.846191, 4200.512695, 4198.974121, 0.000000, 8380.000000, 8232.000000, 0.000000, 0.000000, 0.000000, -21072.000000, 293.333313, 4.000000, 4.000000, 4.000000, 4.000000, 4.000000, 4.000000, 4.000000, 4.000000, 1.000000, 4.000000, 4.000000, 4.000000, 4.000000, 4.000000, 4.000000, 4.000000
33.000000, 0.000000, 4196.922852, 4137.948730, 4216.922852, 4218.461426, 4231.794922, 4214.358887, 4225.641113, 4244.615234, 4196.922852, 4187.179199, 4198.461426, 4236.410156, 4199.487305, 4201.025391, 0.000000, 8400.000000, 8210.000000, 0.000000, 0.000000, 0.000000, -21072.000000, 301.538452, 4.000000, 4.000000, 4.000000, 4.000000, 4.000000, 4.000000, 4.000000, 4.000000, 1.000000, 4.000000, 4.000000, 4.000000, 4.000000, 4.000000, 4.000000, 4.000000
34.000000, 0.000000, 4201.538574, 4135.897461, 4216.922852, 4215.897461, 4225.641113, 4214.358887, 4226.666504, 4240.000000, 4199.487305, 4186.666504, 4198.461426, 4235.384277, 4207.692383, 4200.512695, 0.000000, 8400.000000, 8210.000000, 0.000000, 0.000000, 0.000000, -21072.000000, 309.230774, 4.000000, 4.000000, 4.000000, 4.000000, 4.000000, 4.000000, 4.000000, 4.000000, 1.000000, 4.000000, 4.000000, 4.000000, 4.000000, 4.000000, 4.000000, 4.000000
35.000000, 0.000000, 4202.051270, 4128.717773, 4211.794922, 4203.589844, 4227.179199, 4206.666504, 4223.076660, 4252.820313, 4198.974121, 4185.127930, 4199.487305, 4233.333008, 4212.307617, 4199.487305, 0.000000, 8424.000000, 8230.000000, 0.000000, 0.000000, 0.000000, -21072.000000, 317.435883, 4.000000, 4.000000, 4.000000, 4.000000, 4.000000, 4.000000, 4.000000, 4.000000, 1.000000, 4.000000, 4.000000, 4.000000, 4.000000, 4.000000, 4.000000, 4.000000
36.000000, 0.000000, 4209.230469, 4133.846191, 4210.769043, 4202.051270, 4243.589844, 4202.051270, 4214.871582, 4248.205078, 4198.461426, 4188.717773, 4198.461426, 4235.384277, 4212.307617, 4198.974121, 0.000000, 8424.000000, 8230.000000, 0.000000, 0.000000, 0.000000, -21072.000000, 325.128204, 4.000000, 4.000000, 4.000000, 4.000000, 4.000000, 4.000000, 4.000000, 4.000000, 1.000000, 4.000000, 4.000000, 4.000000, 4.000000, 4.000000, 4.000000, 4.000000
37.000000, 0.000000, 4216.410156, 4133.333008, 4212.820313, 4200.000000, 4241.538574, 4205.127930, 4214.871582, 4227.179199, 4198.974121, 4183.076660, 4188.205078, 4232.307617, 4204.102539, 4188.205078, 0.000000, 8414.000000, 8216.000000, 0.000000, 0.000000, 0.000000, -21072.000000, 333.333313, 4.000000, 4.000000, 4.000000, 4.000000, 4.000000, 4.000000, 4.000000, 4.000000, 1.000000, 4.000000, 4.000000, 4.000000, 4.000000, 4.000000, 4.000000, 4.000000
38.000000, 0.000000, 4218.461426, 4124.102539, 4214.358887, 4191.281738, 4227.179199, 4202.563965, 4215.384277, 4233.333008, 4198.974121, 4174.871582, 4180.512695, 4228.205078, 4200.000000, 4175.897461, 0.000000, 8414.000000, 8216.000000, 0.000000, 0.000000, 0.000000, -21072.000000, 341.025635, 4.000000, 4.000000, 4.000000, 4.000000, 4.000000, 4.000000, 4.000000, 4.000000, 1.000000, 4.000000, 4.000000, 4.000000, 4.000000, 4.000000, 4.000000, 4.000000
39.000000, 0.000000, 4226.666504, 4123.589844, 4216.410156, 4189.230469, 4235.384277, 4198.461426, 4214.358887, 4250.769043, 4199.487305, 4181.538574, 4186.666504, 4231.794922, 4211.794922, 4176.922852, 0.000000, 8402.000000, 8191.000000, 0.000000, 0.000000, 0.000000, -21072.000000, 348.717926, 4.000000, 4.000000, 4.000000, 4.000000, 4.000000, 4.000000, 4.000000, 4.000000, 1.000000, 4.000000, 4.000000, 4.000000, 4.000000, 4.000000, 4.000000, 4.000000
40.000000, 0.000000, 4231.794922, 4123.589844, 4212.820313, 4190.256348, 4249.230469, 4200.512695, 4218.461426, 4241.538574, 4198.974121, 4188.717773, 4190.769043, 4234.358887, 4217.948730, 4177.948730, 0.000000, 8402.000000, 8191.000000, 0.000000, 0.000000, 0.000000, -21072.000000, 356.923065, 4.000000, 4.000000, 4.000000, 4.000000, 4.000000, 4.000000, 4.000000, 4.000000, 1.000000, 4.000000, 4.000000, 4.000000, 4.000000, 4.000000, 4.000000, 4.000000
41.000000, 0.000000, 4231.794922, 4126.666504, 4206.153809, 4182.563965, 4247.692383, 4201.025391, 4217.948730, 4228.717773, 4197.948730, 4181.538574, 4183.589844, 4229.230469, 4213.333008, 4171.281738, 0.000000, 8395.000000, 8195.000000, 0.000000, 0.000000, 0.000000, -21072.000000, 364.615387, 4.000000, 4.000000, 4.000000, 4.000000, 4.000000, 4.000000, 4.000000, 4.000000, 1.000000, 4.000000, 4.000000, 4.000000, 4.000000, 4.000000, 4.000000, 4.000000
42.000000, 0.000000, 4234.358887, 4132.307617, 4205.127930, 4173.333008, 4237.948730, 4200.000000, 4215.384277, 4234.871582, 4196.922852, 4174.871582, 4183.076660, 4228.205078, 4211.281738, 4170.769043, 0.000000, 8395.000000, 8195.000000, 0.000000, 0.000000, 0.000000, -21072.000000, 372.307678, 4.000000, 4.000000, 4.000000, 4.000000, 4.000000, 4.000000, 4.000000, 4.000000, 1.000000, 4.000000, 4.000000, 4.000000, 4.000000, 4.000000, 4.000000, 4.000000
43.000000, 0.000000, 4232.820313, 4122.563965, 4206.153809, 4170.769043, 4229.743652, 4198.974121, 4217.436035, 4236.410156, 4196.410156, 4175.897461, 4187.179199, 4229.743652, 4207.692383, 4171.281738, 0.000000, 8384.000000, 8182.000000, 0.000000, 0.000000, 0.000000, -21072.000000, 380.512817, 4.000000, 4.000000, 4.000000, 4.000000, 4.000000, 4.000000, 4.000000, 4.000000, 1.000000, 4.000000, 4.000000, 4.000000, 4.000000, 4.000000, 4.000000, 4.000000
44.000000, 0.000000, 4236.922852, 4116.410156, 4201.025391, 4169.230469, 4242.563965, 4196.922852, 4214.358887, 4228.717773, 4199.487305, 4173.333008, 4180.000000, 4221.538574, 4205.641113, 4165.641113, 0.000000, 8384.000000, 8182.000000, 0.000000, 0.000000, 0.000000, -21072.000000, 388.205109, 4.000000, 4.000000, 4.000000, 4.000000, 4.000000, 4.000000, 4.000000, 4.000000, 1.000000, 4.000000, 4.000000, 4.000000, 4.000000, 4.000000, 4.000000, 4.000000
45.000000, 0.000000, 4253.846191, 4133.846191, 4199.487305, 4175.384277, 4264.615234, 4200.000000, 4214.871582, 4232.820313, 4196.410156, 4170.769043, 4173.846191, 4215.897461, 4214.871582, 4166.153809, 0.000000, 8378.000000, 8160.000000, 0.000000, 0.000000, 0.000000, -21072.000000, 396.410248, 4.000000, 4.000000, 4.000000, 4.000000, 4.000000, 4.000000, 4.000000, 4.000000, 1.000000, 4.000000, 4.000000, 4.000000, 4.000000, 4.000000, 4.000000, 4.000000
46.000000, 0.000000, 4266.153809, 4148.205078, 4203.076660, 4186.666504, 4265.127930, 4204.615234, 4214.871582, 4236.410156, 4189.230469, 4173.846191, 4184.102539, 4225.127930, 4221.538574, 4171.281738, 0.000000, 8378.000000, 8160.000000, 0.000000, 0.000000, 0.000000, -21072.000000, 404.102539, 4.000000, 4.000000, 4.000000, 4.000000, 4.000000, 4.000000, 4.000000, 4.000000, 1.000000, 4.000000, 4.000000, 4.000000, 4.000000, 4.000000, 4.000000, 4.000000
47.000000, 1.000000, 4268.205078, 4147.179199, 4202.051270, 4187.692383, 4263.076660, 4202.051270, 4212.820313, 4231.794922, 4188.717773, 4173.333008, 4181.538574, 4223.076660, 4217.436035, 4169.743652, 0.000000, 8378.000000, 8163.000000, 0.000000, 0.000000, 0.000000, -21072.000000, 412.307678, 4.000000, 4.000000, 4.000000, 4.000000, 4.000000, 4.000000, 4.000000, 4.000000, 1.000000, 4.000000, 4.000000, 4.000000, 4.000000, 4.000000, 4.000000, 4.000000
48.000000, 1.000000, 4269.743652, 4145.641113, 4201.538574, 4188.717773, 4261.025391, 4199.487305, 4210.256348, 4227.179199, 4188.205078, 4172.820313, 4179.487305, 4221.538574, 4212.820313, 4168.205078, 0.000000, 8378.000000, 8166.000000, 0.000000, 0.000000, 0.000000, -21072.000000, 420.000000, 4.000000, 4.000000, 4.000000, 4.000000, 4.000000, 4.000000, 4.000000, 4.000000, 1.000000, 4.000000, 4.000000, 4.000000, 4.000000, 4.000000, 4.000000, 4.000000
49.000000, 1.000000, 4271.794922, 4144.102539, 4201.025391, 4189.743652, 4258.461426, 4196.922852, 4208.205078, 4222.051270, 4187.692383, 4172.307617, 4176.922852, 4219.487305, 4208.717773, 4166.666504, 0.000000, 8378.000000, 8169.000000, 0.000000, 0.000000, 0.000000, -21072.000000, 427.692291, 4.000000, 4.000000, 4.000000, 4.000000, 4.000000, 4.000000, 4.000000, 4.000000, 1.000000, 4.000000, 4.000000, 4.000000, 4.000000, 4.000000, 4.000000, 4.000000
50.000000, 1.000000, 4273.333008, 4142.563965, 4200.512695, 4190.769043, 4256.410156, 4194.358887, 4205.641113, 4217.436035, 4187.179199, 4171.794922, 4174.871582, 4217.948730, 4204.615234, 4165.127930, 0.000000, 8378.000000, 8172.000000, 0.000000, 0.000000, 0.000000, -21072.000000, 435.897430, 4.000000, 4.000000, 4.000000, 4.000000, 4.000000, 4.000000, 4.000000, 4.000000, 1.000000, 4.000000, 4.000000, 4.000000, 4.000000, 4.000000, 4.000000, 4.000000
51.000000, 1.000000, 4275.384277, 4141.538574, 4199.487305, 4191.794922, 4254.358887, 4191.794922, 4203.589844, 4212.820313, 4186.666504, 4171.281738, 4172.307617, 4215.897461, 4200.512695, 4163.589844, 0.000000, 8378.000000, 8175.000000, 0.000000, 0.000000, 0.000000, -21072.000000, 443.589722, 4.000000, 4.000000, 4.000000, 4.000000, 4.000000, 4.000000, 4.000000, 4.000000, 1.000000, 4.000000, 4.000000, 4.000000, 4.000000, 4.000000, 4.000000, 4.000000
52.000000, 1.000000, 4276.922852, 4140.000000, 4198.974121, 4192.820313, 4252.307617, 4189.230469, 4201.025391, 4208.205078, 4186.153809, 4170.769043, 4170.256348, 4214.358887, 4195.897461, 4162.051270, 0.000000, 8378.000000, 8178.000000, 0.000000, 0.000000, 0.000000, -21072.000000, 451.282043, 4.000000, 4.000000, 4.000000, 4.000000, 4.000000, 4.000000, 4.000000, 4.000000, 1.000000, 4.000000, 4.000000, 4.000000, 4.000000, 4.000000, 4.000000, 4.000000
53.000000, 0.000000, 4279.487305, 4137.948730, 4198.461426, 4194.358887, 4249.743652, 4186.153809, 4198.974121, 4203.076660, 4185.127930, 4170.256348, 4167.179199, 4212.307617, 4191.281738, 4160.512695, 0.000000, 8379.000000, 8182.000000, 0.000000, 0.000000, 0.000000, -21072.000000, 459.487183, 4.000000, 4.000000, 4.000000, 4.000000, 4.000000, 4.000000, 4.000000, 4.000000, 1.000000, 4.000000, 4.000000, 4.000000, 4.000000, 4.000000, 4.000000, 4.000000
54.000000, 0.000000, 4281.538574, 4147.179199, 4203.589844, 4202.051270, 4262.563965, 4185.641113, 4189.230469, 4217.436035, 4195.384277, 4172.307617, 4170.256348, 4215.897461, 4198.974121, 4167.692383, 0.000000, 8379.000000, 8182.000000, 0.000000, 0.000000, 0.000000, -21072.000000, 467.179474, 4.000000, 4.000000, 4.000000, 4.000000, 4.000000, 4.000000, 4.000000, 4.000000, 1.000000, 4.000000, 4.000000, 4.000000, 4.000000, 4.000000, 4.000000, 4.000000
55.000000, 0.000000, 4281.538574, 4150.769043, 4203.076660, 4202.051270, 4264.615234, 4189.743652, 4185.641113, 4209.230469, 4200.512695, 4174.358887, 4181.538574, 4217.436035, 4206.666504, 4174.358887, 0.000000, 8355.000000, 8179.000000, 0.000000, 0.000000, 0.000000, -21072.000000, 475.384613, 4.000000, 4.000000, 4.000000, 4.000000, 4.000000, 4.000000, 4.000000, 4.000000, 1.000000, 4.000000, 4.000000, 4.000000, 4.000000, 4.000000, 4.000000, 4.000000
56.000000, 0.000000, 4271.794922, 4137.436035, 4194.358887, 4198.974121, 4252.307617, 4190.256348, 4187.179199, 4192.820313, 4197.436035, 4170.256348, 4184.102539, 4208.717773, 4195.897461, 4165.641113, 0.000000, 8355.000000, 8179.000000, 0.000000, 0.000000, 0.000000, -21072.000000, 483.076904, 4.000000, 4.000000, 4.000000, 4.000000, 4.000000, 4.000000, 4.000000, 4.000000, 1.000000, 4.000000, 4.000000, 4.000000, 4.000000, 4.000000, 4.000000, 4.000000
57.000000, 0.000000, 4259.487305, 4129.743652, 4194.871582, 4198.461426, 4249.230469, 4184.615234, 4185.641113, 4212.820313, 4197.436035, 4170.256348, 4182.051270, 4206.153809, 4189.230469, 4155.384277, 0.000000, 8350.000000, 8179.000000, 0.000000, 0.000000, 0.000000, -21072.000000, 490.769226, 4.000000, 4.000000, 4.000000, 4.000000, 4.000000, 4.000000, 4.000000, 4.000000, 1.000000, 4.000000, 4.000000, 4.000000, 4.000000, 4.000000, 4.000000, 4.000000
58.000000, 0.000000, 4259.487305, 4135.384277, 4200.000000, 4196.922852, 4244.102539, 4183.076660, 4179.487305, 4221.025391, 4198.461426, 4173.333008, 4185.641113, 4213.333008, 4198.461426, 4160.000000, 0.000000, 8350.000000, 8179.000000, 0.000000, 0.000000, 0.000000, -21072.000000, 498.974335, 4.000000, 4.000000, 4.000000, 4.000000, 4.000000, 4.000000, 4.000000, 4.000000, 1.000000, 4.000000, 4.000000, 4.000000, 4.000000, 4.000000, 4.000000, 4.000000
59.000000, 0.000000, 4271.281738, 4135.897461, 4202.563965, 4201.538574, 4234.871582, 4187.179199, 4182.051270, 4198.461426, 4197.948730, 4169.743652, 4186.666504, 4215.897461, 4203.589844, 4169.743652, 0.000000, 8337.000000, 8183.000000, 0.000000, 0.000000, 0.000000, -21072.000000, 506.666656, 4.000000, 4.000000, 4.000000, 4.000000, 4.000000, 4.000000, 4.000000, 4.000000, 1.000000, 4.000000, 4.000000, 4.000000, 4.000000, 4.000000, 4.000000, 4.000000
60.000000, 0.000000, 4281.538574, 4136.922852, 4208.205078, 4214.358887, 4245.641113, 4188.205078, 4192.820313, 4198.461426, 4197.436035, 4175.384277, 4192.307617, 4219.487305, 4203.076660, 4172.820313, 0.000000, 8337.000000, 8183.000000, 0.000000, 0.000000, 0.000000, -21072.000000, 514.871765, 4.000000, 4.000000, 4.000000, 4.000000, 4.000000, 4.000000, 4.000000, 4.000000, 1.000000, 4.000000, 4.000000, 4.000000, 4.000000, 4.000000, 4.000000, 4.000000
61.000000, 0.000000, 4284.102539, 4142.563965, 4216.410156, 4214.871582, 4249.743652, 4185.641113, 4196.410156, 4216.922852, 4198.461426, 4184.102539, 4198.974121, 4225.641113, 4206.666504, 4172.307617, 0.000000, 8337.000000, 8176.000000, 0.000000, 0.000000, 0.000000, -21072.000000, 522.564087, 4.000000, 4.000000, 4.000000, 4.000000, 4.000000, 4.000000, 4.000000, 4.000000, 1.000000, 4.000000, 4.000000, 4.000000, 4.000000, 4.000000, 4.000000, 4.000000
62.000000, 0.000000, 4277.948730, 4136.410156, 4214.358887, 4206.153809, 4235.384277, 4185.641113, 4193.333008, 4220.000000, 4199.487305, 4177.436035, 4193.846191, 4223.589844, 4204.615234, 4174.358887, 0.000000, 8337.000000, 8176.000000, 0.000000, 0.000000, 0.000000, -21072.000000, 530.256409, 4.000000, 4.000000, 4.000000, 4.000000, 4.000000, 4.000000, 4.000000, 4.000000, 1.000000, 4.000000, 4.000000, 4.000000, 4.000000, 4.000000, 4.000000, 4.000000
63.000000, 0.000000, 4265.641113, 4121.025391, 4201.538574, 4202.563965, 4227.179199, 4185.641113, 4195.384277, 4212.307617, 4192.820313, 4162.563965, 4178.974121, 4211.794922, 4193.333008, 4166.666504, 0.000000, 8340.000000, 8168.000000, 0.000000, 0.000000, 0.000000, -21072.000000, 537.948730, 4.000000, 4.000000, 4.000000, 4.000000, 4.000000, 4.000000, 4.000000, 4.000000, 1.000000, 4.000000, 4.000000, 4.000000, 4.000000, 4.000000, 4.000000, 4.000000
64.000000, 0.000000, 4245.641113, 4106.153809, 4187.692383, 4196.410156, 4213.846191, 4185.127930, 4200.512695, 4211.794922, 4187.692383, 4151.794922, 4162.051270, 4195.384277, 4176.922852, 4143.076660, 3157.000000, 8340.000000, 8168.000000, 0.000000, 0.000000, 0.000000, -21072.000000, 545.640991, 4.000000, 4.000000, 4.000000, 4.000000, 4.000000, 4.000000, 4.000000, 4.000000, 1.000000, 4.000000, 4.000000, 4.000000, 4.000000, 4.000000, 4.000000, 4.000000
65.000000, 0.000000, 4228.717773, 4097.948730, 4176.922852, 4184.102539, 4193.333008, 4190.769043, 4202.563965, 4228.717773, 4195.384277, 4152.820313, 4153.846191, 4184.102539, 4165.127930, 4129.743652, 3527.000000, 8342.000000, 8149.000000, 0.000000, 0.000000, 0.000000, -21072.000000, 553.333313, 4.000000, 4.000000, 4.000000, 4.000000, 4.000000, 4.000000, 4.000000, 4.000000, 1.000000, 4.000000, 4.000000, 4.000000, 4.000000, 4.000000, 4.000000, 4.000000
66.000000, 0.000000, 4234.358887, 4102.051270, 4176.410156, 4183.076660, 4202.563965, 4201.025391, 4207.179199, 4248.205078, 4201.538574, 4172.307617, 4166.666504, 4189.230469, 4177.948730, 4139.487305, 3436.000000, 8342.000000, 8149.000000, 0.000000, 0.000000, 0.000000, -21072.000000, 561.538452, 4.000000, 4.000000, 4.000000, 4.000000, 4.000000, 4.000000, 4.000000, 4.000000, 1.000000, 4.000000, 4.000000, 4.000000, 4.000000, 4.000000, 4.000000, 4.000000
67.000000, 0.000000, 4253.333008, 4109.230469, 4183.589844, 4194.358887, 4223.589844, 4201.538574, 4209.230469, 4237.948730, 4198.461426, 4192.820313, 4188.717773, 4203.589844, 4205.641113, 4153.846191, 2412.000000, 8333.000000, 8134.000000, 0.000000, 0.000000, 0.000000, -21072.000000, 569.230774, 4.000000, 4.000000, 4.000000, 4.000000, 4.000000, 4.000000, 4.000000, 4.000000, 1.000000, 4.000000, 4.000000, 4.000000, 4.000000, 4.000000, 4.000000, 4.000000
68.000000, 0.000000, 4260.512695, 4112.820313, 4186.666504, 4199.487305, 4214.871582, 4190.256348, 4196.922852, 4217.948730, 4197.948730, 4191.281738, 4194.871582, 4210.769043, 4221.025391, 4161.025391, 3387.000000, 8333.000000, 8134.000000, 0.000000, 0.000000, 0.000000, -21072.000000, 576.923035, 4.000000, 4.000000, 4.000000, 4.000000, 4.000000, 4.000000, 4.000000, 4.000000, 1.000000, 4.000000, 4.000000, 4.000000, 4.000000, 4.000000, 4.000000, 4.000000
69.000000, 0.000000, 4261.025391, 4114.358887, 4187.179199, 4196.410156, 4207.179199, 4182.563965, 4185.127930, 4215.897461, 4198.461426, 4185.641113, 4190.256348, 4206.666504, 4224.615234, 4167.179199, 3570.000000, 8294.000000, 8160.000000, 0.000000, 0.000000, 0.000000, -21072.000000, 584.615356, 4.000000, 4.000000, 4.000000, 4.000000, 4.000000, 4.000000, 4.000000, 4.000000, 1.000000, 4.000000, 4.000000, 4.000000, 4.000000, 4.000000, 4.000000, 4.000000
70.000000, 0.000000, 4263.589844, 4114.358887, 4189.743652, 4198.461426, 4216.410156, 4185.127930, 4181.538574, 4214.358887, 4196.922852, 4190.256348, 4188.717773, 4204.102539, 4226.666504, 4169.743652, 3380.000000, 8294.000000, 8160.000000, 0.000000, 0.000000, 0.000000, -21072.000000, 592.307678, 4.000000, 4.000000, 4.000000, 4.000000, 4.000000, 4.000000, 4.000000, 4.000000, 1.000000, 4.000000, 4.000000, 4.000000, 4.000000, 4.000000, 4.000000, 4.000000
71.000000, 0.000000, 4249.743652, 4109.743652, 4192.307617, 4208.717773, 4211.794922, 4185.127930, 4175.384277, 4213.846191, 4197.948730, 4191.794922, 4189.743652, 4210.256348, 4219.487305, 4170.256348, 3311.000000, 8296.000000, 8138.000000, 0.000000, 0.000000, 0.000000, -21072.000000, 600.000000, 4.000000, 4.000000, 4.000000, 4.000000, 4.000000, 4.000000, 4.000000, 4.000000, 1.000000, 4.000000, 4.000000, 4.000000, 4.000000, 4.000000, 4.000000, 4.000000
72.000000, 0.000000, 4220.512695, 4102.051270, 4191.794922, 4216.410156, 4201.538574, 4177.948730, 4170.256348, 4220.000000, 4198.974121, 4187.179199, 4189.230469, 4212.820313, 4205.127930, 4171.794922, 88.000000, 8296.000000, 8138.000000, 0.000000, 0.000000, 0.000000, -21072.000000, 608.205139, 4.000000, 4.000000, 4.000000, 4.000000, 4.000000, 4.000000, 4.000000, 4.000000, 1.000000, 4.000000, 4.000000, 4.000000, 4.000000, 4.000000, 4.000000, 4.000000
73.000000, 0.000000, 4198.461426, 4086.666504, 4189.230469, 4219.487305, 4196.410156, 4170.769043, 4176.922852, 4215.897461, 4197.948730, 4182.563965, 4183.076660, 4205.127930, 4197.948730, 4167.179199, 2843.000000, 8338.000000, 8163.000000, 0.000000, 0.000000, 0.000000, -21072.000000, 615.897400, 4.000000, 4.000000, 4.000000, 4.000000, 4.000000, 4.000000, 4.000000, 4.000000, 1.000000, 4.000000, 4.000000, 4.000000, 4.000000, 4.000000, 4.000000, 4.000000
74.000000, 0.000000, 4184.615234, 4062.563965, 4189.743652, 4226.666504, 4189.743652, 4170.256348, 4183.589844, 4207.179199, 4198.461426, 4174.871582, 4173.333008, 4200.512695, 4188.717773, 4159.487305, 3590.000000, 8338.000000, 8163.000000, 0.000000, 0.000000, 0.000000, -21072.000000, 623.589722, 4.000000, 4.000000, 4.000000, 4.000000, 4.000000, 4.000000, 4.000000, 4.000000, 1.000000, 4.000000, 4.000000, 4.000000, 4.000000, 4.000000, 4.000000, 4.000000
75.000000, 0.000000, 4169.743652, 4048.205078, 4185.127930, 4224.615234, 4178.974121, 4169.230469, 4181.538574, 4207.179199, 4197.436035, 4168.717773, 4167.179199, 4200.512695, 4175.384277, 4154.871582, 3566.000000, 8326.000000, 8174.000000, 0.000000, 0.000000, 0.000000, -21072.000000, 631.282043, 4.000000, 4.000000, 4.000000, 4.000000, 4.000000, 4.000000, 4.000000, 4.000000, 1.000000, 4.000000, 4.000000, 4.000000, 4.000000, 4.000000, 4.000000, 4.000000
76.000000, 0.000000, 4162.051270, 4049.230713, 4174.358887, 4210.256348, 4171.794922, 4168.717773, 4181.538574, 4206.666504, 4197.948730, 4168.717773, 4165.127930, 4196.922852, 4168.205078, 4150.769043, 3524.000000, 8326.000000, 8174.000000, 0.000000, 0.000000, 0.000000, -21072.000000, 638.974365, 4.000000, 4.000000, 4.000000, 4.000000, 4.000000, 4.000000, 4.000000, 4.000000, 1.000000, 4.000000, 4.000000, 4.000000, 4.000000, 4.000000, 4.000000, 4.000000
77.000000, 0.000000, 4172.820313, 4050.769043, 4173.846191, 4198.974121, 4174.871582, 4175.384277, 4185.641113, 4204.102539, 4198.974121, 4171.794922, 4165.641113, 4196.410156, 4169.743652, 4150.256348, 3463.000000, 8331.000000, 8155.000000, 0.000000, 0.000000, 0.000000, -21072.000000, 646.666626, 4.000000, 4.000000, 4.000000, 4.000000, 4.000000, 4.000000, 4.000000, 4.000000, 1.000000, 4.000000, 4.000000, 4.000000, 4.000000, 4.000000, 4.000000, 4.000000
78.000000, 0.000000, 4191.794922, 4052.307617, 4180.512695, 4201.538574, 4183.076660, 4184.615234, 4190.769043, 4208.717773, 4198.974121, 4177.436035, 4167.692383, 4198.974121, 4174.871582, 4155.384277, 3590.000000, 8331.000000, 8155.000000, 0.000000, 0.000000, 0.000000, -21072.000000, 654.871765, 4.000000, 4.000000, 4.000000, 4.000000, 4.000000, 4.000000, 4.000000, 4.000000, 1.000000, 4.000000, 4.000000, 4.000000, 4.000000, 4.000000, 4.000000, 4.000000
79.000000, 0.000000, 4204.102539, 4063.076904, 4185.127930, 4202.051270, 4190.256348, 4193.333008, 4196.922852, 4214.358887, 4199.487305, 4184.615234, 4172.820313, 4201.538574, 4177.948730, 4157.948730, 3566.000000, 8352.000000, 8181.000000, 0.000000, 0.000000, 0.000000, -21072.000000, 662.564087, 4.000000, 4.000000, 4.000000, 4.000000, 4.000000, 4.000000, 4.000000, 4.000000, 1.000000, 4.000000, 4.000000, 4.000000, 4.000000, 4.000000, 4.000000, 4.000000
80.000000, 0.000000, 4204.102539, 4073.845947, 4184.615234, 4191.794922, 4187.692383, 4198.974121, 4200.000000, 4219.487305, 4198.461426, 4185.641113, 4173.846191, 4204.102539, 4167.179199, 4156.922852, 3524.000000, 8352.000000, 8181.000000, 0.000000, 0.000000, 0.000000, -21072.000000, 670.256409, 4.000000, 4.000000, 4.000000, 4.000000, 4.000000, 4.000000, 4.000000, 4.000000, 1.000000, 4.000000, 4.000000, 4.000000, 4.000000, 4.000000, 4.000000, 4.000000
81.000000, 0.000000, 4203.076660, 4084.102539, 4178.974121, 4183.076660, 4187.179199, 4197.948730, 4195.897461, 4217.948730, 4193.846191, 4182.563965, 4171.281738, 4202.563965, 4142.051270, 4156.922852, 3463.000000, 8353.000000, 8206.000000, 0.000000, 0.000000, 0.000000, -21072.000000, 677.948730, 4.000000, 4.000000, 4.000000, 4.000000, 4.000000, 4.000000, 4.000000, 4.000000, 1.000000, 4.000000, 4.000000, 4.000000, 4.000000, 4.000000, 4.000000, 4.000000
82.000000, 0.000000, 4210.769043, 4097.436035, 4174.358887, 4185.127930, 4195.897461, 4197.948730, 4190.769043, 4204.102539, 4193.333008, 4178.974121, 4172.820313, 4201.025391, 4122.563965, 4157.436035, 3590.000000, 8353.000000, 8206.000000, 0.000000, 0.000000, 0.000000, -21072.000000, 686.153809, 4.000000, 4.000000, 4.000000, 4.000000, 4.000000, 4.000000, 4.000000, 4.000000, 1.000000, 4.000000, 4.000000, 4.000000, 4.000000, 4.000000, 4.000000, 4.000000
83.000000, 0.000000, 4217.948730, 4109.743652, 4174.358887, 4185.641113, 4205.641113, 4202.051270, 4190.769043, 4200.000000, 4196.922852, 4179.487305, 4175.897461, 4203.076660, 4112.820313, 4158.974121, 3566.000000, 8363.000000, 8203.000000, 0.000000, 0.000000, 0.000000, -21072.000000, 693.846130, 4.000000, 4.000000, 4.000000, 4.000000, 4.000000, 4.000000, 4.000000, 4.000000, 1.000000, 4.000000, 4.000000, 4.000000, 4.000000, 4.000000, 4.000000, 4.000000
84.000000, 0.000000, 4211.794922, 4117.948730, 4173.846191, 4175.384277, 4205.641113, 4200.000000, 4190.769043, 4210.769043, 4198.974121, 4182.051270, 4173.846191, 4201.538574, 4098.974121, 4153.333008, 3524.000000, 8363.000000, 8203.000000, 0.000000, 0.000000, 0.000000, -21072.000000, 701.538452, 4.000000, 4.000000, 4.000000, 4.000000, 4.000000, 4.000000, 4.000000, 4.000000, 1.000000, 4.000000, 4.000000, 4.000000, 4.000000, 4.000000, 4.000000, 4.000000
85.000000, 0.000000, 4201.025391, 4122.563965, 4168.717773, 4167.179199, 4200.512695, 4190.256348, 4187.692383, 4205.641113, 4197.948730, 4176.922852, 4166.666504, 4194.871582, 4088.717773, 4143.589844, 3463.000000, 8372.000000, 8205.000000, 0.000000, 0.000000, 0.000000, -21072.000000, 709.230774, 4.000000, 4.000000, 4.000000, 4.000000, 4.000000, 4.000000, 4.000000, 4.000000, 1.000000, 4.000000, 4.000000, 4.000000, 4.000000, 4.000000, 4.000000, 4.000000
86.000000, 0.000000, 4198.461426, 4123.076660, 4163.589844, 4167.179199, 4200.512695, 4187.179199, 4185.641113, 4199.487305, 4196.410156, 4170.256348, 4161.538574, 4187.692383, 4086.666504, 4135.897461, 3590.000000, 8372.000000, 8205.000000, 0.000000, 0.000000, 0.000000, -21072.000000, 716.923035, 4.000000, 4.000000, 4.000000, 4.000000, 4.000000, 4.000000, 4.000000, 4.000000, 1.000000, 4.000000, 4.000000, 4.000000, 4.000000, 4.000000, 4.000000, 4.000000
87.000000, 0.000000, 4195.897461, 4123.076660, 4162.563965, 4165.127930, 4198.461426, 4181.025391, 4180.512695, 4206.153809, 4193.333008, 4170.256348, 4155.897461, 4180.000000, 4080.512695, 4128.205078, 3566.000000, 8380.000000, 8214.000000, 0.000000, 0.000000, 0.000000, -21072.000000, 724.615356, 4.000000, 4.000000, 4.000000, 4.000000, 4.000000, 4.000000, 4.000000, 4.000000, 1.000000, 4.000000, 4.000000, 4.000000, 4.000000, 4.000000, 4.000000, 4.000000
88.000000, 0.000000, 4190.769043, 4131.281738, 4162.563965, 4163.076660, 4198.974121, 4174.358887, 4171.281738, 4193.846191, 4188.717773, 4167.692383, 4149.230469, 4169.743652, 4075.897217, 4120.512695, 3524.000000, 8380.000000, 8214.000000, 0.000000, 0.000000, 0.000000, -21072.000000, 732.820496, 4.000000, 4.000000, 4.000000, 4.000000, 4.000000, 4.000000, 4.000000, 4.000000, 1.000000, 4.000000, 4.000000, 4.000000, 4.000000, 4.000000, 4.000000, 4.000000
89.000000, 0.000000, 4195.384277, 4138.974121, 4163.589844, 4164.615234, 4200.512695, 4174.871582, 4165.127930, 4171.794922, 4187.692383, 4163.589844, 4149.743652, 4166.153809, 4086.153809, 4120.000000, 3463.000000, 8387.000000, 8212.000000, 0.000000, 0.000000, 0.000000, -21072.000000, 740.512817, 4.000000, 4.000000, 4.000000, 4.000000, 4.000000, 4.000000, 4.000000, 4.000000, 1.000000, 4.000000, 4.000000, 4.000000, 4.000000, 4.000000, 4.000000, 4.000000
90.000000, 0.000000, 4204.102539, 4139.487305, 4163.589844, 4167.179199, 4198.461426, 4176.410156, 4164.615234, 4175.384277, 4188.205078, 4167.179199, 4155.897461, 4173.846191, 4093.845947, 4129.743652, 3590.000000, 8387.000000, 8212.000000, 0.000000, 0.000000, 0.000000, -21072.000000, 748.205139, 4.000000, 4.000000, 4.000000, 4.000000, 4.000000, 4.000000, 4.000000, 4.000000, 1.000000, 4.000000, 4.000000, 4.000000, 4.000000, 4.000000, 4.000000, 4.000000
91.000000, 0.000000, 4205.127930, 4141.025391, 4168.717773, 4168.717773, 4206.153809, 4179.487305, 4168.205078, 4187.692383, 4187.179199, 4165.641113, 4156.922852, 4184.102539, 4092.820313, 4140.000000, 3566.000000, 8395.000000, 8207.000000, 0.000000, 0.000000, 0.000000, -21072.000000, 755.897400, 4.000000, 4.000000, 4.000000, 4.000000, 4.000000, 4.000000, 4.000000, 4.000000, 1.000000, 4.000000, 4.000000, 4.000000, 4.000000, 4.000000, 4.000000, 4.000000
92.000000, 0.000000, 4206.153809, 4142.051270, 4173.333008, 4170.769043, 4217.948730, 4185.127930, 4171.281738, 4184.615234, 4190.256348, 4159.487305, 4153.846191, 4183.076660, 4097.436035, 4135.897461, 3524.000000, 8395.000000, 8207.000000, 0.000000, 0.000000, 0.000000, -21072.000000, 763.589722, 4.000000, 4.000000, 4.000000, 4.000000, 4.000000, 4.000000, 4.000000, 4.000000, 1.000000, 4.000000, 4.000000, 4.000000, 4.000000, 4.000000, 4.000000, 4.000000
93.000000, 0.000000, 4208.717773, 4138.461426, 4166.153809, 4171.794922, 4224.615234, 4188.205078, 4171.794922, 4174.871582, 4198.974121, 4158.461426, 4151.794922, 4173.846191, 4100.000000, 4125.127930, 3463.000000, 8404.000000, 8206.000000, 0.000000, 0.000000, 0.000000, -21072.000000, 771.282043, 4.000000, 4.000000, 4.000000, 4.000000, 4.000000, 4.000000, 4.000000, 4.000000, 1.000000, 4.000000, 4.000000, 4.000000, 4.000000, 4.000000, 4.000000, 4.000000
94.000000, 0.000000, 4206.666504, 4136.922852, 4158.974121, 4170.769043, 4231.281738, 4188.205078, 4168.717773, 4167.179199, 4200.512695, 4157.436035, 4149.743652, 4172.307617, 4095.897217, 4127.692383, 3590.000000, 8404.000000, 8206.000000, 0.000000, 0.000000, 0.000000, -21072.000000, 779.487183, 4.000000, 4.000000, 4.000000, 4.000000, 4.000000, 4.000000, 4.000000, 4.000000, 1.000000, 4.000000, 4.000000, 4.000000, 4.000000, 4.000000, 4.000000, 4.000000
95.000000, 0.000000, 4205.641113, 4141.538574, 4162.563965, 4171.794922, 4233.846191, 4190.769043, 4172.307617, 4172.307617, 4195.384277, 4153.846191, 4152.307617, 4182.563965, 4104.102539, 4136.922852, 3566.000000, 8404.000000, 8196.000000, 0.000000, 0.000000, 0.000000, -21072.000000, 787.179443, 4.000000, 4.000000, 4.000000, 4.000000, 4.000000, 4.000000, 4.000000, 4.000000, 1.000000, 4.000000, 4.000000, 4.000000, 4.000000, 4.000000, 4.000000, 4.000000
96.000000, 0.000000, 4205.127930, 4139.487305, 4166.153809, 4171.281738, 4226.666504, 4191.281738, 4174.871582, 4185.641113, 4196.410156, 4153.846191, 4151.281738, 4184.102539, 4109.230469, 4130.769043, 3524.000000, 8404.000000, 8196.000000, 0.000000, 0.000000, 0.000000, -21072.000000, 794.871765, 4.000000, 4.000000, 4.000000, 4.000000, 4.000000, 4.000000, 4.000000, 4.000000, 1.000000, 4.000000, 4.000000, 4.000000, 4.000000, 4.000000, 4.000000, 4.000000
97.000000, 0.000000, 4198.461426, 4132.307617, 4158.461426, 4165.127930, 4218.461426, 4183.076660, 4165.127930, 4178.974121, 4199.487305, 4154.871582, 4141.538574, 4172.307617, 4092.307617, 4121.025391, 3463.000000, 8411.000000, 8194.000000, 0.000000, 0.000000, 0.000000, -21072.000000, 802.564087, 4.000000, 4.000000, 4.000000, 4.000000, 4.000000, 4.000000, 4.000000, 4.000000, 1.000000, 4.000000, 4.000000, 4.000000, 4.000000, 4.000000, 4.000000, 4.000000
98.000000, 0.000000, 4196.922852, 4132.820313, 4158.461426, 4161.538574, 4215.897461, 4174.871582, 4158.974121, 4164.615234, 4198.974121, 4153.846191, 4140.000000, 4171.281738, 4092.820313, 4126.153809, 3590.000000, 8411.000000, 8194.000000, 0.000000, 0.000000, 0.000000, -21072.000000, 810.256409, 4.000000, 4.000000, 4.000000, 4.000000, 4.000000, 4.000000, 4.000000, 4.000000, 1.000000, 4.000000, 4.000000, 4.000000, 4.000000, 4.000000, 4.000000, 4.000000
99.000000, 0.000000, 4209.743652, 4145.127930, 4168.205078, 4169.743652, 4216.922852, 4177.436035, 4165.641113, 4175.897461, 4198.974121, 4160.512695, 4152.820313, 4182.051270, 4118.461426, 4138.461426, 3566.000000, 8413.000000, 8211.000000, 0.000000, 0.000000, 0.000000, -21072.000000, 818.461548, 4.000000, 4.000000, 4.000000, 4.000000, 4.000000, 4.000000, 4.000000, 4.000000, 1.000000, 4.000000, 4.000000, 4.000000, 4.000000, 4.000000, 4.000000, 4.000000
100.000000, 0.000000, 4219.487305, 4155.897461, 4169.743652, 4181.538574, 4219.487305, 4186.666504, 4171.794922, 4198.974121, 4199.487305, 4171.281738, 4165.641113, 4190.256348, 4128.717773, 4145.127930, 3524.000000, 8413.000000, 8211.000000, 0.000000, 0.000000, 0.000000, -21072.000000, 826.153809, 4.000000, 4.000000, 4.000000, 4.000000, 4.000000, 4.000000, 4.000000, 4.000000, 1.000000, 4.000000, 4.000000, 4.000000, 4.000000, 4.000000, 4.000000, 4.000000
101.000000, 0.000000, 4214.871582, 4153.846191, 4169.230469, 4183.076660, 4218.974121, 4189.743652, 4171.281738, 4200.000000, 4199.487305, 4180.000000, 4170.769043, 4192.307617, 4128.205078, 4148.717773, 3463.000000, 8408.000000, 8218.000000, 0.000000, 0.000000, 0.000000, -21072.000000, 833.846130, 4.000000, 4.000000, 4.000000, 4.000000, 4.000000, 4.000000, 4.000000, 4.000000, 1.000000, 4.000000, 4.000000, 4.000000, 4.000000, 4.000000, 4.000000, 4.000000
102.000000, 0.000000, 4212.307617, 4150.769043, 4171.281738, 4182.563965, 4217.948730, 4188.205078, 4172.820313, 4186.666504, 4199.487305, 4184.102539, 4171.281738, 4191.794922, 4137.436035, 4154.358887, 3590.000000, 8408.000000, 8218.000000, 0.000000, 0.000000, 0.000000, -21072.000000, 841.538452, 4.000000, 4.000000, 4.000000, 4.000000, 4.000000, 4.000000, 4.000000, 4.000000, 1.000000, 4.000000, 4.000000, 4.000000, 4.000000, 4.000000, 4.000000, 4.000000
103.000000, 0.000000, 4209.743652, 4147.692383, 4168.717773, 4181.538574, 4216.410156, 4186.666504, 4171.794922, 4183.589844, 4199.487305, 4180.000000, 4168.717773, 4189.743652, 4141.538574, 4150.769043, 3566.000000, 8419.000000, 8234.000000, 0.000000, 0.000000, 0.000000, -21072.000000, 849.743591, 4.000000, 4.000000, 4.000000, 4.000000, 4.000000, 4.000000, 4.000000, 4.000000, 1.000000, 4.000000, 4.000000, 4.000000, 4.000000, 4.000000, 4.000000, 4.000000
104.000000, 0.000000, 4202.563965, 4143.076660, 4168.717773, 4176.410156, 4207.692383, 4182.563965, 4167.692383, 4188.205078, 4200.000000, 4178.461426, 4167.179199, 4186.153809, 4133.333008, 4144.615234, 3524.000000, 8419.000000, 8234.000000, 0.000000, 0.000000, 0.000000, -21072.000000, 857.435852, 4.000000, 4.000000, 4.000000, 4.000000, 4.000000, 4.000000, 4.000000, 4.000000, 1.000000, 4.000000, 4.000000, 4.000000, 4.000000, 4.000000, 4.000000, 4.000000
105.000000, 0.000000, 4197.948730, 4135.384277, 4171.281738, 4177.436035, 4193.846191, 4182.563965, 4172.820313, 4192.307617, 4199.487305, 4183.589844, 4168.717773, 4186.666504, 4135.897461, 4148.717773, 3463.000000, 8427.000000, 8236.000000, 0.000000, 0.000000, 0.000000, -21072.000000, 865.128174, 4.000000, 4.000000, 4.000000, 4.000000, 4.000000, 4.000000, 4.000000, 4.000000, 1.000000, 4.000000, 4.000000, 4.000000, 4.000000, 4.000000, 4.000000, 4.000000
106.000000, 0.000000, 4198.974121, 4128.717773, 4170.769043, 4184.102539, 4191.794922, 4186.666504, 4176.410156, 4190.256348, 4198.974121, 4189.743652, 4174.358887, 4195.384277, 4149.743652, 4156.410156, 3590.000000, 8427.000000, 8236.000000, 0.000000, 0.000000, 0.000000, -21072.000000, 872.820496, 4.000000, 4.000000, 4.000000, 4.000000, 4.000000, 4.000000, 4.000000, 4.000000, 1.000000, 4.000000, 4.000000, 4.000000, 4.000000, 4.000000, 4.000000, 4.000000
107.000000, 0.000000, 4201.025391, 4131.794922, 4170.256348, 4185.641113, 4196.922852, 4183.076660, 4171.281738, 4184.102539, 4200.000000, 4195.384277, 4183.589844, 4203.076660, 4158.461426, 4160.512695, 3566.000000, 8463.000000, 8229.000000, 0.000000, 0.000000, 0.000000, -21072.000000, 880.512817, 4.000000, 4.000000, 4.000000, 4.000000, 4.000000, 4.000000, 4.000000, 4.000000, 1.000000, 4.000000, 4.000000, 4.000000, 4.000000, 4.000000, 4.000000, 4.000000
108.000000, 0.000000, 4201.538574, 4131.281738, 4173.846191, 4183.589844, 4194.358887, 4171.281738, 4167.692383, 4187.692383, 4198.974121, 4202.051270, 4188.205078, 4205.127930, 4164.102539, 4160.000000, 3524.000000, 8463.000000, 8229.000000, 0.000000, 0.000000, 0.000000, -21072.000000, 888.205078, 4.000000, 4.000000, 4.000000, 4.000000, 4.000000, 4.000000, 4.000000, 4.000000, 1.000000, 4.000000, 4.000000, 4.000000, 4.000000, 4.000000, 4.000000, 4.000000
109.000000, 0.000000, 4195.897461, 4120.512695, 4174.871582, 4185.127930, 4178.974121, 4165.641113, 4168.717773, 4194.358887, 4190.769043, 4197.436035, 4183.076660, 4208.205078, 4169.743652, 4160.000000, 3463.000000, 8480.000000, 8223.000000, 0.000000, 0.000000, 0.000000, -21072.000000, 896.410217, 4.000000, 4.000000, 4.000000, 4.000000, 4.000000, 4.000000, 4.000000, 4.000000, 1.000000, 4.000000, 4.000000, 4.000000, 4.000000, 4.000000, 4.000000, 4.000000
110.000000, 0.000000, 4193.333008, 4115.384277, 4172.820313, 4183.076660, 4169.743652, 4166.666504, 4164.615234, 4182.051270, 4185.127930, 4187.692383, 4177.948730, 4212.820313, 4171.794922, 4163.589844, 3590.000000, 8480.000000, 8223.000000, 0.000000, 0.000000, 0.000000, -21072.000000, 904.102539, 4.000000, 4.000000, 4.000000, 4.000000, 4.000000, 4.000000, 4.000000, 4.000000, 1.000000, 4.000000, 4.000000, 4.000000, 4.000000, 4.000000, 4.000000, 4.000000
111.000000, 0.000000, 4199.487305, 4117.948730, 4173.846191, 4184.102539, 4182.051270, 4169.743652, 4168.717773, 4177.436035, 4189.743652, 4189.230469, 4182.051270, 4212.307617, 4171.281738, 4168.717773, 3566.000000, 8498.000000, 8221.000000, 0.000000, 0.000000, 0.000000, -21072.000000, 911.794861, 4.000000, 4.000000, 4.000000, 4.000000, 4.000000, 4.000000, 4.000000, 4.000000, 1.000000, 4.000000, 4.000000, 4.000000, 4.000000, 4.000000, 4.000000, 4.000000
112.000000, 0.000000, 4193.846191, 4112.820313, 4175.384277, 4186.666504, 4184.615234, 4170.769043, 4173.333008, 4182.563965, 4193.333008, 4189.743652, 4176.922852, 4203.589844, 4165.641113, 4160.512695, 3524.000000, 8498.000000, 8221.000000, 0.000000, 0.000000, 0.000000, -21072.000000, 919.487183, 4.000000, 4.000000, 4.000000, 4.000000, 4.000000, 4.000000, 4.000000, 4.000000, 1.000000, 4.000000, 4.000000, 4.000000, 4.000000, 4.000000, 4.000000, 4.000000
113.000000, 0.000000, 4179.487305, 4106.666504, 4170.256348, 4182.051270, 4166.666504, 4165.127930, 4158.461426, 4164.615234, 4189.230469, 4181.538574, 4160.000000, 4188.717773, 4147.692383, 4140.512695, 3463.000000, 8535.000000, 8197.000000, 0.000000, 0.000000, 0.000000, -21072.000000, 927.179443, 4.000000, 4.000000, 4.000000, 4.000000, 4.000000, 4.000000, 4.000000, 4.000000, 1.000000, 4.000000, 4.000000, 4.000000, 4.000000, 4.000000, 4.000000, 4.000000
114.000000, 0.000000, 4180.000000, 4110.256348, 4167.179199, 4181.538574, 4170.256348, 4162.563965, 4154.358887, 4150.769043, 4187.179199, 4179.487305, 4154.358887, 4181.025391, 4137.436035, 4132.307617, 3590.000000, 8535.000000, 8197.000000, 0.000000, 0.000000, 0.000000, -21072.000000, 934.871765, 4.000000, 4.000000, 4.000000, 4.000000, 4.000000, 4.000000, 4.000000, 4.000000, 1.000000, 4.000000, 4.000000, 4.000000, 4.000000, 4.000000, 4.000000, 4.000000
115.000000, 0.000000, 4185.641113, 4112.307617, 4169.230469, 4187.692383, 4187.179199, 4167.692383, 4167.692383, 4165.127930, 4189.230469, 4184.615234, 4158.461426, 4185.641113, 4143.589844, 4136.410156, 3566.000000, 8548.000000, 8187.000000, 0.000000, 0.000000, 0.000000, -21072.000000, 943.076904, 4.000000, 4.000000, 4.000000, 4.000000, 4.000000, 4.000000, 4.000000, 4.000000, 1.000000, 4.000000, 4.000000, 4.000000, 4.000000, 4.000000, 4.000000, 4.000000
116.000000, 0.000000, 4184.102539, 4111.794922, 4168.717773, 4187.179199, 4179.487305, 4168.205078, 4165.641113, 4173.333008, 4190.256348, 4186.153809, 4160.512695, 4187.179199, 4147.179199, 4139.487305, 3524.000000, 8548.000000, 8187.000000, 0.000000, 0.000000, 0.000000, -21072.000000, 950.769226, 4.000000, 4.000000, 4.000000, 4.000000, 4.000000, 4.000000, 4.000000, 4.000000, 1.000000, 4.000000, 4.000000, 4.000000, 4.000000, 4.000000, 4.000000, 4.000000
117.000000, 0.000000, 4184.615234, 4114.871582, 4167.179199, 4185.127930, 4170.769043, 4166.666504, 4158.974121, 4166.153809, 4188.205078, 4186.153809, 4165.127930, 4184.615234, 4148.717773, 4138.461426, 3463.000000, 8570.000000, 8171.000000, 0.000000, 0.000000, 0.000000, -21072.000000, 958.461487, 4.000000, 4.000000, 4.000000, 4.000000, 4.000000, 4.000000, 4.000000, 4.000000, 1.000000, 4.000000, 4.000000, 4.000000, 4.000000, 4.000000, 4.000000, 4.000000
118.000000, 0.000000, 4184.615234, 4113.333008, 4166.666504, 4188.717773, 4175.897461, 4170.769043, 4162.563965, 4169.230469, 4186.666504, 4186.666504, 4167.179199, 4186.153809, 4152.307617, 4138.461426, 3590.000000, 8570.000000, 8171.000000, 0.000000, 0.000000, 0.000000, -21072.000000, 966.153809, 4.000000, 4.000000, 4.000000, 4.000000, 4.000000, 4.000000, 4.000000, 4.000000, 1.000000, 4.000000, 4.000000, 4.000000, 4.000000, 4.000000, 4.000000, 4.000000
119.000000, 0.000000, 4183.076660, 4111.794922, 4167.692383, 4187.179199, 4167.692383, 4169.743652, 4158.974121, 4169.743652, 4192.307617, 4183.589844, 4164.102539, 4187.179199, 4152.820313, 4140.000000, 3566.000000, 8579.000000, 8162.000000, 0.000000, 0.000000, 0.000000, -21072.000000, 973.846130, 4.000000, 4.000000, 4.000000, 4.000000, 4.000000, 4.000000, 4.000000, 4.000000, 1.000000, 4.000000, 4.000000, 4.000000, 4.000000, 4.000000, 4.000000, 4.000000
120.000000, 0.000000, 4188.205078, 4114.871582, 4170.769043, 4183.076660, 4168.205078, 4168.717773, 4157.948730, 4158.461426, 4199.487305, 4184.102539, 4167.692383, 4189.230469, 4153.846191, 4140.512695, 3524.000000, 8579.000000, 8162.000000, 0.000000, 0.000000, 0.000000, -21072.000000, 981.538452, 4.000000, 4.000000, 4.000000, 4.000000, 4.000000, 4.000000, 4.000000, 4.000000, 1.000000, 4.000000, 4.000000, 4.000000, 4.000000, 4.000000, 4.000000, 4.000000
121.000000, 0.000000, 4188.717773, 4112.820313, 4170.256348, 4185.127930, 4183.589844, 4173.846191, 4168.717773, 4152.820313, 4200.000000, 4185.641113, 4169.230469, 4194.358887, 4155.897461, 4143.589844, 3463.000000, 8602.000000, 8160.000000, 0.000000, 0.000000, 0.000000, -21072.000000, 989.743591, 4.000000, 4.000000, 4.000000, 4.000000, 4.000000, 4.000000, 4.000000, 4.000000, 1.000000, 4.000000, 4.000000, 4.000000, 4.000000, 4.000000, 4.000000, 4.000000
122.000000, 0.000000, 4186.153809, 4111.281738, 4167.692383, 4185.127930, 4184.102539, 4176.410156, 4171.794922, 4161.538574, 4196.922852, 4184.615234, 4167.692383, 4197.948730, 4159.487305, 4151.281738, 3590.000000, 8602.000000, 8160.000000, 0.000000, 0.000000, 0.000000, -21072.000000, 997.435852, 4.000000, 4.000000, 4.000000, 4.000000, 4.000000, 4.000000, 4.000000, 4.000000, 1.000000, 4.000000, 4.000000, 4.000000, 4.000000, 4.000000, 4.000000, 4.000000
123.000000, 0.000000, 4194.358887, 4117.948730, 4174.871582, 4188.717773, 4180.512695, 4178.461426, 4170.256348, 4175.384277, 4197.436035, 4190.256348, 4173.333008, 4207.692383, 4165.641113, 4162.563965, 3566.000000, 8609.000000, 8159.000000, 0.000000, 0.000000, 0.000000, -21071.000000, 5.128205, 4.000000, 4.000000, 4.000000, 4.000000, 4.000000, 4.000000, 4.000000, 4.000000, 1.000000, 4.000000, 4.000000, 4.000000, 4.000000, 4.000000, 4.000000, 4.000000
124.000000, 0.000000, 4202.051270, 4120.000000, 4183.589844, 4197.948730, 4186.153809, 4177.436035, 4170.769043, 4166.666504, 4198.974121, 4198.974121, 4180.000000, 4215.384277, 4171.281738, 4171.281738, 3524.000000, 8609.000000, 8159.000000, 0.000000, 0.000000, 0.000000, -21071.000000, 12.820513, 4.000000, 4.000000, 4.000000, 4.000000, 4.000000, 4.000000, 4.000000, 4.000000, 1.000000, 4.000000, 4.000000, 4.000000, 4.000000, 4.000000, 4.000000, 4.000000
125.000000, 0.000000, 4201.538574, 4112.307617, 4183.589844, 4196.410156, 4185.641113, 4171.281738, 4166.153809, 4151.281738, 4198.461426, 4200.512695, 4177.436035, 4207.692383, 4173.333008, 4172.820313, 3463.000000, 8606.000000, 8151.000000, 0.000000, 0.000000, 0.000000, -21071.000000, 20.512819, 4.000000, 4.000000, 4.000000, 4.000000, 4.000000, 4.000000, 4.000000, 4.000000, 1.000000, 4.000000, 4.000000, 4.000000, 4.000000, 4.000000, 4.000000, 4.000000
126.000000, 0.000000, 4196.410156, 4107.692383, 4181.538574, 4192.820313, 4182.563965, 4175.897461, 4167.179199, 4158.974121, 4198.461426, 4197.948730, 4172.820313, 4204.102539, 4162.051270, 4169.230469, 3590.000000, 8606.000000, 8151.000000, 0.000000, 0.000000, 0.000000, -21071.000000, 28.205128, 4.000000, 4.000000, 4.000000, 4.000000, 4.000000, 4.000000, 4.000000, 4.000000, 1.000000, 4.000000, 4.000000, 4.000000, 4.000000, 4.000000, 4.000000, 4.000000
127.000000, 0.000000, 4190.256348, 4108.717773, 4184.102539, 4197.436035, 4181.025391, 4182.563965, 4172.307617, 4173.846191, 4197.948730, 4201.025391, 4176.922852, 4214.871582, 4155.384277, 4167.179199, 57.000000, 8610.000000, 8136.000000, 0.000000, 0.000000, 0.000000, -21071.000000, 36.410255, 4.000000, 4.000000, 4.000000, 4.000000, 4.000000, 4.000000, 4.000000, 4.000000, 1.000000, 4.000000, 4.000000, 4.000000, 4.000000, 4.000000, 4.000000, 4.000000
0.000000, 0.000000, 4189.743652, 4104.615234, 4184.102539, 4194.871582, 4169.230469, 4175.897461, 4169.743652, 4169.743652, 4198.461426, 4203.589844, 4185.641113, 4217.436035, 4174.871582, 4170.769043, 3157.000000, 8610.000000, 8136.000000, 0.000000, 0.000000, 0.000000, -21071.000000, 44.102562, 4.000000, 4.000000, 4.000000, 4.000000, 4.000000, 4.000000, 4.000000, 4.000000, 1.000000, 4.000000, 4.000000, 4.000000, 4.000000, 4.000000, 4.000000, 4.000000
1.000000, 0.000000, 4195.384277, 4102.563965, 4178.974121, 4186.153809, 4168.717773, 4174.358887, 4169.230469, 4157.436035, 4197.436035, 4199.487305, 4187.179199, 4211.794922, 4189.743652, 4178.461426, 3525.000000, 8618.000000, 8137.000000, 0.000000, 0.000000, 0.000000, -21071.000000, 51.794872, 4.000000, 4.000000, 4.000000, 4.000000, 4.000000, 4.000000, 4.000000, 4.000000, 1.000000, 4.000000, 4.000000, 4.000000, 4.000000, 4.000000, 4.000000, 4.000000
2.000000, 0.000000, 4200.000000, 4106.153809, 4178.461426, 4187.179199, 4186.153809, 4185.641113, 4171.794922, 4156.922852, 4196.922852, 4196.922852, 4185.641113, 4214.358887, 4184.102539, 4184.615234, 3442.000000, 8618.000000, 8137.000000, 0.000000, 0.000000, 0.000000, -21071.000000, 59.487179, 4.000000, 4.000000, 4.000000, 4.000000, 4.000000, 4.000000, 4.000000, 4.000000, 1.000000, 4.000000, 4.000000, 4.000000, 4.000000, 4.000000, 4.000000, 4.000000
3.000000, 0.000000, 4197.436035, 4103.589844, 4182.051270, 4188.205078, 4188.205078, 4186.666504, 4172.820313, 4165.127930, 4197.436035, 4199.487305, 4188.205078, 4216.410156, 4189.743652, 4186.153809, 2412.000000, 8620.000000, 8123.000000, 0.000000, 0.000000, 0.000000, -21071.000000, 67.692307, 4.000000, 4.000000, 4.000000, 4.000000, 4.000000, 4.000000, 4.000000, 4.000000, 1.000000, 4.000000, 4.000000, 4.000000, 4.000000, 4.000000, 4.000000, 4.000000
4.000000, 0.000000, 4189.743652, 4095.384521, 4185.127930, 4185.127930, 4180.000000, 4182.563965, 4176.410156, 4168.717773, 4197.436035, 4200.512695, 4192.307617, 4213.846191, 4202.563965, 4184.615234, 3437.000000, 8620.000000, 8123.000000, 0.000000, 0.000000, 0.000000, -21071.000000, 75.384613, 4.000000, 4.000000, 4.000000, 4.000000, 4.000000, 4.000000, 4.000000, 4.000000, 1.000000, 4.000000, 4.000000, 4.000000, 4.000000, 4.000000, 4.000000, 4.000000
5.000000, 0.000000, 4184.102539, 4092.820313, 4183.589844, 4186.153809, 4182.563965, 4183.589844, 4178.461426, 4170.769043, 4197.948730, 4200.000000, 4192.820313, 4214.871582, 4199.487305, 4184.615234, 3568.000000, 8624.000000, 8118.000000, 0.000000, 0.000000, 0.000000, -21071.000000, 83.076920, 4.000000, 4.000000, 4.000000, 4.000000, 4.000000, 4.000000, 4.000000, 4.000000, 1.000000, 4.000000, 4.000000, 4.000000, 4.000000, 4.000000, 4.000000, 4.000000
6.000000, 0.000000, 4185.127930, 4091.281982, 4175.897461, 4187.179199, 4183.589844, 4177.436035, 4170.256348, 4175.897461, 4199.487305, 4204.615234, 4192.307617, 4214.871582, 4195.897461, 4185.641113, 3383.000000, 8624.000000, 8118.000000, 0.000000, 0.000000, 0.000000, -21071.000000, 90.769226, 4.000000, 4.000000, 4.000000, 4.000000, 4.000000, 4.000000, 4.000000, 4.000000, 1.000000, 4.000000, 4.000000, 4.000000, 4.000000, 4.000000, 4.000000, 4.000000
7.000000, 0.000000, 4180.000000, 4085.640869, 4168.205078, 4183.076660, 4175.897461, 4169.230469, 4168.205078, 4172.307617, 4199.487305, 4205.127930, 4188.717773, 4207.179199, 4193.846191, 4180.512695, 3415.000000, 8625.000000, 8107.000000, 0.000000, 0.000000, 0.000000, -21071.000000, 98.461533, 4.000000, 4.000000, 4.000000, 4.000000, 4.000000, 4.000000, 4.000000, 4.000000, 1.000000, 4.000000, 4.000000, 4.000000, 4.000000, 4.000000, 4.000000, 4.000000
8.000000, 0.000000, 4171.281738, 4078.461426, 4169.743652, 4181.025391, 4163.589844, 4175.384277, 4177.948730, 4160.000000, 4197.948730, 4198.974121, 4184.615234, 4201.538574, 4186.153809, 4170.256348, 88.000000, 8625.000000, 8107.000000, 0.000000, 0.000000, 0.000000, -21071.000000, 106.666664, 4.000000, 4.000000, 4.000000, 4.000000, 4.000000, 4.000000, 4.000000, 4.000000, 1.000000, 4.000000, 4.000000, 4.000000, 4.000000, 4.000000, 4.000000, 4.000000
9.000000, 0.000000, 4176.410156, 4077.948730, 4178.974121, 4183.076660, 4160.000000, 4183.589844, 4183.589844, 4162.051270, 4197.436035, 4195.384277, 4184.102539, 4208.205078, 4184.102539, 4168.205078, 2842.000000, 8632.000000, 8086.000000, 0.000000, 0.000000, 0.000000, -21071.000000, 114.358971, 4.000000, 4.000000, 4.000000, 4.000000, 4.000000, 4.000000, 4.000000, 4.000000, 1.000000, 4.000000, 4.000000, 4.000000, 4.000000, 4.000000, 4.000000, 4.000000
10.000000, 0.000000, 4185.641113, 4086.153809, 4184.102539, 4185.641113, 4175.384277, 4184.615234, 4182.051270, 4166.666504, 4197.436035, 4198.974121, 4185.127930, 4214.871582, 4186.666504, 4175.897461, 3591.000000, 8632.000000, 8086.000000, 0.000000, 0.000000, 0.000000, -21071.000000, 122.051277, 4.000000, 4.000000, 4.000000, 4.000000, 4.000000, 4.000000, 4.000000, 4.000000, 1.000000, 4.000000, 4.000000, 4.000000, 4.000000, 4.000000, 4.000000, 4.000000
11.000000, 0.000000, 4191.794922, 4090.256348, 4187.179199, 4191.281738, 4189.230469, 4184.102539, 4184.102539, 4158.461426, 4197.436035, 4200.512695, 4189.743652, 4214.358887, 4188.717773, 4184.615234, 3565.000000, 8633.000000, 8083.000000, 0.000000, 0.000000, 0.000000, -21071.000000, 129.743591, 4.000000, 4.000000, 4.000000, 4.000000, 4.000000, 4.000000, 4.000000, 4.000000, 1.000000, 4.000000, 4.000000, 4.000000, 4.000000, 4.000000, 4.000000, 4.000000
12.000000, 0.000000, 4198.974121, 4087.179443, 4195.384277, 4200.000000, 4184.615234, 4185.127930, 4186.666504, 4154.871582, 4197.436035, 4197.436035, 4190.769043, 4215.384277, 4191.794922, 4193.333008, 3524.000000, 8633.000000, 8083.000000, 0.000000, 0.000000, 0.000000, -21071.000000, 137.435898, 4.000000, 4.000000, 4.000000, 4.000000, 4.000000, 4.000000, 4.000000, 4.000000, 1.000000, 4.000000, 4.000000, 4.000000, 4.000000, 4.000000, 4.000000, 4.000000
13.000000, 0.000000, 4203.589844, 4085.640869, 4204.102539, 4205.641113, 4178.974121, 4184.615234, 4183.076660, 4161.538574, 4196.922852, 4196.410156, 4186.153809, 4219.487305, 4194.871582, 4195.384277, 3463.000000, 8622.000000, 8078.000000, 0.000000, 0.000000, 0.000000, -21071.000000, 145.641022, 4.000000, 4.000000, 4.000000, 4.000000, 4.000000, 4.000000, 4.000000, 4.000000, 1.000000, 4.000000, 4.000000, 4.000000, 4.000000, 4.000000, 4.000000, 4.000000
14.000000, 0.000000, 4202.563965, 4087.179443, 4198.974121, 4200.512695, 4186.666504, 4187.179199, 4184.102539, 4167.692383, 4197.948730, 4200.512695, 4190.256348, 4222.563965, 4199.487305, 4193.333008, 3591.000000, 8622.000000, 8078.000000, 0.000000, 0.000000, 0.000000, -21071.000000, 153.333328, 4.000000, 4.000000, 4.000000, 4.000000, 4.000000, 4.000000, 4.000000, 4.000000, 1.000000, 4.000000, 4.000000, 4.000000, 4.000000, 4.000000, 4.000000, 4.000000
15.000000, 0.000000, 4195.384277, 4082.051270, 4189.743652, 4187.179199, 4183.076660, 4190.769043, 4194.358887, 4174.871582, 4199.487305, 4207.692383, 4199.487305, 4226.666504, 4201.025391, 4196.922852, 3565.000000, 8615.000000, 8067.000000, 0.000000, 0.000000, 0.000000, -21071.000000, 161.025635, 4.000000, 4.000000, 4.000000, 4.000000, 4.000000, 4.000000, 4.000000, 4.000000, 1.000000, 4.000000, 4.000000, 4.000000, 4.000000, 4.000000, 4.000000, 4.000000
16.000000, 0.000000, 4187.179199, 4074.871582, 4190.256348, 4187.179199, 4167.179199, 4190.769043, 4198.974121, 4184.615234, 4199.487305, 4215.384277, 4203.589844, 4230.256348, 4202.051270, 4200.512695, 0.000000, 8615.000000, 8067.000000, 0.000000, 0.000000, 0.000000, -21071.000000, 168.717941, 4.000000, 4.000000, 4.000000, 4.000000, 4.000000, 4.000000, 4.000000, 4.000000, 1.000000, 4.000000, 4.000000, 4.000000, 4.000000, 4.000000, 4.000000, 4.000000
17.000000, 0.000000, 4189.230469, 4078.461426, 4192.820313, 4195.384277, 4172.307617, 4197.948730, 4204.102539, 4193.846191, 4198.461426, 4218.974121, 4210.256348, 4230.769043, 4209.230469, 4204.102539, 0.000000, 8603.000000, 8055.000000, 0.000000, 0.000000, 0.000000, -21071.000000, 176.410248, 4.000000, 4.000000, 4.000000, 4.000000, 4.000000, 4.000000, 4.000000, 4.000000, 1.000000, 4.000000, 4.000000, 4.000000, 4.000000, 4.000000, 4.000000, 4.000000
18.000000, 0.000000, 4200.000000, 4086.666504, 4193.333008, 4191.794922, 4188.205078, 4205.641113, 4217.436035, 4198.974121, 4198.974121, 4218.461426, 4220.000000, 4233.846191, 4218.974121, 4213.333008, 0.000000, 8603.000000, 8055.000000, 0.000000, 0.000000, 0.000000, -21071.000000, 184.615387, 4.000000, 4.000000, 4.000000, 4.000000, 4.000000, 4.000000, 4.000000, 4.000000, 1.000000, 4.000000, 4.000000, 4.000000, 4.000000, 4.000000, 4.000000, 4.000000
19.000000, 0.000000, 4204.615234, 4088.205078, 4197.436035, 4186.153809, 4188.717773, 4203.076660, 4217.436035, 4199.487305, 4198.974121, 4223.589844, 4223.076660, 4245.127930, 4224.102539, 4222.051270, 0.000000, 8580.000000, 8017.000000, 0.000000, 0.000000, 0.000000, -21071.000000, 192.307693, 4.000000, 4.000000, 4.000000, 4.000000, 4.000000, 4.000000, 4.000000, 4.000000, 1.000000, 4.000000, 4.000000, 4.000000, 4.000000, 4.000000, 4.000000, 4.000000
20.000000, 0.000000, 4199.487305, 4078.461426, 4198.974121, 4188.205078, 4182.563965, 4202.051270, 4209.230469, 4197.948730, 4197.948730, 4227.692383, 4220.512695, 4248.717773, 4221.025391, 4216.410156, 0.000000, 8580.000000, 8017.000000, 0.000000, 0.000000, 0.000000, -21071.000000, 200.000000, 4.000000, 4.000000, 4.000000, 4.000000, 4.000000, 4.000000, 4.000000, 4.000000, 1.000000, 4.000000, 4.000000, 4.000000, 4.000000, 4.000000, 4.000000, 4.000000
21.000000, 0.000000, 4193.333008, 4074.871582, 4193.333008, 4188.205078, 4183.076660, 4206.666504, 4213.846191, 4194.358887, 4198.461426, 4221.025391, 4218.461426, 4236.410156, 4217.436035, 4207.692383, 0.000000, 8571.000000, 7998.000000, 0.000000, 0.000000, 0.000000, -21071.000000, 207.692307, 4.000000, 4.000000, 4.000000, 4.000000, 4.000000, 4.000000, 4.000000, 4.000000, 1.000000, 4.000000, 4.000000, 4.000000, 4.000000, 4.000000, 4.000000, 4.000000
22.000000, 0.000000, 4188.205078, 4076.923096, 4188.717773, 4183.589844, 4175.897461, 4205.127930, 4220.000000, 4188.205078, 4198.461426, 4214.358887, 4209.743652, 4225.127930, 4209.230469, 4203.076660, 0.000000, 8571.000000, 7998.000000, 0.000000, 0.000000, 0.000000, -21071.000000, 215.384613, 4.000000, 4.000000, 4.000000, 4.000000, 4.000000, 4.000000, 4.000000, 4.000000, 1.000000, 4.000000, 4.000000, 4.000000, 4.000000, 4.000000, 4.000000, 4.000000
23.000000, 0.000000, 4185.641113, 4072.307617, 4186.666504, 4181.538574, 4165.641113, 4201.025391, 4217.948730, 4187.692383, 4196.410156, 4213.333008, 4200.000000, 4226.666504, 4195.384277, 4195.897461, 0.000000, 8562.000000, 7979.000000, 0.000000, 0.000000, 0.000000, -21071.000000, 223.589737, 4.000000, 4.000000, 4.000000, 4.000000, 4.000000, 4.000000, 4.000000, 4.000000, 1.000000, 4.000000, 4.000000, 4.000000, 4.000000, 4.000000, 4.000000, 4.000000
24.000000, 0.000000, 4191.794922, 4072.307617, 4186.153809, 4182.563965, 4169.230469, 4202.563965, 4216.922852, 4185.127930, 4191.794922, 4215.384277, 4206.666504, 4232.307617, 4202.051270, 4202.051270, 0.000000, 8562.000000, 7979.000000, 0.000000, 0.000000, 0.000000, -21071.000000, 231.282043, 4.000000, 4.000000, 4.000000, 4.000000, 4.000000, 4.000000, 4.000000, 4.000000, 1.000000, 4.000000, 4.000000, 4.000000, 4.000000, 4.000000, 4.000000, 4.000000
25.000000, 0.000000, 4195.384277, 4080.512695, 4186.153809, 4182.563965, 4172.820313, 4201.538574, 4210.769043, 4172.307617, 4189.230469, 4217.948730, 4218.461426, 4232.307617, 4225.641113, 4213.333008, 0.000000, 8563.000000, 7978.000000, 0.000000, 0.000000, 0.000000, -21071.000000, 238.974350, 4.000000, 4.000000, 4.000000, 4.000000, 4.000000, 4.000000, 4.000000, 4.000000, 1.000000, 4.000000, 4.000000, 4.000000, 4.000000, 4.000000, 4.000000, 4.000000
26.000000, 0.000000, 4188.717773, 4077.948730, 4178.461426, 4176.410156, 4169.743652, 4200.000000, 4198.974121, 4166.153809, 4193.333008, 4217.948730, 4215.897461, 4229.743652, 4232.307617, 4211.281738, 0.000000, 8563.000000, 7978.000000, 0.000000, 0.000000, 0.000000, -21071.000000, 246.666656, 4.000000, 4.000000, 4.000000, 4.000000, 4.000000, 4.000000, 4.000000, 4.000000, 1.000000, 4.000000, 4.000000, 4.000000, 4.000000, 4.000000, 4.000000, 4.000000
27.000000, 0.000000, 4184.102539, 4066.666504, 4176.410156, 4174.871582, 4165.127930, 4195.384277, 4195.897461, 4166.153809, 4198.974121, 4214.871582, 4210.256348, 4228.205078, 4228.205078, 4207.179199, 0.000000, 8546.000000, 7987.000000, 0.000000, 0.000000, 0.000000, -21071.000000, 254.358963, 4.000000, 4.000000, 4.000000, 4.000000, 4.000000, 4.000000, 4.000000, 4.000000, 1.000000, 4.000000, 4.000000, 4.000000, 4.000000, 4.000000, 4.000000, 4.000000
28.000000, 0.000000, 4188.717773, 4068.717773, 4183.076660, 4183.589844, 4167.179199, 4190.256348, 4197.948730, 4164.615234, 4200.000000, 4218.461426, 4215.897461, 4230.256348, 4231.281738, 4215.384277, 0.000000, 8546.000000, 7987.000000, 0.000000, 0.000000, 0.000000, -21071.000000, 262.564087, 4.000000, 4.000000, 4.000000, 4.000000, 4.000000, 4.000000, 4.000000, 4.000000, 1.000000, 4.000000, 4.000000, 4.000000, 4.000000, 4.000000, 4.000000, 4.000000
29.000000, 0.000000, 4188.717773, 4073.845947, 4186.666504, 4186.153809, 4171.794922, 4195.384277, 4201.538574, 4166.666504, 4198.974121, 4226.666504, 4219.487305, 4231.794922, 4231.281738, 4216.922852, 0.000000, 8529.000000, 7990.000000, 0.000000, 0.000000, 0.000000, -21071.000000, 270.256409, 4.000000, 4.000000, 4.000000, 4.000000, 4.000000, 4.000000, 4.000000, 4.000000, 1.000000, 4.000000, 4.000000, 4.000000, 4.000000, 4.000000, 4.000000, 4.000000
30.000000, 0.000000, 4187.692383, 4073.845947, 4185.641113, 4185.127930, 4168.205078, 4205.127930, 4205.127930, 4171.794922, 4198.974121, 4228.717773, 4217.436035, 4227.179199, 4229.743652, 4209.743652, 0.000000, 8529.000000, 7990.000000, 0.000000, 0.000000, 0.000000, -21071.000000, 277.948700, 4.000000, 4.000000, 4.000000, 4.000000, 4.000000, 4.000000, 4.000000, 4.000000, 1.000000, 4.000000, 4.000000, 4.000000, 4.000000, 4.000000, 4.000000, 4.000000
31.000000, 0.000000, 4192.307617, 4075.897217, 4184.615234, 4188.205078, 4167.692383, 4205.127930, 4204.102539, 4170.769043, 4198.974121, 4223.589844, 4216.922852, 4222.563965, 4231.794922, 4209.743652, 0.000000, 8507.000000, 7996.000000, 0.000000, 0.000000, 0.000000, -21071.000000, 285.641022, 4.000000, 4.000000, 4.000000, 4.000000, 4.000000, 4.000000, 4.000000, 4.000000, 1.000000, 4.000000, 4.000000, 4.000000, 4.000000, 4.000000, 4.000000, 4.000000
32.000000, 0.000000, 4189.743652, 4076.923096, 4184.615234, 4183.589844, 4175.897461, 4201.025391, 4202.051270, 4156.922852, 4197.436035, 4214.871582, 4210.769043, 4217.948730, 4220.512695, 4207.692383, 0.000000, 8507.000000, 7996.000000, 0.000000, 0.000000, 0.000000, -21071.000000, 293.333313, 4.000000, 4.000000, 4.000000, 4.000000, 4.000000, 4.000000, 4.000000, 4.000000, 1.000000, 4.000000, 4.000000, 4.000000, 4.000000, 4.000000, 4.000000, 4.000000
33.000000, 0.000000, 4186.666504, 4075.384521, 4185.127930, 4174.871582, 4177.436035, 4202.563965, 4198.461426, 4140.512695, 4196.922852, 4206.666504, 4204.615234, 4216.410156, 4208.717773, 4203.589844, 0.000000, 8434.000000, 8016.000000, 0.000000, 0.000000, 0.000000, -21071.000000, 301.025635, 4.000000, 4.000000, 4.000000, 4.000000, 4.000000, 4.000000, 4.000000, 4.000000, 1.000000, 4.000000, 4.000000, 4.000000, 4.000000, 4.000000, 4.000000, 4.000000
34.000000, 0.000000, 4185.127930, 4074.871582, 4180.000000, 4171.794922, 4168.205078, 4196.922852, 4191.281738, 4135.384277, 4196.922852, 4201.538574, 4200.512695, 4212.307617, 4206.153809, 4198.974121, 0.000000, 8434.000000, 8016.000000, 0.000000, 0.000000, 0.000000, -21071.000000, 309.230774, 4.000000, 4.000000, 4.000000, 4.000000, 4.000000, 4.000000, 4.000000, 4.000000, 1.000000, 4.000000, 4.000000, 4.000000, 4.000000, 4.000000, 4.000000, 4.000000
35.000000, 0.000000, 4180.512695, 4074.871582, 4173.333008, 4170.256348, 4164.102539, 4185.641113, 4186.153809, 4131.794922, 4197.436035, 4197.436035, 4190.256348, 4202.563965, 4195.384277, 4192.820313, 0.000000, 8394.000000, 8032.000000, 0.000000, 0.000000, 0.000000, -21071.000000, 316.923065, 4.000000, 4.000000, 4.000000, 4.000000, 4.000000, 4.000000, 4.000000, 4.000000, 1.000000, 4.000000, 4.000000, 4.000000, 4.000000, 4.000000, 4.000000, 4.000000
36.000000, 0.000000, 4179.487305, 4073.333252, 4176.410156, 4169.230469, 4169.230469, 4182.563965, 4184.102539, 4126.153809, 4196.410156, 4195.384277, 4186.153809, 4203.589844, 4189.230469, 4193.846191, 0.000000, 8394.000000, 8032.000000, 0.000000, 0.000000, 0.000000, -21071.000000, 324.615387, 4.000000, 4.000000, 4.000000, 4.000000, 4.000000, 4.000000, 4.000000, 4.000000, 1.000000, 4.000000, 4.000000, 4.000000, 4.000000, 4.000000, 4.000000, 4.000000
37.000000, 0.000000, 4186.153809, 4077.435791, 4186.153809, 4171.281738, 4172.820313, 4187.179199, 4183.076660, 4137.948730, 4197.436035, 4200.512695, 4200.000000, 4216.922852, 4196.922852, 4203.076660, 0.000000, 8322.000000, 8089.000000, 0.000000, 0.000000, 0.000000, -21071.000000, 332.307678, 4.000000, 4.000000, 4.000000, 4.000000, 4.000000, 4.000000, 4.000000, 4.000000, 1.000000, 4.000000, 4.000000, 4.000000, 4.000000, 4.000000, 4.000000, 4.000000
38.000000, 0.000000, 4191.281738, 4077.435791, 4184.615234, 4173.333008, 4179.487305, 4194.871582, 4184.615234, 4152.307617, 4200.512695, 4203.076660, 4204.615234, 4222.563965, 4193.846191, 4205.127930, 0.000000, 8322.000000, 8089.000000, 0.000000, 0.000000, 0.000000, -21071.000000, 340.512817, 4.000000, 4.000000, 4.000000, 4.000000, 4.000000, 4.000000, 4.000000, 4.000000, 1.000000, 4.000000, 4.000000, 4.000000, 4.000000, 4.000000, 4.000000, 4.000000
39.000000, 0.000000, 4182.051270, 4067.692139, 4172.307617, 4170.256348, 4186.153809, 4200.512695, 4190.256348, 4158.461426, 4201.025391, 4193.333008, 4186.666504, 4212.307617, 4173.333008, 4191.281738, 0.000000, 8284.000000, 8127.000000, 0.000000, 0.000000, 0.000000, -21071.000000, 348.205109, 4.000000, 4.000000, 4.000000, 4.000000, 4.000000, 4.000000, 4.000000, 4.000000, 1.000000, 4.000000, 4.000000, 4.000000, 4.000000, 4.000000, 4.000000, 4.000000
40.000000, 0.000000, 4170.769043, 4064.102539, 4171.281738, 4167.179199, 4175.384277, 4204.615234, 4198.461426, 4178.461426, 4198.974121, 4189.743652, 4177.948730, 4204.615234, 4162.563965, 4181.025391, 0.000000, 8284.000000, 8127.000000, 0.000000, 0.000000, 0.000000, -21071.000000, 355.897430, 4.000000, 4.000000, 4.000000, 4.000000, 4.000000, 4.000000, 4.000000, 4.000000, 1.000000, 4.000000, 4.000000, 4.000000, 4.000000, 4.000000, 4.000000, 4.000000
41.000000, 0.000000, 4173.846191, 4069.743408, 4182.051270, 4174.358887, 4164.615234, 4204.102539, 4204.615234, 4193.846191, 4200.512695, 4200.000000, 4190.769043, 4209.230469, 4173.846191, 4188.205078, 0.000000, 8250.000000, 8157.000000, 0.000000, 0.000000, 0.000000, -21071.000000, 363.589722, 4.000000, 4.000000, 4.000000, 4.000000, 4.000000, 4.000000, 4.000000, 4.000000, 1.000000, 4.000000, 4.000000, 4.000000, 4.000000, 4.000000, 4.000000, 4.000000
42.000000, 0.000000, 4184.102539, 4073.845947, 4187.692383, 4183.076660, 4175.897461, 4202.563965, 4203.076660, 4177.436035, 4198.461426, 4209.230469, 4204.615234, 4218.461426, 4190.256348, 4200.000000, 0.000000, 8250.000000, 8157.000000, 0.000000, 0.000000, 0.000000, -21071.000000, 371.282043, 4.000000, 4.000000, 4.000000, 4.000000, 4.000000, 4.000000, 4.000000, 4.000000, 1.000000, 4.000000, 4.000000, 4.000000, 4.000000, 4.000000, 4.000000, 4.000000
43.000000, 0.000000, 4185.127930, 4075.897217, 4183.076660, 4184.615234, 4189.230469, 4201.538574, 4201.538574, 4162.051270, 4192.820313, 4213.846191, 4211.794922, 4226.666504, 4201.025391, 4202.563965, 0.000000, 8213.000000, 8219.000000, 0.000000, 0.000000, 0.000000, -21071.000000, 379.487183, 4.000000, 4.000000, 4.000000, 4.000000, 4.000000, 4.000000, 4.000000, 4.000000, 1.000000, 4.000000, 4.000000, 4.000000, 4.000000, 4.000000, 4.000000, 4.000000
44.000000, 0.000000, 4180.512695, 4075.897217, 4182.563965, 4183.589844, 4184.102539, 4201.538574, 4205.127930, 4171.281738, 4195.384277, 4215.897461, 4216.410156, 4231.281738, 4206.153809, 4205.127930, 0.000000, 8213.000000, 8219.000000, 0.000000, 0.000000, 0.000000, -21071.000000, 387.179474, 4.000000, 4.000000, 4.000000, 4.000000, 4.000000, 4.000000, 4.000000, 4.000000, 1.000000, 4.000000, 4.000000, 4.000000, 4.000000, 4.000000, 4.000000, 4.000000
45.000000, 0.000000, 4178.974121, 4070.256348, 4184.615234, 4183.076660, 4180.000000, 4201.025391, 4203.076660, 4171.794922, 4201.025391, 4213.846191, 4210.256348, 4228.205078, 4204.102539, 4208.717773, 0.000000, 8200.000000, 8251.000000, 0.000000, 0.000000, 0.000000, -21071.000000, 394.871796, 4.000000, 4.000000, 4.000000, 4.000000, 4.000000, 4.000000, 4.000000, 4.000000, 1.000000, 4.000000, 4.000000, 4.000000, 4.000000, 4.000000, 4.000000, 4.000000
46.000000, 0.000000, 4180.512695, 4064.615234, 4181.538574, 4185.127930, 4180.512695, 4197.948730, 4197.948730, 4151.281738, 4199.487305, 4212.820313, 4202.051270, 4223.076660, 4202.563965, 4206.666504, 0.000000, 8200.000000, 8251.000000, 0.000000, 0.000000, 0.000000, -21071.000000, 402.564087, 4.000000, 4.000000, 4.000000, 4.000000, 4.000000, 4.000000, 4.000000, 4.000000, 1.000000, 4.000000, 4.000000, 4.000000, 4.000000, 4.000000, 4.000000, 4.000000
47.000000, 0.000000, 4184.102539, 4068.205078, 4183.589844, 4189.230469, 4174.358887, 4198.461426, 4200.512695, 4148.205078, 4196.922852, 4217.436035, 4208.717773, 4228.205078, 4211.281738, 4210.769043, 0.000000, 8198.000000, 8334.000000, 0.000000, 0.000000, 0.000000, -21071.000000, 410.256409, 4.000000, 4.000000, 4.000000, 4.000000, 4.000000, 4.000000, 4.000000, 4.000000, 1.000000, 4.000000, 4.000000, 4.000000, 4.000000, 4.000000, 4.000000, 4.000000
48.000000, 0.000000, 4183.589844, 4070.256348, 4188.205078, 4189.743652, 4169.743652, 4200.000000, 4198.974121, 4170.769043, 4198.461426, 4220.512695, 4216.410156, 4233.333008, 4218.461426, 4212.307617, 0.000000, 8198.000000, 8334.000000, 0.000000, 0.000000, 0.000000, -21071.000000, 417.948700, 4.000000, 4.000000, 4.000000, 4.000000, 4.000000, 4.000000, 4.000000, 4.000000, 1.000000, 4.000000, 4.000000, 4.000000, 4.000000, 4.000000, 4.000000, 4.000000
49.000000, 0.000000, 4182.563965, 4064.615234, 4185.127930, 4183.589844, 4171.281738, 4199.487305, 4192.820313, 4176.410156, 4200.000000, 4218.974121, 4213.846191, 4232.307617, 4215.897461, 4204.615234, 0.000000, 8211.000000, 8373.000000, 0.000000, 0.000000, 0.000000, -21071.000000, 426.153839, 4.000000, 4.000000, 4.000000, 4.000000, 4.000000, 4.000000, 4.000000, 4.000000, 1.000000, 4.000000, 4.000000, 4.000000, 4.000000, 4.000000, 4.000000, 4.000000
50.000000, 0.000000, 4186.153809, 4063.589600, 4186.666504, 4186.153809, 4163.076660, 4196.410156, 4189.230469, 4155.897461, 4198.974121, 4217.948730, 4213.846191, 4233.846191, 4216.922852, 4207.692383, 0.000000, 8211.000000, 8373.000000, 0.000000, 0.000000, 0.000000, -21071.000000, 433.846130, 4.000000, 4.000000, 4.000000, 4.000000, 4.000000, 4.000000, 4.000000, 4.000000, 1.000000, 4.000000, 4.000000, 4.000000, 4.000000, 4.000000, 4.000000, 4.000000
51.000000, 0.000000, 4187.179199, 4064.102539, 4197.436035, 4195.384277, 4151.794922, 4193.846191, 4188.205078, 4148.205078, 4196.410156, 4216.922852, 4213.333008, 4235.897461, 4218.461426, 4215.384277, 0.000000, 8285.000000, 8415.000000, 0.000000, 0.000000, 0.000000, -21071.000000, 441.538452, 4.000000, 4.000000, 4.000000, 4.000000, 4.000000, 4.000000, 4.000000, 4.000000, 1.000000, 4.000000, 4.000000, 4.000000, 4.000000, 4.000000, 4.000000, 4.000000
52.000000, 0.000000, 4176.922852, 4055.384521, 4196.410156, 4192.820313, 4153.846191, 4195.384277, 4191.281738, 4161.025391, 4197.948730, 4215.384277, 4204.102539, 4232.820313, 4207.179199, 4209.743652, 0.000000, 8285.000000, 8415.000000, 0.000000, 0.000000, 0.000000, -21071.000000, 449.230743, 4.000000, 4.000000, 4.000000, 4.000000, 4.000000, 4.000000, 4.000000, 4.000000, 1.000000, 4.000000, 4.000000, 4.000000, 4.000000, 4.000000, 4.000000, 4.000000
53.000000, 0.000000, 4168.717773, 4049.230713, 4186.666504, 4187.692383, 4158.974121, 4201.025391, 4201.025391, 4163.076660, 4195.897461, 4219.487305, 4200.512695, 4231.794922, 4197.436035, 4204.615234, 0.000000, 8310.000000, 8398.000000, 0.000000, 0.000000, 0.000000, -21071.000000, 456.923065, 4.000000, 4.000000, 4.000000, 4.000000, 4.000000, 4.000000, 4.000000, 4.000000, 1.000000, 4.000000, 4.000000, 4.000000, 4.000000, 4.000000, 4.000000, 4.000000
54.000000, 0.000000, 4173.846191, 4056.923096, 4186.666504, 4194.358887, 4157.436035, 4200.000000, 4204.615234, 4147.692383, 4189.743652, 4217.948730, 4205.641113, 4231.794922, 4197.436035, 4209.743652, 0.000000, 8310.000000, 8398.000000, 0.000000, 0.000000, 0.000000, -21071.000000, 465.128204, 4.000000, 4.000000, 4.000000, 4.000000, 4.000000, 4.000000, 4.000000, 4.000000, 1.000000, 4.000000, 4.000000, 4.000000, 4.000000, 4.000000, 4.000000, 4.000000
55.000000, 0.000000, 4171.794922, 4060.512695, 4183.076660, 4194.358887, 4153.333008, 4189.743652, 4196.410156, 4136.922852, 4192.307617, 4205.127930, 4199.487305, 4222.051270, 4182.051270, 4201.538574, 0.000000, 8330.000000, 8361.000000, 0.000000, 0.000000, 0.000000, -21071.000000, 472.820496, 4.000000, 4.000000, 4.000000, 4.000000, 4.000000, 4.000000, 4.000000, 4.000000, 1.000000, 4.000000, 4.000000, 4.000000, 4.000000, 4.000000, 4.000000, 4.000000
56.000000, 0.000000, 4155.897461, 4058.974365, 4172.820313, 4184.615234, 4142.563965, 4184.102539, 4186.153809, 4142.563965, 4199.487305, 4205.641113, 4190.256348, 4211.281738, 4158.461426, 4187.179199, 0.000000, 8330.000000, 8361.000000, 0.000000, 0.000000, 0.000000, -21071.000000, 480.512817, 4.000000, 4.000000, 4.000000, 4.000000, 4.000000, 4.000000, 4.000000, 4.000000, 1.000000, 4.000000, 4.000000, 4.000000, 4.000000, 4.000000, 4.000000, 4.000000
57.000000, 0.000000, 4154.358887, 4066.153809, 4169.230469, 4182.563965, 4136.410156, 4185.641113, 4181.538574, 4153.846191, 4200.000000, 4215.897461, 4194.358887, 4212.307617, 4148.205078, 4188.205078, 0.000000, 8352.000000, 8279.000000, 0.000000, 0.000000, 0.000000, -21071.000000, 488.205109, 4.000000, 4.000000, 4.000000, 4.000000, 4.000000, 4.000000, 4.000000, 4.000000, 1.000000, 4.000000, 4.000000, 4.000000, 4.000000, 4.000000, 4.000000, 4.000000
58.000000, 0.000000, 4161.025391, 4082.051270, 4169.743652, 4183.589844, 4142.563965, 4189.743652, 4191.794922, 4159.487305, 4197.436035, 4214.358887, 4200.000000, 4215.897461, 4144.615234, 4194.871582, 0.000000, 8352.000000, 8279.000000, 0.000000, 0.000000, 0.000000, -21071.000000, 495.897430, 4.000000, 4.000000, 4.000000, 4.000000, 4.000000, 4.000000, 4.000000, 4.000000, 1.000000, 4.000000, 4.000000, 4.000000, 4.000000, 4.000000, 4.000000, 4.000000
59.000000, 0.000000, 4157.948730, 4089.743408, 4169.743652, 4181.025391, 4135.384277, 4190.256348, 4201.025391, 4161.025391, 4199.487305, 4211.281738, 4200.512695, 4219.487305, 4138.461426, 4195.384277, 0.000000, 8350.000000, 8254.000000, 0.000000, 0.000000, 0.000000, -21071.000000, 504.102539, 4.000000, 4.000000, 4.000000, 4.000000, 4.000000, 4.000000, 4.000000, 4.000000, 1.000000, 4.000000, 4.000000, 4.000000, 4.000000, 4.000000, 4.000000, 4.000000
60.000000, 0.000000, 4161.538574, 4091.281982, 4176.410156, 4184.102539, 4127.692383, 4186.153809, 4189.230469, 4157.436035, 4198.974121, 4215.384277, 4202.563965, 4223.589844, 4140.512695, 4196.922852, 0.000000, 8350.000000, 8254.000000, 0.000000, 0.000000, 0.000000, -21071.000000, 511.794861, 4.000000, 4.000000, 4.000000, 4.000000, 4.000000, 4.000000, 4.000000, 4.000000, 1.000000, 4.000000, 4.000000, 4.000000, 4.000000, 4.000000, 4.000000, 4.000000
61.000000, 0.000000, 4166.153809, 4094.358887, 4184.102539, 4185.641113, 4138.461426, 4184.615234, 4185.127930, 4154.358887, 4196.410156, 4214.871582, 4197.436035, 4222.563965, 4141.538574, 4195.384277, 0.000000, 8329.000000, 8236.000000, 0.000000, 0.000000, 0.000000, -21071.000000, 519.487183, 4.000000, 4.000000, 4.000000, 4.000000, 4.000000, 4.000000, 4.000000, 4.000000, 1.000000, 4.000000, 4.000000, 4.000000, 4.000000, 4.000000, 4.000000, 4.000000
62.000000, 0.000000, 4156.922852, 4094.871582, 4182.051270, 4182.563965, 4143.076660, 4188.205078, 4191.794922, 4153.846191, 4198.461426, 4212.307617, 4190.256348, 4219.487305, 4132.820313, 4189.230469, 0.000000, 8329.000000, 8236.000000, 0.000000, 0.000000, 0.000000, -21071.000000, 527.179504, 4.000000, 4.000000, 4.000000, 4.000000, 4.000000, 4.000000, 4.000000, 4.000000, 1.000000, 4.000000, 4.000000, 4.000000, 4.000000, 4.000000, 4.000000, 4.000000
63.000000, 0.000000, 4149.743652, 4096.410156, 4177.436035, 4183.589844, 4135.897461, 4184.102539, 4188.205078, 4150.769043, 4197.436035, 4213.333008, 4194.871582, 4217.436035, 4134.871582, 4191.281738, 0.000000, 8321.000000, 8225.000000, 0.000000, 0.000000, 0.000000, -21071.000000, 534.871765, 4.000000, 4.000000, 4.000000, 4.000000, 4.000000, 4.000000, 4.000000, 4.000000, 1.000000, 4.000000, 4.000000, 4.000000, 4.000000, 4.000000, 4.000000, 4.000000
64.000000, 0.000000, 4150.256348, 4100.512695, 4178.461426, 4184.615234, 4138.461426, 4173.333008, 4180.000000, 4149.230469, 4194.871582, 4212.820313, 4199.487305, 4217.436035, 4147.179199, 4197.436035, 3156.000000, 8321.000000, 8225.000000, 0.000000, 0.000000, 0.000000, -21071.000000, 543.076904, 4.000000, 4.000000, 4.000000, 4.000000, 4.000000, 4.000000, 4.000000, 4.000000, 1.000000, 4.000000, 4.000000, 4.000000, 4.000000, 4.000000, 4.000000, 4.000000
65.000000, 0.000000, 4145.127930, 4102.051270, 4184.102539, 4184.102539, 4140.000000, 4170.769043, 4181.025391, 4151.794922, 4196.410156, 4217.436035, 4200.512695, 4225.641113, 4147.692383, 4197.948730, 3523.000000, 8305.000000, 8213.000000, 0.000000, 0.000000, 0.000000, -21071.000000, 550.769226, 4.000000, 4.000000, 4.000000, 4.000000, 4.000000, 4.000000, 4.000000, 4.000000, 1.000000, 4.000000, 4.000000, 4.000000, 4.000000, 4.000000, 4.000000, 4.000000
66.000000, 0.000000, 4141.538574, 4097.436035, 4186.153809, 4183.589844, 4137.436035, 4177.948730, 4182.051270, 4149.743652, 4197.948730, 4214.871582, 4200.512695, 4228.717773, 4138.974121, 4195.384277, 3543.000000, 8305.000000, 8213.000000, 0.000000, 0.000000, 0.000000, -21071.000000, 558.461548, 4.000000, 4.000000, 4.000000, 4.000000, 4.000000, 4.000000, 4.000000, 4.000000, 1.000000, 4.000000, 4.000000, 4.000000, 4.000000, 4.000000, 4.000000, 4.000000
67.000000, 0.000000, 4144.615234, 4091.794678, 4182.051270, 4184.102539, 4140.512695, 4183.589844, 4181.025391, 4148.717773, 4197.436035, 4209.230469, 4194.358887, 4220.512695, 4143.076660, 4196.410156, 2412.000000, 8270.000000, 8180.000000, 0.000000, 0.000000, 0.000000, -21071.000000, 566.153809, 4.000000, 4.000000, 4.000000, 4.000000, 4.000000, 4.000000, 4.000000, 4.000000, 1.000000, 4.000000, 4.000000, 4.000000, 4.000000, 4.000000, 4.000000, 4.000000
68.000000, 0.000000, 4142.563965, 4091.281982, 4180.000000, 4186.666504, 4137.948730, 4183.076660, 4183.589844, 4157.436035, 4198.461426, 4224.615234, 4196.410156, 4215.384277, 4155.897461, 4197.948730, 3526.000000, 8270.000000, 8180.000000, 0.000000, 0.000000, 0.000000, -21071.000000, 574.358948, 4.000000, 4.000000, 4.000000, 4.000000, 4.000000, 4.000000, 4.000000, 4.000000, 1.000000, 4.000000, 4.000000, 4.000000, 4.000000, 4.000000, 4.000000, 4.000000
69.000000, 0.000000, 4138.461426, 4091.281982, 4181.025391, 4181.025391, 4133.333008, 4183.589844, 4187.692383, 4156.410156, 4200.000000, 4235.897461, 4201.538574, 4216.922852, 4154.871582, 4196.922852, 3568.000000, 8256.000000, 8176.000000, 0.000000, 0.000000, 0.000000, -21071.000000, 582.051270, 4.000000, 4.000000, 4.000000, 4.000000, 4.000000, 4.000000, 4.000000, 4.000000, 1.000000, 4.000000, 4.000000, 4.000000, 4.000000, 4.000000, 4.000000, 4.000000
70.000000, 0.000000, 4144.102539, 4090.256348, 4181.538574, 4176.922852, 4137.948730, 4190.256348, 4195.897461, 4149.743652, 4197.948730, 4230.256348, 4200.512695, 4222.563965, 4155.384277, 4197.436035, 3387.000000, 8256.000000, 8176.000000, 0.000000, 0.000000, 0.000000, -21071.000000, 589.743591, 4.000000, 4.000000, 4.000000, 4.000000, 4.000000, 4.000000, 4.000000, 4.000000, 1.000000, 4.000000, 4.000000, 4.000000, 4.000000, 4.000000, 4.000000, 4.000000
71.000000, 0.000000, 4154.358887, 4096.922852, 4183.589844, 4184.615234, 4141.538574, 4195.897461, 4204.102539, 4162.563965, 4197.948730, 4244.102539, 4208.205078, 4232.307617, 4173.846191, 4203.589844, 3497.000000, 8245.000000, 8169.000000, 0.000000, 0.000000, 0.000000, -21071.000000, 597.435913, 4.000000, 4.000000, 4.000000, 4.000000, 4.000000, 4.000000, 4.000000, 4.000000, 1.000000, 4.000000, 4.000000, 4.000000, 4.000000, 4.000000, 4.000000, 4.000000
72.000000, 0.000000, 4155.897461, 4108.717773, 4185.641113, 4190.769043, 4135.384277, 4191.794922, 4200.512695, 4171.281738, 4198.974121, 4272.307617, 4216.922852, 4234.358887, 4183.589844, 4210.769043, 87.000000, 8245.000000, 8169.000000, 0.000000, 0.000000, 0.000000, -21071.000000, 605.128174, 4.000000, 4.000000, 4.000000, 4.000000, 4.000000, 4.000000, 4.000000, 4.000000, 1.000000, 4.000000, 4.000000, 4.000000, 4.000000, 4.000000, 4.000000, 4.000000
73.000000, 0.000000, 4155.384277, 4110.256348, 4186.153809, 4188.205078, 4133.333008, 4186.666504, 4190.256348, 4160.512695, 4198.461426, 4279.487305, 4208.717773, 4228.717773, 4178.461426, 4212.820313, 2831.000000, 8244.000000, 8166.000000, 0.000000, 0.000000, 0.000000, -21071.000000, 612.820496, 4.000000, 4.000000, 4.000000, 4.000000, 4.000000, 4.000000, 4.000000, 4.000000, 1.000000, 4.000000, 4.000000, 4.000000, 4.000000, 4.000000, 4.000000, 4.000000
74.000000, 0.000000, 4156.410156, 4105.127930, 4184.102539, 4188.717773, 4146.666504, 4188.717773, 4186.153809, 4150.769043, 4197.948730, 4284.102539, 4209.230469, 4230.769043, 4187.692383, 4214.358887, 3582.000000, 8244.000000, 8166.000000, 0.000000, 0.000000, 0.000000, -21071.000000, 621.025635, 4.000000, 4.000000, 4.000000, 4.000000, 4.000000, 4.000000, 4.000000, 4.000000, 1.000000, 4.000000, 4.000000, 4.000000, 4.000000, 4.000000, 4.000000, 4.000000
75.000000, 0.000000, 4155.897461, 4107.692383, 4184.615234, 4191.281738, 4160.512695, 4190.769043, 4187.179199, 4154.358887, 4198.461426, 4310.256348, 4221.025391, 4235.384277, 4204.615234, 4217.436035, 3559.000000, 8249.000000, 8145.000000, 0.000000, 0.000000, 0.000000, -21071.000000, 628.717957, 4.000000, 4.000000, 4.000000, 4.000000, 4.000000, 4.000000, 4.000000, 4.000000, 1.000000, 4.000000, 4.000000, 4.000000, 4.000000, 4.000000, 4.000000, 4.000000
76.000000, 0.000000, 4160.000000, 4108.717773, 4185.127930, 4186.153809, 4152.820313, 4188.717773, 4185.127930, 4163.076660, 4199.487305, 4336.922852, 4220.512695, 4236.410156, 4208.205078, 4217.948730, 3515.000000, 8249.000000, 8145.000000, 0.000000, 0.000000, 0.000000, -21071.000000, 636.410217, 4.000000, 4.000000, 4.000000, 4.000000, 4.000000, 4.000000, 4.000000, 4.000000, 1.000000, 4.000000, 4.000000, 4.000000, 4.000000, 4.000000, 4.000000, 4.000000
77.000000, 0.000000, 4166.666504, 4105.641113, 4186.666504, 4184.615234, 4135.897461, 4188.717773, 4188.205078, 4169.743652, 4199.487305, 4352.820313, 4214.871582, 4240.000000, 4207.179199, 4218.974121, 3453.000000, 8255.000000, 8144.000000, 0.000000, 0.000000, 0.000000, -21071.000000, 644.102539, 4.000000, 4.000000, 4.000000, 4.000000, 4.000000, 4.000000, 4.000000, 4.000000, 1.000000, 4.000000, 4.000000, 4.000000, 4.000000, 4.000000, 4.000000, 4.000000
78.000000, 0.000000, 4171.281738, 4111.281738, 4195.384277, 4195.897461, 4143.076660, 4187.179199, 4191.794922, 4178.974121, 4199.487305, 4367.179199, 4219.487305, 4248.205078, 4215.897461, 4221.025391, 3582.000000, 8255.000000, 8144.000000, 0.000000, 0.000000, 0.000000, -21071.000000, 651.794861, 4.000000, 4.000000, 4.000000, 4.000000, 4.000000, 4.000000, 4.000000, 4.000000, 1.000000, 4.000000, 4.000000, 4.000000, 4.000000, 4.000000, 4.000000, 4.000000
79.000000, 0.000000, 4170.256348, 4116.410156, 4199.487305, 4199.487305, 4155.384277, 4184.102539, 4187.692383, 4186.153809, 4200.512695, 4383.589844, 4220.000000, 4247.692383, 4225.127930, 4218.974121, 3559.000000, 8262.000000, 8144.000000, 0.000000, 0.000000, 0.000000, -21071.000000, 659.487183, 4.000000, 4.000000, 4.000000, 4.000000, 4.000000, 4.000000, 4.000000, 4.000000, 1.000000, 4.000000, 4.000000, 4.000000, 4.000000, 4.000000, 4.000000, 4.000000
80.000000, 0.000000, 4160.512695, 4108.205078, 4190.256348, 4189.230469, 4138.461426, 4182.563965, 4186.153809, 4178.974121, 4199.487305, 4386.666504, 4207.179199, 4236.410156, 4217.948730, 4207.692383, 3515.000000, 8262.000000, 8144.000000, 0.000000, 0.000000, 0.000000, -21071.000000, 667.692322, 4.000000, 4.000000, 4.000000, 4.000000, 4.000000, 4.000000, 4.000000, 4.000000, 1.000000, 4.000000, 4.000000, 4.000000, 4.000000, 4.000000, 4.000000, 4.000000
81.000000, 0.000000, 4151.281738, 4098.461426, 4182.563965, 4183.076660, 4125.127930, 4177.436035, 4185.641113, 4153.333008, 4196.922852, 4373.333008, 4193.846191, 4224.615234, 4202.051270, 4198.461426, 3453.000000, 8257.000000, 8140.000000, 0.000000, 0.000000, 0.000000, -21071.000000, 675.384583, 4.000000, 4.000000, 4.000000, 4.000000, 4.000000, 4.000000, 4.000000, 4.000000, 1.000000, 4.000000, 4.000000, 4.000000, 4.000000, 4.000000, 4.000000, 4.000000
82.000000, 0.000000, 4153.333008, 4104.102539, 4184.102539, 4185.641113, 4144.615234, 4175.897461, 4183.076660, 4144.102539, 4196.410156, 4370.769043, 4194.871582, 4218.974121, 4203.076660, 4197.948730, 3582.000000, 8257.000000, 8140.000000, 0.000000, 0.000000, 0.000000, -21071.000000, 683.076904, 4.000000, 4.000000, 4.000000, 4.000000, 4.000000, 4.000000, 4.000000, 4.000000, 1.000000, 4.000000, 4.000000, 4.000000, 4.000000, 4.000000, 4.000000, 4.000000
83.000000, 0.000000, 4158.461426, 4110.769043, 4187.179199, 4188.205078, 4155.897461, 4184.102539, 4190.256348, 4157.436035, 4198.974121, 4381.538574, 4199.487305, 4223.076660, 4214.871582, 4201.025391, 3559.000000, 8256.000000, 8149.000000, 0.000000, 0.000000, 0.000000, -21071.000000, 690.769226, 4.000000, 4.000000, 4.000000, 4.000000, 4.000000, 4.000000, 4.000000, 4.000000, 1.000000, 4.000000, 4.000000, 4.000000, 4.000000, 4.000000, 4.000000, 4.000000
84.000000, 0.000000, 4155.384277, 4107.179199, 4188.205078, 4185.641113, 4144.102539, 4184.615234, 4197.436035, 4153.333008, 4200.512695, 4390.769043, 4198.461426, 4231.281738, 4217.948730, 4206.153809, 3515.000000, 8256.000000, 8149.000000, 0.000000, 0.000000, 0.000000, -21071.000000, 698.461548, 4.000000, 4.000000, 4.000000, 4.000000, 4.000000, 4.000000, 4.000000, 4.000000, 1.000000, 4.000000, 4.000000, 4.000000, 4.000000, 4.000000, 4.000000, 4.000000
85.000000, 0.000000, 4154.871582, 4105.127930, 4189.230469, 4186.666504, 4148.205078, 4178.974121, 4189.230469, 4140.512695, 4198.974121, 4394.871582, 4205.127930, 4233.846191, 4224.615234, 4213.333008, 3453.000000, 8230.000000, 8171.000000, 0.000000, 0.000000, 0.000000, -21071.000000, 706.666626, 4.000000, 4.000000, 4.000000, 4.000000, 4.000000, 4.000000, 4.000000, 4.000000, 1.000000, 4.000000, 4.000000, 4.000000, 4.000000, 4.000000, 4.000000, 4.000000
86.000000, 0.000000, 4163.076660, 4108.205078, 4189.743652, 4193.846191, 4159.487305, 4182.563965, 4180.512695, 4144.615234, 4197.436035, 4401.538574, 4213.333008, 4233.846191, 4234.358887, 4216.922852, 3582.000000, 8230.000000, 8171.000000, 0.000000, 0.000000, 0.000000, -21071.000000, 714.358948, 4.000000, 4.000000, 4.000000, 4.000000, 4.000000, 4.000000, 4.000000, 4.000000, 1.000000, 4.000000, 4.000000, 4.000000, 4.000000, 4.000000, 4.000000, 4.000000
87.000000, 0.000000, 4172.307617, 4107.692383, 4190.256348, 4196.922852, 4148.717773, 4186.666504, 4182.563965, 4154.358887, 4198.461426, 4411.794922, 4213.846191, 4237.436035, 4232.820313, 4218.461426, 3559.000000, 8207.000000, 8172.000000, 0.000000, 0.000000, 0.000000, -21071.000000, 722.051270, 4.000000, 4.000000, 4.000000, 4.000000, 4.000000, 4.000000, 4.000000, 4.000000, 1.000000, 4.000000, 4.000000, 4.000000, 4.000000, 4.000000, 4.000000, 4.000000
88.000000, 0.000000, 4168.205078, 4106.666504, 4188.205078, 4188.717773, 4142.563965, 4182.563965, 4184.102539, 4154.871582, 4198.974121, 4415.384277, 4207.692383, 4236.922852, 4222.051270, 4219.487305, 3515.000000, 8207.000000, 8172.000000, 0.000000, 0.000000, 0.000000, -21071.000000, 729.743591, 4.000000, 4.000000, 4.000000, 4.000000, 4.000000, 4.000000, 4.000000, 4.000000, 1.000000, 4.000000, 4.000000, 4.000000, 4.000000, 4.000000, 4.000000, 4.000000
89.000000, 0.000000, 4156.922852, 4108.717773, 4186.153809, 4183.076660, 4151.794922, 4183.589844, 4184.615234, 4149.230469, 4197.436035, 4411.281738, 4202.051270, 4232.307617, 4216.922852, 4212.307617, 3453.000000, 8181.000000, 8177.000000, 0.000000, 0.000000, 0.000000, -21071.000000, 737.948669, 4.000000, 4.000000, 4.000000, 4.000000, 4.000000, 4.000000, 4.000000, 4.000000, 1.000000, 4.000000, 4.000000, 4.000000, 4.000000, 4.000000, 4.000000, 4.000000
90.000000, 0.000000, 4157.436035, 4105.641113, 4188.205078, 4186.153809, 4147.179199, 4183.076660, 4183.076660, 4143.589844, 4197.436035, 4408.205078, 4202.563965, 4231.281738, 4218.461426, 4207.692383, 3582.000000, 8181.000000, 8177.000000, 0.000000, 0.000000, 0.000000, -21071.000000, 745.640991, 4.000000, 4.000000, 4.000000, 4.000000, 4.000000, 4.000000, 4.000000, 4.000000, 1.000000, 4.000000, 4.000000, 4.000000, 4.000000, 4.000000, 4.000000, 4.000000
91.000000, 0.000000, 4157.436035, 4096.410156, 4185.127930, 4180.000000, 4136.922852, 4172.820313, 4175.897461, 4140.512695, 4198.461426, 4403.076660, 4202.051270, 4229.743652, 4217.948730, 4211.281738, 3559.000000, 8132.000000, 8177.000000, 0.000000, 0.000000, 0.000000, -21071.000000, 753.333313, 4.000000, 4.000000, 4.000000, 4.000000, 4.000000, 4.000000, 4.000000, 4.000000, 1.000000, 4.000000, 4.000000, 4.000000, 4.000000, 4.000000, 4.000000, 4.000000
92.000000, 0.000000, 4153.846191, 4098.461426, 4181.025391, 4173.333008, 4141.538574, 4168.205078, 4170.769043, 4140.000000, 4197.948730, 4395.897461, 4199.487305, 4231.794922, 4214.871582, 4214.871582, 3515.000000, 8132.000000, 8177.000000, 0.000000, 0.000000, 0.000000, -21071.000000, 761.025635, 4.000000, 4.000000, 4.000000, 4.000000, 4.000000, 4.000000, 4.000000, 4.000000, 1.000000, 4.000000, 4.000000, 4.000000, 4.000000, 4.000000, 4.000000, 4.000000
93.000000, 0.000000, 4162.563965, 4110.769043, 4185.641113, 4182.051270, 4143.589844, 4172.820313, 4170.256348, 4137.948730, 4198.974121, 4396.922852, 4200.000000, 4235.897461, 4213.333008, 4215.897461, 3453.000000, 8096.000000, 8177.000000, 0.000000, 0.000000, 0.000000, -21071.000000, 768.717957, 4.000000, 4.000000, 4.000000, 4.000000, 4.000000, 4.000000, 4.000000, 4.000000, 1.000000, 4.000000, 4.000000, 4.000000, 4.000000, 4.000000, 4.000000, 4.000000
94.000000, 0.000000, 4172.307617, 4111.794922, 4193.333008, 4187.692383, 4137.948730, 4171.281738, 4173.846191, 4136.410156, 4199.487305, 4396.922852, 4201.025391, 4234.871582, 4214.358887, 4217.948730, 3582.000000, 8096.000000, 8177.000000, 0.000000, 0.000000, 0.000000, -21071.000000, 776.410217, 4.000000, 4.000000, 4.000000, 4.000000, 4.000000, 4.000000, 4.000000, 4.000000, 1.000000, 4.000000, 4.000000, 4.000000, 4.000000, 4.000000, 4.000000, 4.000000
95.000000, 0.000000, 4171.281738, 4105.641113, 4193.846191, 4186.153809, 4141.538574, 4171.281738, 4173.333008, 4137.436035, 4196.922852, 4391.794922, 4204.102539, 4233.846191, 4216.410156, 4217.948730, 3559.000000, 8063.000000, 8167.000000, 0.000000, 0.000000, 0.000000, -21071.000000, 784.615356, 4.000000, 4.000000, 4.000000, 4.000000, 4.000000, 4.000000, 4.000000, 4.000000, 1.000000, 4.000000, 4.000000, 4.000000, 4.000000, 4.000000, 4.000000, 4.000000
96.000000, 0.000000, 4174.871582, 4112.820313, 4195.384277, 4193.846191, 4145.641113, 4178.974121, 4168.717773, 4141.025391, 4197.436035, 4395.897461, 4206.666504, 4237.436035, 4216.410156, 4218.974121, 3515.000000, 8063.000000, 8167.000000, 0.000000, 0.000000, 0.000000, -21071.000000, 792.307678, 4.000000, 4.000000, 4.000000, 4.000000, 4.000000, 4.000000, 4.000000, 4.000000, 1.000000, 4.000000, 4.000000, 4.000000, 4.000000, 4.000000, 4.000000, 4.000000
97.000000, 0.000000, 4185.641113, 4117.948730, 4198.461426, 4200.000000, 4145.641113, 4183.589844, 4174.871582, 4153.846191, 4200.512695, 4407.692383, 4206.153809, 4243.076660, 4218.461426, 4225.641113, 3453.000000, 8046.000000, 8162.000000, 0.000000, 0.000000, 0.000000, -21071.000000, 800.000000, 4.000000, 4.000000, 4.000000, 4.000000, 4.000000, 4.000000, 4.000000, 4.000000, 1.000000, 4.000000, 4.000000, 4.000000, 4.000000, 4.000000, 4.000000, 4.000000
98.000000, 0.000000, 4185.641113, 4109.230469, 4194.358887, 4188.717773, 4152.820313, 4184.102539, 4187.692383, 4170.769043, 4198.974121, 4415.897461, 4208.205078, 4246.153809, 4229.230469, 4225.641113, 3582.000000, 8046.000000, 8162.000000, 0.000000, 0.000000, 0.000000, -21071.000000, 807.692261, 4.000000, 4.000000, 4.000000, 4.000000, 4.000000, 4.000000, 4.000000, 4.000000, 1.000000, 4.000000, 4.000000, 4.000000, 4.000000, 4.000000, 4.000000, 4.000000
99.000000, 0.000000, 4176.922852, 4106.153809, 4189.230469, 4184.102539, 4158.974121, 4187.692383, 4189.230469, 4179.487305, 4197.436035, 4412.820313, 4210.256348, 4242.051270, 4233.333008, 4218.974121, 3559.000000, 8028.000000, 8158.000000, 0.000000, 0.000000, 0.000000, -21071.000000, 815.897400, 4.000000, 4.000000, 4.000000, 4.000000, 4.000000, 4.000000, 4.000000, 4.000000, 1.000000, 4.000000, 4.000000, 4.000000, 4.000000, 4.000000, 4.000000, 4.000000
100.000000, 0.000000, 4171.281738, 4104.615234, 4188.205078, 4184.615234, 4151.794922, 4183.076660, 4183.589844, 4175.897461, 4200.000000, 4403.076660, 4197.948730, 4232.820313, 4222.563965, 4213.333008, 3515.000000, 8028.000000, 8158.000000, 0.000000, 0.000000, 0.000000, -21071.000000, 823.589722, 4.000000, 4.000000, 4.000000, 4.000000, 4.000000, 4.000000, 4.000000, 4.000000, 1.000000, 4.000000, 4.000000, 4.000000, 4.000000, 4.000000, 4.000000, 4.000000
101.000000, 0.000000, 4168.717773, 4093.845947, 4184.615234, 4173.333008, 4140.512695, 4172.307617, 4183.076660, 4163.589844, 4198.974121, 4394.358887, 4187.179199, 4225.641113, 4214.871582, 4206.153809, 3453.000000, 8026.000000, 8156.000000, 0.000000, 0.000000, 0.000000, -21071.000000, 831.282043, 4.000000, 4.000000, 4.000000, 4.000000, 4.000000, 4.000000, 4.000000, 4.000000, 1.000000, 4.000000, 4.000000, 4.000000, 4.000000, 4.000000, 4.000000, 4.000000
102.000000, 0.000000, 4169.743652, 4090.769043, 4181.538574, 4171.794922, 4137.436035, 4169.743652, 4184.102539, 4161.025391, 4196.410156, 4389.743652, 4193.333008, 4222.051270, 4215.897461, 4202.563965, 3582.000000, 8026.000000, 8156.000000, 0.000000, 0.000000, 0.000000, -21071.000000, 838.974365, 4.000000, 4.000000, 4.000000, 4.000000, 4.000000, 4.000000, 4.000000, 4.000000, 1.000000, 4.000000, 4.000000, 4.000000, 4.000000, 4.000000, 4.000000, 4.000000
103.000000, 0.000000, 4170.769043, 4097.436035, 4181.025391, 4182.563965, 4142.051270, 4174.358887, 4183.076660, 4167.692383, 4197.948730, 4392.307617, 4191.794922, 4216.922852, 4216.922852, 4203.589844, 3559.000000, 8024.000000, 8158.000000, 0.000000, 0.000000, 0.000000, -21071.000000, 847.179443, 4.000000, 4.000000, 4.000000, 4.000000, 4.000000, 4.000000, 4.000000, 4.000000, 1.000000, 4.000000, 4.000000, 4.000000, 4.000000, 4.000000, 4.000000, 4.000000
104.000000, 0.000000, 4170.769043, 4098.974121, 4181.025391, 4182.563965, 4139.487305, 4173.333008, 4179.487305, 4161.025391, 4201.025391, 4393.333008, 4183.589844, 4215.384277, 4221.538574, 4205.127930, 3515.000000, 8024.000000, 8158.000000, 0.000000, 0.000000, 0.000000, -21071.000000, 854.871765, 4.000000, 4.000000, 4.000000, 4.000000, 4.000000, 4.000000, 4.000000, 4.000000, 1.000000, 4.000000, 4.000000, 4.000000, 4.000000, 4.000000, 4.000000, 4.000000
105.000000, 0.000000, 4175.897461, 4102.051270, 4184.102539, 4182.563965, 4136.410156, 4170.769043, 4174.358887, 4146.666504, 4200.000000, 4384.102539, 4189.743652, 4222.051270, 4227.179199, 4208.717773, 3453.000000, 8029.000000, 8167.000000, 0.000000, 0.000000, 0.000000, -21071.000000, 862.564087, 4.000000, 4.000000, 4.000000, 4.000000, 4.000000, 4.000000, 4.000000, 4.000000, 1.000000, 4.000000, 4.000000, 4.000000, 4.000000, 4.000000, 4.000000, 4.000000
106.000000, 0.000000, 4184.102539, 4109.230469, 4189.743652, 4188.205078, 4148.205078, 4172.820313, 4171.794922, 4149.230469, 4198.974121, 4379.487305, 4198.974121, 4232.307617, 4229.230469, 4216.410156, 3582.000000, 8029.000000, 8167.000000, 0.000000, 0.000000, 0.000000, -21071.000000, 870.256409, 4.000000, 4.000000, 4.000000, 4.000000, 4.000000, 4.000000, 4.000000, 4.000000, 1.000000, 4.000000, 4.000000, 4.000000, 4.000000, 4.000000, 4.000000, 4.000000
107.000000, 0.000000, 4187.692383, 4108.717773, 4188.717773, 4186.666504, 4157.948730, 4172.820313, 4171.281738, 4156.922852, 4200.000000, 4388.717773, 4202.563965, 4234.358887, 4233.333008, 4218.461426, 3559.000000, 8034.000000, 8177.000000, 0.000000, 0.000000, 0.000000, -21071.000000, 877.948669, 4.000000, 4.000000, 4.000000, 4.000000, 4.000000, 4.000000, 4.000000, 4.000000, 1.000000, 4.000000, 4.000000, 4.000000, 4.000000, 4.000000, 4.000000, 4.000000
108.000000, 0.000000, 4182.051270, 4104.102539, 4183.076660, 4185.127930, 4151.794922, 4169.743652, 4171.794922, 4151.794922, 4198.974121, 4387.692383, 4199.487305, 4223.076660, 4235.384277, 4213.333008, 3515.000000, 8034.000000, 8177.000000, 0.000000, 0.000000, 0.000000, -21071.000000, 886.153809, 4.000000, 4.000000, 4.000000, 4.000000, 4.000000, 4.000000, 4.000000, 4.000000, 1.000000, 4.000000, 4.000000, 4.000000, 4.000000, 4.000000, 4.000000, 4.000000
109.000000, 0.000000, 4173.846191, 4101.538574, 4180.512695, 4188.205078, 4148.205078, 4169.743652, 4168.717773, 4154.358887, 4197.436035, 4372.307617, 4192.820313, 4213.846191, 4230.256348, 4203.076660, 3453.000000, 8049.000000, 8177.000000, 0.000000, 0.000000, 0.000000, -21071.000000, 893.846130, 4.000000, 4.000000, 4.000000, 4.000000, 4.000000, 4.000000, 4.000000, 4.000000, 1.000000, 4.000000, 4.000000, 4.000000, 4.000000, 4.000000, 4.000000, 4.000000
110.000000, 0.000000, 4176.410156, 4104.102539, 4182.051270, 4187.179199, 4155.384277, 4172.820313, 4167.692383, 4169.743652, 4197.436035, 4370.256348, 4186.153809, 4213.846191, 4227.692383, 4197.948730, 3582.000000, 8049.000000, 8177.000000, 0.000000, 0.000000, 0.000000, -21071.000000, 901.538452, 4.000000, 4.000000, 4.000000, 4.000000, 4.000000, 4.000000, 4.000000, 4.000000, 1.000000, 4.000000, 4.000000, 4.000000, 4.000000, 4.000000, 4.000000, 4.000000
111.000000, 0.000000, 4184.615234, 4109.743652, 4186.666504, 4188.717773, 4155.897461, 4175.897461, 4178.974121, 4174.871582, 4197.436035, 4380.512695, 4190.769043, 4217.436035, 4228.717773, 4202.051270, 3559.000000, 8067.000000, 8170.000000, 0.000000, 0.000000, 0.000000, -21071.000000, 909.230774, 4.000000, 4.000000, 4.000000, 4.000000, 4.000000, 4.000000, 4.000000, 4.000000, 1.000000, 4.000000, 4.000000, 4.000000, 4.000000, 4.000000, 4.000000, 4.000000
112.000000, 0.000000, 4177.948730, 4102.051270, 4181.538574, 4190.256348, 4141.025391, 4174.871582, 4188.205078, 4163.076660, 4196.922852, 4376.410156, 4195.897461, 4218.974121, 4221.538574, 4204.102539, 3515.000000, 8067.000000, 8170.000000, 0.000000, 0.000000, 0.000000, -21071.000000, 916.923035, 4.000000, 4.000000, 4.000000, 4.000000, 4.000000, 4.000000, 4.000000, 4.000000, 1.000000, 4.000000, 4.000000, 4.000000, 4.000000, 4.000000, 4.000000, 4.000000
113.000000, 0.000000, 4168.205078, 4092.307617, 4173.846191, 4184.615234, 4133.846191, 4171.281738, 4181.538574, 4157.948730, 4199.487305, 4358.461426, 4191.281738, 4218.461426, 4213.846191, 4201.025391, 3453.000000, 8086.000000, 8164.000000, 0.000000, 0.000000, 0.000000, -21071.000000, 924.615356, 4.000000, 4.000000, 4.000000, 4.000000, 4.000000, 4.000000, 4.000000, 4.000000, 1.000000, 4.000000, 4.000000, 4.000000, 4.000000, 4.000000, 4.000000, 4.000000
114.000000, 0.000000, 4177.436035, 4102.563965, 4181.025391, 4188.205078, 4147.692383, 4171.281738, 4172.307617, 4167.692383, 4201.538574, 4355.384277, 4187.692383, 4221.025391, 4216.922852, 4202.051270, 3582.000000, 8086.000000, 8164.000000, 0.000000, 0.000000, 0.000000, -21071.000000, 932.820496, 4.000000, 4.000000, 4.000000, 4.000000, 4.000000, 4.000000, 4.000000, 4.000000, 1.000000, 4.000000, 4.000000, 4.000000, 4.000000, 4.000000, 4.000000, 4.000000
115.000000, 0.000000, 4187.179199, 4108.205078, 4183.589844, 4196.410156, 4158.974121, 4171.794922, 4167.692383, 4164.102539, 4200.000000, 4367.179199, 4189.743652, 4220.000000, 4217.948730, 4203.589844, 3559.000000, 8107.000000, 8172.000000, 0.000000, 0.000000, 0.000000, -21071.000000, 940.512817, 4.000000, 4.000000, 4.000000, 4.000000, 4.000000, 4.000000, 4.000000, 4.000000, 1.000000, 4.000000, 4.000000, 4.000000, 4.000000, 4.000000, 4.000000, 4.000000
116.000000, 0.000000, 4185.641113, 4098.461426, 4176.410156, 4191.281738, 4154.871582, 4170.769043, 4167.692383, 4148.717773, 4197.948730, 4368.717773, 4189.230469, 4216.410156, 4210.256348, 4201.025391, 3515.000000, 8107.000000, 8172.000000, 0.000000, 0.000000, 0.000000, -21071.000000, 948.205078, 4.000000, 4.000000, 4.000000, 4.000000, 4.000000, 4.000000, 4.000000, 4.000000, 1.000000, 4.000000, 4.000000, 4.000000, 4.000000, 4.000000, 4.000000, 4.000000
117.000000, 0.000000, 4182.563965, 4101.538574, 4181.025391, 4191.281738, 4154.358887, 4173.333008, 4170.769043, 4151.281738, 4197.948730, 4359.487305, 4188.717773, 4216.922852, 4205.127930, 4200.000000, 3453.000000, 8118.000000, 8179.000000, 0.000000, 0.000000, 0.000000, -21071.000000, 955.897400, 4.000000, 4.000000, 4.000000, 4.000000, 4.000000, 4.000000, 4.000000, 4.000000, 1.000000, 4.000000, 4.000000, 4.000000, 4.000000, 4.000000, 4.000000, 4.000000
118.000000, 0.000000, 4180.512695, 4107.179199, 4186.153809, 4198.461426, 4147.692383, 4174.358887, 4171.281738, 4156.410156, 4197.948730, 4347.692383, 4185.127930, 4213.846191, 4198.461426, 4200.000000, 3582.000000, 8118.000000, 8179.000000, 0.000000, 0.000000, 0.000000, -21071.000000, 963.589722, 4.000000, 4.000000, 4.000000, 4.000000, 4.000000, 4.000000, 4.000000, 4.000000, 1.000000, 4.000000, 4.000000, 4.000000, 4.000000, 4.000000, 4.000000, 4.000000
119.000000, 0.000000, 4181.025391, 4105.127930, 4180.512695, 4203.076660, 4138.974121, 4169.230469, 4169.743652, 4137.948730, 4198.461426, 4341.538574, 4176.922852, 4204.615234, 4187.179199, 4196.410156, 3559.000000, 8132.000000, 8167.000000, 0.000000, 0.000000, 0.000000, -21071.000000, 971.794861, 4.000000, 4.000000, 4.000000, 4.000000, 4.000000, 4.000000, 4.000000, 4.000000, 1.000000, 4.000000, 4.000000, 4.000000, 4.000000, 4.000000, 4.000000, 4.000000
120.000000, 0.000000, 4179.487305, 4108.717773, 4180.512695, 4202.051270, 4148.205078, 4169.230469, 4166.153809, 4132.820313, 4199.487305, 4342.051270, 4175.897461, 4201.538574, 4183.076660, 4190.769043, 3515.000000, 8132.000000, 8167.000000, 0.000000, 0.000000, 0.000000, -21071.000000, 979.487183, 4.000000, 4.000000, 4.000000, 4.000000, 4.000000, 4.000000, 4.000000, 4.000000, 1.000000, 4.000000, 4.000000, 4.000000, 4.000000, 4.000000, 4.000000, 4.000000
121.000000, 0.000000, 4171.794922, 4108.717773, 4178.461426, 4192.307617, 4156.922852, 4172.820313, 4159.487305, 4147.179199, 4198.974121, 4335.384277, 4183.076660, 4202.051270, 4182.563965, 4186.666504, 3453.000000, 8140.000000, 8162.000000, 0.000000, 0.000000, 0.000000, -21071.000000, 987.179443, 4.000000, 4.000000, 4.000000, 4.000000, 4.000000, 4.000000, 4.000000, 4.000000, 1.000000, 4.000000, 4.000000, 4.000000, 4.000000, 4.000000, 4.000000, 4.000000
122.000000, 0.000000, 4172.307617, 4102.051270, 4170.769043, 4188.205078, 4153.846191, 4171.794922, 4156.410156, 4146.153809, 4199.487305, 4327.179199, 4185.641113, 4199.487305, 4182.563965, 4185.641113, 3582.000000, 8140.000000, 8162.000000, 0.000000, 0.000000, 0.000000, -21071.000000, 994.871765, 4.000000, 4.000000, 4.000000, 4.000000, 4.000000, 4.000000, 4.000000, 4.000000, 1.000000, 4.000000, 4.000000, 4.000000, 4.000000, 4.000000, 4.000000, 4.000000
123.000000, 0.000000, 4186.153809, 4106.666504, 4174.871582, 4197.948730, 4149.230469, 4172.820313, 4158.974121, 4140.000000, 4201.025391, 4328.205078, 4179.487305, 4199.487305, 4184.102539, 4188.717773, 3559.000000, 8149.000000, 8160.000000, 0.000000, 0.000000, 0.000000, -21070.000000, 3.076923, 4.000000, 4.000000, 4.000000, 4.000000, 4.000000, 4.000000, 4.000000, 4.000000, 1.000000, 4.000000, 4.000000, 4.000000, 4.000000, 4.000000, 4.000000, 4.000000
124.000000, 0.000000, 4184.615234, 4112.307617, 4177.948730, 4194.871582, 4142.051270, 4168.717773, 4157.436035, 4138.974121, 4201.538574, 4324.615234, 4172.820313, 4198.974121, 4181.538574, 4188.205078, 3515.000000, 8149.000000, 8160.000000, 0.000000, 0.000000, 0.000000, -21070.000000, 10.769231, 4.000000, 4.000000, 4.000000, 4.000000, 4.000000, 4.000000, 4.000000, 4.000000, 1.000000, 4.000000, 4.000000, 4.000000, 4.000000, 4.000000, 4.000000, 4.000000
125.000000, 0.000000, 4172.820313, 4110.769043, 4172.820313, 4183.589844, 4136.922852, 4158.974121, 4155.384277, 4142.563965, 4200.512695, 4319.487305, 4179.487305, 4198.461426, 4182.563965, 4184.615234, 3453.000000, 8165.000000, 8148.000000, 0.000000, 0.000000, 0.000000, -21070.000000, 18.461538, 4.000000, 4.000000, 4.000000, 4.000000, 4.000000, 4.000000, 4.000000, 4.000000, 1.000000, 4.000000, 4.000000, 4.000000, 4.000000, 4.000000, 4.000000, 4.000000
126.000000, 0.000000, 4174.358887, 4113.846191, 4171.794922, 4192.820313, 4138.461426, 4156.922852, 4158.974121, 4149.743652, 4201.025391, 4320.000000, 4184.102539, 4203.076660, 4182.563965, 4186.666504, 3582.000000, 8165.000000, 8148.000000, 0.000000, 0.000000, 0.000000, -21070.000000, 26.153845, 4.000000, 4.000000, 4.000000, 4.000000, 4.000000, 4.000000, 4.000000, 4.000000, 1.000000, 4.000000, 4.000000, 4.000000, 4.000000, 4.000000, 4.000000, 4.000000
127.000000, 0.000000, 4176.410156, 4112.307617, 4169.743652, 4194.871582, 4135.897461, 4161.538574, 4164.615234, 4148.717773, 4201.538574, 4307.692383, 4172.307617, 4201.538574, 4171.794922, 4186.666504, 57.000000, 8179.000000, 8145.000000, 0.000000, 0.000000, 0.000000, -21070.000000, 34.358974, 4.000000, 4.000000, 4.000000, 4.000000, 4.000000, 4.000000, 4.000000, 4.000000, 1.000000, 4.000000, 4.000000, 4.000000, 4.000000, 4.000000, 4.000000, 4.000000
0.000000, 0.000000, 4178.461426, 4109.743652, 4172.820313, 4184.102539, 4136.410156, 4164.615234, 4166.666504, 4135.384277, 4198.461426, 4292.307617, 4167.692383, 4196.922852, 4170.256348, 4181.538574, 3156.000000, 8179.000000, 8145.000000, 0.000000, 0.000000, 0.000000, -21070.000000, 42.051281, 4.000000, 4.000000, 4.000000, 4.000000, 4.000000, 4.000000, 4.000000, 4.000000, 1.000000, 4.000000, 4.000000, 4.000000, 4.000000, 4.000000, 4.000000, 4.000000
1.000000, 0.000000, 4186.666504, 4116.410156, 4185.641113, 4192.820313, 4145.641113, 4168.205078, 4160.512695, 4132.307617, 4197.948730, 4298.974121, 4184.102539, 4205.127930, 4188.205078, 4188.717773, 3524.000000, 8213.000000, 8137.000000, 0.000000, 0.000000, 0.000000, -21070.000000, 49.743587, 4.000000, 4.000000, 4.000000, 4.000000, 4.000000, 4.000000, 4.000000, 4.000000, 1.000000, 4.000000, 4.000000, 4.000000, 4.000000, 4.000000, 4.000000, 4.000000
2.000000, 0.000000, 4188.205078, 4120.512695, 4184.102539, 4198.974121, 4147.179199, 4170.256348, 4155.384277, 4136.410156, 4200.000000, 4305.127930, 4189.230469, 4212.307617, 4200.000000, 4198.974121, 3554.000000, 8213.000000, 8137.000000, 0.000000, 0.000000, 0.000000, -21070.000000, 57.435898, 4.000000, 4.000000, 4.000000, 4.000000, 4.000000, 4.000000, 4.000000, 4.000000, 1.000000, 4.000000, 4.000000, 4.000000, 4.000000, 4.000000, 4.000000, 4.000000
3.000000, 0.000000, 4183.589844, 4117.948730, 4170.256348, 4188.205078, 4141.025391, 4161.025391, 4155.384277, 4124.615234, 4199.487305, 4296.410156, 4178.461426, 4205.641113, 4199.487305, 4193.846191, 2414.000000, 8229.000000, 8141.000000, 0.000000, 0.000000, 0.000000, -21070.000000, 65.128204, 4.000000, 4.000000, 4.000000, 4.000000, 4.000000, 4.000000, 4.000000, 4.000000, 1.000000, 4.000000, 4.000000, 4.000000, 4.000000, 4.000000, 4.000000, 4.000000
4.000000, 0.000000, 4184.615234, 4120.000000, 4171.794922, 4184.615234, 4132.820313, 4150.769043, 4152.820313, 4116.922852, 4197.948730, 4292.820313, 4170.769043, 4201.025391, 4195.897461, 4186.153809, 3529.000000, 8229.000000, 8141.000000, 0.000000, 0.000000, 0.000000, -21070.000000, 72.820511, 4.000000, 4.000000, 4.000000, 4.000000, 4.000000, 4.000000, 4.000000, 4.000000, 1.000000, 4.000000, 4.000000, 4.000000, 4.000000, 4.000000, 4.000000, 4.000000
5.000000, 0.000000, 4186.153809, 4120.512695, 4182.051270, 4190.256348, 4129.743652, 4150.769043, 4151.281738, 4120.000000, 4200.000000, 4286.666504, 4166.666504, 4204.102539, 4191.794922, 4187.692383, 3569.000000, 8241.000000, 8142.000000, 0.000000, 0.000000, 0.000000, -21070.000000, 81.025642, 4.000000, 4.000000, 4.000000, 4.000000, 4.000000, 4.000000, 4.000000, 4.000000, 1.000000, 4.000000, 4.000000, 4.000000, 4.000000, 4.000000, 4.000000, 4.000000
6.000000, 0.000000, 4184.615234, 4114.871582, 4181.025391, 4185.641113, 4128.717773, 4153.846191, 4154.871582, 4119.487305, 4201.025391, 4276.922852, 4166.666504, 4202.051270, 4195.384277, 4185.127930, 3387.000000, 8241.000000, 8142.000000, 0.000000, 0.000000, 0.000000, -21070.000000, 88.717949, 4.000000, 4.000000, 4.000000, 4.000000, 4.000000, 4.000000, 4.000000, 4.000000, 1.000000, 4.000000, 4.000000, 4.000000, 4.000000, 4.000000, 4.000000, 4.000000
7.000000, 0.000000, 4183.589844, 4113.846191, 4181.538574, 4180.000000, 4122.563965, 4152.820313, 4157.948730, 4128.205078, 4200.000000, 4285.127930, 4171.281738, 4200.512695, 4208.717773, 4183.589844, 3523.000000, 8268.000000, 8143.000000, 0.000000, 0.000000, 0.000000, -21070.000000, 96.410255, 4.000000, 4.000000, 4.000000, 4.000000, 4.000000, 4.000000, 4.000000, 4.000000, 1.000000, 4.000000, 4.000000, 4.000000, 4.000000, 4.000000, 4.000000, 4.000000
8.000000, 0.000000, 4186.666504, 4120.512695, 4185.127930, 4183.076660, 4127.179199, 4150.769043, 4162.563965, 4144.615234, 4199.487305, 4298.974121, 4174.358887, 4207.179199, 4221.025391, 4193.846191, 86.000000, 8268.000000, 8143.000000, 0.000000, 0.000000, 0.000000, -21070.000000, 104.102562, 4.000000, 4.000000, 4.000000, 4.000000, 4.000000, 4.000000, 4.000000, 4.000000, 1.000000, 4.000000, 4.000000, 4.000000, 4.000000, 4.000000, 4.000000, 4.000000
9.000000, 0.000000, 4194.871582, 4131.281738, 4187.692383, 4187.179199, 4142.563965, 4154.871582, 4169.230469, 4145.127930, 4200.000000, 4291.281738, 4174.358887, 4212.820313, 4229.230469, 4199.487305, 2819.000000, 8274.000000, 8138.000000, 0.000000, 0.000000, 0.000000, -21070.000000, 112.307686, 4.000000, 4.000000, 4.000000, 4.000000, 4.000000, 4.000000, 4.000000, 4.000000, 1.000000, 4.000000, 4.000000, 4.000000, 4.000000, 4.000000, 4.000000, 4.000000
10.000000, 0.000000, 4195.897461, 4135.897461, 4186.666504, 4191.281738, 4145.641113, 4161.025391, 4170.256348, 4128.717773, 4199.487305, 4280.512695, 4173.846191, 4209.230469, 4235.384277, 4192.307617, 3584.000000, 8274.000000, 8138.000000, 0.000000, 0.000000, 0.000000, -21070.000000, 120.000000, 4.000000, 4.000000, 4.000000, 4.000000, 4.000000, 4.000000, 4.000000, 4.000000, 1.000000, 4.000000, 4.000000, 4.000000, 4.000000, 4.000000, 4.000000, 4.000000
11.000000, 0.000000, 4186.666504, 4130.256348, 4181.538574, 4187.692383, 4136.410156, 4159.487305, 4163.589844, 4120.512695, 4198.974121, 4276.922852, 4163.589844, 4197.436035, 4230.769043, 4180.512695, 3559.000000, 8268.000000, 8130.000000, 0.000000, 0.000000, 0.000000, -21070.000000, 127.692307, 4.000000, 4.000000, 4.000000, 4.000000, 4.000000, 4.000000, 4.000000, 4.000000, 1.000000, 4.000000, 4.000000, 4.000000, 4.000000, 4.000000, 4.000000, 4.000000
12.000000, 0.000000, 4179.487305, 4123.076660, 4176.410156, 4177.948730, 4136.922852, 4155.384277, 4156.922852, 4122.051270, 4200.000000, 4265.641113, 4151.281738, 4194.871582, 4215.897461, 4171.281738, 3517.000000, 8268.000000, 8130.000000, 0.000000, 0.000000, 0.000000, -21070.000000, 135.384613, 4.000000, 4.000000, 4.000000, 4.000000, 4.000000, 4.000000, 4.000000, 4.000000, 1.000000, 4.000000, 4.000000, 4.000000, 4.000000, 4.000000, 4.000000, 4.000000
13.000000, 0.000000, 4178.461426, 4124.102539, 4176.922852, 4174.871582, 4142.051270, 4162.051270, 4160.512695, 4123.589844, 4201.025391, 4262.051270, 4151.281738, 4196.410156, 4215.384277, 4167.692383, 3453.000000, 8265.000000, 8136.000000, 0.000000, 0.000000, 0.000000, -21070.000000, 143.076920, 4.000000, 4.000000, 4.000000, 4.000000, 4.000000, 4.000000, 4.000000, 4.000000, 1.000000, 4.000000, 4.000000, 4.000000, 4.000000, 4.000000, 4.000000, 4.000000
14.000000, 0.000000, 4171.794922, 4124.615234, 4174.358887, 4172.820313, 4129.230469, 4170.769043, 4170.769043, 4132.820313, 4200.512695, 4272.307617, 4152.307617, 4192.307617, 4224.615234, 4167.692383, 3584.000000, 8265.000000, 8136.000000, 0.000000, 0.000000, 0.000000, -21070.000000, 150.769226, 4.000000, 4.000000, 4.000000, 4.000000, 4.000000, 4.000000, 4.000000, 4.000000, 1.000000, 4.000000, 4.000000, 4.000000, 4.000000, 4.000000, 4.000000, 4.000000
15.000000, 0.000000, 4166.153809, 4118.974121, 4167.692383, 4166.666504, 4116.410156, 4167.692383, 4172.820313, 4147.692383, 4198.974121, 4279.487305, 4156.922852, 4192.820313, 4236.922852, 4173.333008, 3559.000000, 8246.000000, 8145.000000, 0.000000, 0.000000, 0.000000, -21070.000000, 158.974350, 4.000000, 4.000000, 4.000000, 4.000000, 4.000000, 4.000000, 4.000000, 4.000000, 1.000000, 4.000000, 4.000000, 4.000000, 4.000000, 4.000000, 4.000000, 4.000000
16.000000, 0.000000, 4174.358887, 4122.563965, 4169.743652, 4166.666504, 4127.179199, 4160.512695, 4164.102539, 4149.743652, 4198.974121, 4281.025391, 4169.743652, 4202.563965, 4255.384277, 4182.051270, 0.000000, 8246.000000, 8145.000000, 0.000000, 0.000000, 0.000000, -21070.000000, 166.666656, 4.000000, 4.000000, 4.000000, 4.000000, 4.000000, 4.000000, 4.000000, 4.000000, 1.000000, 4.000000, 4.000000, 4.000000, 4.000000, 4.000000, 4.000000, 4.000000
17.000000, 0.000000, 4185.127930, 4132.307617, 4178.461426, 4175.897461, 4136.922852, 4155.897461, 4156.922852, 4141.538574, 4199.487305, 4275.897461, 4168.717773, 4206.153809, 4263.589844, 4185.641113, 0.000000, 8239.000000, 8159.000000, 0.000000, 0.000000, 0.000000, -21070.000000, 174.358963, 4.000000, 4.000000, 4.000000, 4.000000, 4.000000, 4.000000, 4.000000, 4.000000, 1.000000, 4.000000, 4.000000, 4.000000, 4.000000, 4.000000, 4.000000, 4.000000
18.000000, 0.000000, 4186.666504, 4134.871582, 4181.538574, 4181.025391, 4131.281738, 4154.871582, 4155.897461, 4135.897461, 4199.487305, 4265.127930, 4158.974121, 4203.589844, 4257.948730, 4182.563965, 0.000000, 8239.000000, 8159.000000, 0.000000, 0.000000, 0.000000, -21070.000000, 182.051285, 4.000000, 4.000000, 4.000000, 4.000000, 4.000000, 4.000000, 4.000000, 4.000000, 1.000000, 4.000000, 4.000000, 4.000000, 4.000000, 4.000000, 4.000000, 4.000000
19.000000, 0.000000, 4184.615234, 4132.820313, 4182.563965, 4174.871582, 4129.230469, 4154.871582, 4156.922852, 4131.281738, 4199.487305, 4259.487305, 4164.102539, 4206.153809, 4259.487305, 4184.102539, 0.000000, 8239.000000, 8176.000000, 0.000000, 0.000000, 0.000000, -21070.000000, 190.256409, 4.000000, 4.000000, 4.000000, 4.000000, 4.000000, 4.000000, 4.000000, 4.000000, 1.000000, 4.000000, 4.000000, 4.000000, 4.000000, 4.000000, 4.000000, 4.000000
20.000000, 0.000000, 4187.179199, 4128.205078, 4180.512695, 4170.256348, 4131.281738, 4154.358887, 4154.871582, 4133.333008, 4199.487305, 4263.076660, 4172.307617, 4208.205078, 4267.692383, 4188.205078, 0.000000, 8239.000000, 8176.000000, 0.000000, 0.000000, 0.000000, -21070.000000, 197.948715, 4.000000, 4.000000, 4.000000, 4.000000, 4.000000, 4.000000, 4.000000, 4.000000, 1.000000, 4.000000, 4.000000, 4.000000, 4.000000, 4.000000, 4.000000, 4.000000
21.000000, 0.000000, 4183.589844, 4122.563965, 4175.897461, 4172.307617, 4130.769043, 4154.871582, 4155.384277, 4142.051270, 4199.487305, 4266.153809, 4170.256348, 4203.589844, 4264.615234, 4183.076660, 0.000000, 8241.000000, 8202.000000, 0.000000, 0.000000, 0.000000, -21070.000000, 205.641022, 4.000000, 4.000000, 4.000000, 4.000000, 4.000000, 4.000000, 4.000000, 4.000000, 1.000000, 4.000000, 4.000000, 4.000000, 4.000000, 4.000000, 4.000000, 4.000000
22.000000, 0.000000, 4171.794922, 4121.025391, 4170.769043, 4166.666504, 4124.615234, 4155.897461, 4153.846191, 4136.410156, 4199.487305, 4266.153809, 4162.563965, 4199.487305, 4254.871582, 4172.307617, 0.000000, 8241.000000, 8202.000000, 0.000000, 0.000000, 0.000000, -21070.000000, 213.333328, 4.000000, 4.000000, 4.000000, 4.000000, 4.000000, 4.000000, 4.000000, 4.000000, 1.000000, 4.000000, 4.000000, 4.000000, 4.000000, 4.000000, 4.000000, 4.000000
23.000000, 0.000000, 4168.717773, 4121.025391, 4171.281738, 4157.948730, 4115.384277, 4153.846191, 4144.102539, 4128.717773, 4199.487305, 4266.153809, 4161.538574, 4198.461426, 4257.436035, 4172.307617, 0.000000, 8241.000000, 8207.000000, 0.000000, 0.000000, 0.000000, -21070.000000, 221.025635, 4.000000, 4.000000, 4.000000, 4.000000, 4.000000, 4.000000, 4.000000, 4.000000, 1.000000, 4.000000, 4.000000, 4.000000, 4.000000, 4.000000, 4.000000, 4.000000
24.000000, 0.000000, 4174.871582, 4116.922852, 4175.897461, 4163.076660, 4120.000000, 4155.897461, 4144.615234, 4133.846191, 4198.974121, 4261.538574, 4164.615234, 4201.025391, 4260.512695, 4181.538574, 0.000000, 8241.000000, 8207.000000, 0.000000, 0.000000, 0.000000, -21070.000000, 229.230759, 4.000000, 4.000000, 4.000000, 4.000000, 4.000000, 4.000000, 4.000000, 4.000000, 1.000000, 4.000000, 4.000000, 4.000000, 4.000000, 4.000000, 4.000000, 4.000000
25.000000, 0.000000, 4175.897461, 4116.922852, 4171.794922, 4170.769043, 4131.281738, 4159.487305, 4153.333008, 4137.948730, 4199.487305, 4254.358887, 4163.076660, 4201.025391, 4253.846191, 4179.487305, 0.000000, 8250.000000, 8206.000000, 0.000000, 0.000000, 0.000000, -21070.000000, 236.923065, 4.000000, 4.000000, 4.000000, 4.000000, 4.000000, 4.000000, 4.000000, 4.000000, 1.000000, 4.000000, 4.000000, 4.000000, 4.000000, 4.000000, 4.000000, 4.000000
26.000000, 0.000000, 4171.794922, 4124.615234, 4168.717773, 4166.666504, 4128.205078, 4158.461426, 4153.333008, 4132.307617, 4199.487305, 4247.692383, 4157.436035, 4196.410156, 4249.230469, 4172.307617, 0.000000, 8250.000000, 8206.000000, 0.000000, 0.000000, 0.000000, -21070.000000, 244.615372, 4.000000, 4.000000, 4.000000, 4.000000, 4.000000, 4.000000, 4.000000, 4.000000, 1.000000, 4.000000, 4.000000, 4.000000, 4.000000, 4.000000, 4.000000, 4.000000
27.000000, 0.000000, 4172.307617, 4123.076660, 4169.230469, 4158.974121, 4121.538574, 4157.436035, 4150.256348, 4128.205078, 4198.461426, 4243.589844, 4157.948730, 4191.794922, 4245.127930, 4171.794922, 0.000000, 8247.000000, 8201.000000, 0.000000, 0.000000, 0.000000, -21070.000000, 252.307693, 4.000000, 4.000000, 4.000000, 4.000000, 4.000000, 4.000000, 4.000000, 4.000000, 1.000000, 4.000000, 4.000000, 4.000000, 4.000000, 4.000000, 4.000000, 4.000000
28.000000, 0.000000, 4166.153809, 4117.436035, 4161.538574, 4153.846191, 4118.461426, 4156.922852, 4156.410156, 4127.692383, 4198.974121, 4235.897461, 4156.410156, 4186.666504, 4228.205078, 4167.179199, 0.000000, 8247.000000, 8201.000000, 0.000000, 0.000000, 0.000000, -21070.000000, 260.000000, 4.000000, 4.000000, 4.000000, 4.000000, 4.000000, 4.000000, 4.000000, 4.000000, 1.000000, 4.000000, 4.000000, 4.000000, 4.000000, 4.000000, 4.000000, 4.000000
29.000000, 0.000000, 4156.922852, 4122.051270, 4157.948730, 4153.333008, 4115.384277, 4154.358887, 4161.025391, 4126.666504, 4200.512695, 4223.076660, 4150.769043, 4183.076660, 4206.666504, 4160.512695, 0.000000, 8241.000000, 8196.000000, 0.000000, 0.000000, 0.000000, -21070.000000, 267.692291, 4.000000, 4.000000, 4.000000, 4.000000, 4.000000, 4.000000, 4.000000, 4.000000, 1.000000, 4.000000, 4.000000, 4.000000, 4.000000, 4.000000, 4.000000, 4.000000
30.000000, 0.000000, 4156.922852, 4124.102539, 4167.179199, 4155.897461, 4112.307617, 4152.820313, 4149.743652, 4127.179199, 4200.512695, 4211.794922, 4153.333008, 4185.641113, 4186.666504, 4161.025391, 0.000000, 8241.000000, 8196.000000, 0.000000, 0.000000, 0.000000, -21070.000000, 275.897430, 4.000000, 4.000000, 4.000000, 4.000000, 4.000000, 4.000000, 4.000000, 4.000000, 1.000000, 4.000000, 4.000000, 4.000000, 4.000000, 4.000000, 4.000000, 4.000000
31.000000, 0.000000, 4160.512695, 4125.641113, 4166.666504, 4155.384277, 4102.563965, 4146.153809, 4136.410156, 4127.179199, 4200.512695, 4200.512695, 4154.358887, 4188.717773, 4161.025391, 4157.948730, 0.000000, 8227.000000, 8193.000000, 0.000000, 0.000000, 0.000000, -21070.000000, 283.589722, 4.000000, 4.000000, 4.000000, 4.000000, 4.000000, 4.000000, 4.000000, 4.000000, 1.000000, 4.000000, 4.000000, 4.000000, 4.000000, 4.000000, 4.000000, 4.000000
