title:winkLeft35, recorded:23.05.18 21.43.35, timestamp started:2018-05-23T14:18:30.888274+02:00            , sampling:128, subject:Noé, labels:COUNTER INTERPOLATED AF3 F7 F3 FC5 T7 P7 O1 O2 P8 T8 FC6 F4 F8 AF4 RAW_CQ GYROX GYROY MARKER MARKER_HARDWARE SYNC TIME_STAMP_s TIME_STAMP_ms CQ_AF3 CQ_F7 CQ_F3 CQ_FC5 CQ_T7 CQ_P7 CQ_O1 CQ_O2 CQ_P8 CQ_T8 CQ_FC6 CQ_F4 CQ_F8 CQ_AF4 CQ_CMS CQ_DRL, chan:40, samples:2200, units:emotiv
80.000000, 0.000000, 4207.692383, 4217.436035, 4198.461426, 4213.333008, 4205.641113, 4206.666504, 4214.358887, 4205.641113, 4206.153809, 4201.025391, 4194.358887, 4198.461426, 4183.589844, 4199.487305, 3512.000000, 8279.000000, 8200.000000, 0.000000, 0.000000, 0.000000, 26705.000000, 412.307678, 4.000000, 4.000000, 4.000000, 4.000000, 4.000000, 4.000000, 4.000000, 4.000000, 4.000000, 4.000000, 4.000000, 4.000000, 4.000000, 4.000000, 4.000000, 4.000000
81.000000, 0.000000, 4208.205078, 4209.230469, 4194.358887, 4211.281738, 4197.436035, 4194.871582, 4216.410156, 4206.666504, 4210.256348, 4207.179199, 4197.436035, 4196.922852, 4184.615234, 4199.487305, 3479.000000, 8262.000000, 8186.000000, 0.000000, 0.000000, 0.000000, 26705.000000, 420.000000, 4.000000, 4.000000, 4.000000, 4.000000, 4.000000, 4.000000, 4.000000, 4.000000, 4.000000, 4.000000, 4.000000, 4.000000, 4.000000, 4.000000, 4.000000, 4.000000
82.000000, 0.000000, 4215.384277, 4213.333008, 4200.512695, 4212.820313, 4204.615234, 4201.538574, 4212.820313, 4204.102539, 4210.769043, 4215.384277, 4200.512695, 4198.974121, 4185.641113, 4198.974121, 3048.000000, 8262.000000, 8186.000000, 0.000000, 0.000000, 0.000000, 26705.000000, 428.205109, 4.000000, 4.000000, 4.000000, 4.000000, 4.000000, 4.000000, 4.000000, 4.000000, 4.000000, 4.000000, 4.000000, 4.000000, 4.000000, 4.000000, 4.000000, 4.000000
83.000000, 0.000000, 4214.358887, 4221.025391, 4203.589844, 4213.846191, 4205.641113, 4208.717773, 4215.384277, 4196.410156, 4196.922852, 4211.794922, 4201.538574, 4198.974121, 4187.179199, 4200.000000, 3560.000000, 8255.000000, 8179.000000, 0.000000, 0.000000, 0.000000, 26705.000000, 436.410248, 4.000000, 4.000000, 4.000000, 4.000000, 4.000000, 4.000000, 4.000000, 4.000000, 4.000000, 4.000000, 4.000000, 4.000000, 4.000000, 4.000000, 4.000000, 4.000000
84.000000, 0.000000, 4207.692383, 4215.384277, 4199.487305, 4213.846191, 4205.641113, 4198.974121, 4215.384277, 4210.769043, 4201.538574, 4205.641113, 4200.000000, 4194.358887, 4184.102539, 4193.846191, 3512.000000, 8255.000000, 8179.000000, 0.000000, 0.000000, 0.000000, 26705.000000, 444.102539, 4.000000, 4.000000, 4.000000, 4.000000, 4.000000, 4.000000, 4.000000, 4.000000, 4.000000, 4.000000, 4.000000, 4.000000, 4.000000, 4.000000, 4.000000, 4.000000
85.000000, 0.000000, 4208.717773, 4213.333008, 4198.974121, 4212.307617, 4213.333008, 4195.897461, 4213.333008, 4238.974121, 4226.666504, 4214.358887, 4200.512695, 4194.358887, 4186.666504, 4190.769043, 3479.000000, 8244.000000, 8170.000000, 0.000000, 0.000000, 0.000000, 26705.000000, 452.307678, 4.000000, 4.000000, 4.000000, 4.000000, 4.000000, 4.000000, 4.000000, 4.000000, 4.000000, 4.000000, 4.000000, 4.000000, 4.000000, 4.000000, 4.000000, 4.000000
86.000000, 0.000000, 4213.333008, 4224.102539, 4206.153809, 4225.127930, 4215.897461, 4214.358887, 4216.922852, 4228.717773, 4228.717773, 4220.512695, 4206.666504, 4203.589844, 4197.436035, 4200.512695, 3048.000000, 8244.000000, 8170.000000, 0.000000, 0.000000, 0.000000, 26705.000000, 460.000000, 4.000000, 4.000000, 4.000000, 4.000000, 4.000000, 4.000000, 4.000000, 4.000000, 4.000000, 4.000000, 4.000000, 4.000000, 4.000000, 4.000000, 4.000000, 4.000000
87.000000, 0.000000, 4215.384277, 4231.281738, 4208.205078, 4226.153809, 4216.410156, 4218.461426, 4216.922852, 4200.000000, 4211.281738, 4216.922852, 4213.846191, 4207.692383, 4201.025391, 4206.153809, 3560.000000, 8237.000000, 8153.000000, 0.000000, 0.000000, 0.000000, 26705.000000, 468.205109, 4.000000, 4.000000, 4.000000, 4.000000, 4.000000, 4.000000, 4.000000, 4.000000, 4.000000, 4.000000, 4.000000, 4.000000, 4.000000, 4.000000, 4.000000, 4.000000
88.000000, 0.000000, 4216.922852, 4232.307617, 4206.153809, 4217.948730, 4220.000000, 4202.051270, 4207.179199, 4205.127930, 4218.974121, 4222.051270, 4215.897461, 4204.615234, 4200.512695, 4203.076660, 3512.000000, 8237.000000, 8153.000000, 0.000000, 0.000000, 0.000000, 26705.000000, 475.897430, 4.000000, 4.000000, 4.000000, 4.000000, 4.000000, 4.000000, 4.000000, 4.000000, 4.000000, 4.000000, 4.000000, 4.000000, 4.000000, 4.000000, 4.000000, 4.000000
89.000000, 0.000000, 4217.436035, 4231.281738, 4207.179199, 4223.589844, 4214.871582, 4200.512695, 4208.717773, 4222.563965, 4233.846191, 4227.692383, 4214.871582, 4202.051270, 4201.538574, 4206.153809, 3479.000000, 8226.000000, 8143.000000, 0.000000, 0.000000, 0.000000, 26705.000000, 484.102539, 4.000000, 4.000000, 4.000000, 4.000000, 4.000000, 4.000000, 4.000000, 4.000000, 4.000000, 4.000000, 4.000000, 4.000000, 4.000000, 4.000000, 4.000000, 4.000000
90.000000, 0.000000, 4217.948730, 4229.230469, 4211.281738, 4222.051270, 4213.333008, 4209.230469, 4223.589844, 4219.487305, 4226.153809, 4226.153809, 4216.922852, 4203.589844, 4202.051270, 4214.358887, 3048.000000, 8226.000000, 8143.000000, 0.000000, 0.000000, 0.000000, 26705.000000, 491.794861, 4.000000, 4.000000, 4.000000, 4.000000, 4.000000, 4.000000, 4.000000, 4.000000, 4.000000, 4.000000, 4.000000, 4.000000, 4.000000, 4.000000, 4.000000, 4.000000
91.000000, 0.000000, 4215.897461, 4231.794922, 4212.820313, 4221.538574, 4219.487305, 4204.102539, 4216.410156, 4206.153809, 4216.922852, 4223.076660, 4217.948730, 4207.179199, 4202.563965, 4212.820313, 3560.000000, 8222.000000, 8131.000000, 0.000000, 0.000000, 0.000000, 26705.000000, 500.000000, 4.000000, 4.000000, 4.000000, 4.000000, 4.000000, 4.000000, 4.000000, 4.000000, 4.000000, 4.000000, 4.000000, 4.000000, 4.000000, 4.000000, 4.000000, 4.000000
92.000000, 0.000000, 4215.897461, 4231.281738, 4211.794922, 4223.076660, 4215.384277, 4196.410156, 4192.307617, 4188.717773, 4212.307617, 4222.051270, 4208.717773, 4204.615234, 4199.487305, 4203.589844, 3512.000000, 8222.000000, 8131.000000, 0.000000, 0.000000, 0.000000, 26705.000000, 507.692291, 4.000000, 4.000000, 4.000000, 4.000000, 4.000000, 4.000000, 4.000000, 4.000000, 4.000000, 4.000000, 4.000000, 4.000000, 4.000000, 4.000000, 4.000000, 4.000000
93.000000, 0.000000, 4220.000000, 4221.538574, 4215.384277, 4220.512695, 4202.563965, 4201.538574, 4197.436035, 4185.641113, 4203.076660, 4214.871582, 4197.948730, 4198.461426, 4190.256348, 4195.897461, 3479.000000, 8223.000000, 8131.000000, 0.000000, 0.000000, 0.000000, 26705.000000, 515.897400, 4.000000, 4.000000, 4.000000, 4.000000, 4.000000, 4.000000, 4.000000, 4.000000, 4.000000, 4.000000, 4.000000, 4.000000, 4.000000, 4.000000, 4.000000, 4.000000
94.000000, 0.000000, 4215.384277, 4213.333008, 4217.436035, 4221.025391, 4197.948730, 4207.179199, 4220.000000, 4201.538574, 4200.512695, 4204.615234, 4196.922852, 4203.076660, 4187.692383, 4199.487305, 3048.000000, 8223.000000, 8131.000000, 0.000000, 0.000000, 0.000000, 26705.000000, 523.589722, 4.000000, 4.000000, 4.000000, 4.000000, 4.000000, 4.000000, 4.000000, 4.000000, 4.000000, 4.000000, 4.000000, 4.000000, 4.000000, 4.000000, 4.000000, 4.000000
95.000000, 0.000000, 4211.794922, 4217.948730, 4213.333008, 4214.871582, 4199.487305, 4197.948730, 4207.179199, 4198.461426, 4203.076660, 4199.487305, 4202.051270, 4212.307617, 4190.769043, 4209.230469, 3560.000000, 8203.000000, 8137.000000, 0.000000, 0.000000, 0.000000, 26705.000000, 531.794861, 4.000000, 4.000000, 4.000000, 4.000000, 4.000000, 4.000000, 4.000000, 4.000000, 4.000000, 4.000000, 4.000000, 4.000000, 4.000000, 4.000000, 4.000000, 4.000000
96.000000, 0.000000, 4219.487305, 4223.589844, 4213.846191, 4216.922852, 4200.000000, 4188.205078, 4181.025391, 4179.487305, 4197.948730, 4198.974121, 4206.666504, 4215.384277, 4194.358887, 4215.384277, 3512.000000, 8203.000000, 8137.000000, 0.000000, 0.000000, 0.000000, 26705.000000, 539.487183, 4.000000, 4.000000, 4.000000, 4.000000, 4.000000, 4.000000, 4.000000, 4.000000, 4.000000, 4.000000, 4.000000, 4.000000, 4.000000, 4.000000, 4.000000, 4.000000
97.000000, 0.000000, 4214.358887, 4214.871582, 4220.000000, 4217.436035, 4204.615234, 4198.974121, 4189.743652, 4185.127930, 4201.025391, 4205.641113, 4211.794922, 4216.410156, 4200.512695, 4216.922852, 3479.000000, 8196.000000, 8148.000000, 0.000000, 0.000000, 0.000000, 26705.000000, 547.692322, 4.000000, 4.000000, 4.000000, 4.000000, 4.000000, 4.000000, 4.000000, 4.000000, 4.000000, 4.000000, 4.000000, 4.000000, 4.000000, 4.000000, 4.000000, 4.000000
98.000000, 0.000000, 4202.563965, 4205.641113, 4214.358887, 4210.769043, 4205.127930, 4206.666504, 4205.127930, 4196.922852, 4208.205078, 4210.769043, 4209.743652, 4212.307617, 4202.051270, 4210.769043, 3048.000000, 8196.000000, 8148.000000, 0.000000, 0.000000, 0.000000, 26705.000000, 555.384583, 4.000000, 4.000000, 4.000000, 4.000000, 4.000000, 4.000000, 4.000000, 4.000000, 4.000000, 4.000000, 4.000000, 4.000000, 4.000000, 4.000000, 4.000000, 4.000000
99.000000, 0.000000, 4212.820313, 4213.846191, 4201.538574, 4213.846191, 4196.922852, 4196.922852, 4198.974121, 4184.102539, 4197.436035, 4204.102539, 4197.436035, 4201.025391, 4195.897461, 4205.127930, 3560.000000, 8191.000000, 8165.000000, 0.000000, 0.000000, 0.000000, 26705.000000, 563.589722, 4.000000, 4.000000, 4.000000, 4.000000, 4.000000, 4.000000, 4.000000, 4.000000, 4.000000, 4.000000, 4.000000, 4.000000, 4.000000, 4.000000, 4.000000, 4.000000
100.000000, 0.000000, 4215.897461, 4225.641113, 4204.615234, 4213.333008, 4203.076660, 4204.102539, 4201.538574, 4188.205078, 4197.948730, 4201.025391, 4192.820313, 4196.410156, 4194.871582, 4212.307617, 3512.000000, 8191.000000, 8165.000000, 0.000000, 0.000000, 0.000000, 26705.000000, 571.794861, 4.000000, 4.000000, 4.000000, 4.000000, 4.000000, 4.000000, 4.000000, 4.000000, 4.000000, 4.000000, 4.000000, 4.000000, 4.000000, 4.000000, 4.000000, 4.000000
101.000000, 0.000000, 4206.666504, 4227.692383, 4212.307617, 4217.948730, 4216.922852, 4213.846191, 4207.179199, 4204.615234, 4214.358887, 4205.641113, 4200.512695, 4201.538574, 4201.025391, 4220.000000, 3479.000000, 8183.000000, 8166.000000, 0.000000, 0.000000, 0.000000, 26705.000000, 579.487183, 4.000000, 4.000000, 4.000000, 4.000000, 4.000000, 4.000000, 4.000000, 4.000000, 4.000000, 4.000000, 4.000000, 4.000000, 4.000000, 4.000000, 4.000000, 4.000000
102.000000, 0.000000, 4216.410156, 4232.820313, 4209.743652, 4222.563965, 4217.436035, 4202.051270, 4186.666504, 4190.256348, 4206.666504, 4204.102539, 4203.589844, 4202.051270, 4202.051270, 4212.307617, 3048.000000, 8183.000000, 8166.000000, 0.000000, 0.000000, 0.000000, 26705.000000, 587.692322, 4.000000, 4.000000, 4.000000, 4.000000, 4.000000, 4.000000, 4.000000, 4.000000, 4.000000, 4.000000, 4.000000, 4.000000, 4.000000, 4.000000, 4.000000, 4.000000
103.000000, 0.000000, 4232.307617, 4239.487305, 4214.358887, 4221.538574, 4217.948730, 4205.641113, 4180.512695, 4178.461426, 4195.897461, 4206.666504, 4204.615234, 4206.666504, 4201.538574, 4212.820313, 3560.000000, 8189.000000, 8160.000000, 0.000000, 0.000000, 0.000000, 26705.000000, 595.384583, 4.000000, 4.000000, 4.000000, 4.000000, 4.000000, 4.000000, 4.000000, 4.000000, 4.000000, 4.000000, 4.000000, 4.000000, 4.000000, 4.000000, 4.000000, 4.000000
104.000000, 0.000000, 4227.179199, 4236.922852, 4226.153809, 4228.205078, 4217.436035, 4220.000000, 4201.025391, 4197.436035, 4209.743652, 4217.436035, 4211.281738, 4220.000000, 4205.127930, 4221.538574, 3512.000000, 8189.000000, 8160.000000, 0.000000, 0.000000, 0.000000, 26705.000000, 603.589722, 4.000000, 4.000000, 4.000000, 4.000000, 4.000000, 4.000000, 4.000000, 4.000000, 4.000000, 4.000000, 4.000000, 4.000000, 4.000000, 4.000000, 4.000000, 4.000000
105.000000, 0.000000, 4212.307617, 4229.230469, 4217.948730, 4220.512695, 4209.743652, 4208.717773, 4203.076660, 4208.717773, 4213.333008, 4210.769043, 4203.589844, 4211.794922, 4197.948730, 4208.205078, 3479.000000, 8202.000000, 8159.000000, 0.000000, 0.000000, 0.000000, 26705.000000, 611.282043, 4.000000, 4.000000, 4.000000, 4.000000, 4.000000, 4.000000, 4.000000, 4.000000, 4.000000, 4.000000, 4.000000, 4.000000, 4.000000, 4.000000, 4.000000, 4.000000
106.000000, 0.000000, 4208.717773, 4220.000000, 4207.179199, 4211.281738, 4206.666504, 4188.717773, 4184.102539, 4197.948730, 4196.410156, 4195.384277, 4188.205078, 4195.897461, 4186.153809, 4193.846191, 3048.000000, 8202.000000, 8159.000000, 0.000000, 0.000000, 0.000000, 26705.000000, 619.487183, 4.000000, 4.000000, 4.000000, 4.000000, 4.000000, 4.000000, 4.000000, 4.000000, 4.000000, 4.000000, 4.000000, 4.000000, 4.000000, 4.000000, 4.000000, 4.000000
107.000000, 0.000000, 4213.333008, 4215.384277, 4212.307617, 4217.948730, 4205.127930, 4188.717773, 4177.948730, 4190.769043, 4197.948730, 4197.948730, 4193.846191, 4197.948730, 4187.692383, 4200.512695, 3560.000000, 8208.000000, 8150.000000, 0.000000, 0.000000, 0.000000, 26705.000000, 627.179443, 4.000000, 4.000000, 4.000000, 4.000000, 4.000000, 4.000000, 4.000000, 4.000000, 4.000000, 4.000000, 4.000000, 4.000000, 4.000000, 4.000000, 4.000000, 4.000000
108.000000, 0.000000, 4216.922852, 4224.102539, 4213.846191, 4217.948730, 4206.153809, 4202.051270, 4195.897461, 4194.871582, 4213.333008, 4209.230469, 4204.102539, 4204.102539, 4193.846191, 4204.102539, 3512.000000, 8208.000000, 8150.000000, 0.000000, 0.000000, 0.000000, 26705.000000, 635.384583, 4.000000, 4.000000, 4.000000, 4.000000, 4.000000, 4.000000, 4.000000, 4.000000, 4.000000, 4.000000, 4.000000, 4.000000, 4.000000, 4.000000, 4.000000, 4.000000
109.000000, 0.000000, 4212.820313, 4231.281738, 4210.769043, 4216.922852, 4211.281738, 4210.769043, 4207.179199, 4204.615234, 4211.281738, 4213.333008, 4200.000000, 4202.563965, 4188.717773, 4197.948730, 3479.000000, 8209.000000, 8139.000000, 0.000000, 0.000000, 0.000000, 26705.000000, 643.076904, 4.000000, 4.000000, 4.000000, 4.000000, 4.000000, 4.000000, 4.000000, 4.000000, 4.000000, 4.000000, 4.000000, 4.000000, 4.000000, 4.000000, 4.000000, 4.000000
110.000000, 0.000000, 4210.256348, 4229.743652, 4214.358887, 4218.974121, 4203.076660, 4200.512695, 4194.871582, 4201.538574, 4199.487305, 4207.179199, 4197.948730, 4200.000000, 4186.666504, 4198.461426, 3048.000000, 8209.000000, 8139.000000, 0.000000, 0.000000, 0.000000, 26705.000000, 651.282043, 4.000000, 4.000000, 4.000000, 4.000000, 4.000000, 4.000000, 4.000000, 4.000000, 4.000000, 4.000000, 4.000000, 4.000000, 4.000000, 4.000000, 4.000000, 4.000000
111.000000, 0.000000, 4215.384277, 4230.256348, 4220.512695, 4224.102539, 4194.358887, 4190.769043, 4185.127930, 4187.692383, 4196.922852, 4197.948730, 4198.974121, 4200.512695, 4190.256348, 4201.538574, 3560.000000, 8208.000000, 8134.000000, 0.000000, 0.000000, 0.000000, 26705.000000, 659.487183, 4.000000, 4.000000, 4.000000, 4.000000, 4.000000, 4.000000, 4.000000, 4.000000, 4.000000, 4.000000, 4.000000, 4.000000, 4.000000, 4.000000, 4.000000, 4.000000
112.000000, 0.000000, 4212.820313, 4226.153809, 4219.487305, 4220.000000, 4203.589844, 4196.410156, 4197.436035, 4190.256348, 4197.948730, 4196.922852, 4196.922852, 4202.563965, 4187.179199, 4200.512695, 3512.000000, 8208.000000, 8134.000000, 0.000000, 0.000000, 0.000000, 26705.000000, 667.179443, 4.000000, 4.000000, 4.000000, 4.000000, 4.000000, 4.000000, 4.000000, 4.000000, 4.000000, 4.000000, 4.000000, 4.000000, 4.000000, 4.000000, 4.000000, 4.000000
113.000000, 0.000000, 4212.307617, 4218.461426, 4216.410156, 4209.743652, 4205.127930, 4194.358887, 4207.692383, 4202.563965, 4200.512695, 4201.538574, 4197.436035, 4203.589844, 4184.102539, 4200.512695, 3479.000000, 8199.000000, 8125.000000, 0.000000, 0.000000, 0.000000, 26705.000000, 674.871765, 4.000000, 4.000000, 4.000000, 4.000000, 4.000000, 4.000000, 4.000000, 4.000000, 4.000000, 4.000000, 4.000000, 4.000000, 4.000000, 4.000000, 4.000000, 4.000000
114.000000, 0.000000, 4222.051270, 4219.487305, 4214.358887, 4216.922852, 4196.410156, 4188.205078, 4202.051270, 4204.615234, 4207.179199, 4202.051270, 4199.487305, 4209.230469, 4190.769043, 4200.512695, 3048.000000, 8199.000000, 8125.000000, 0.000000, 0.000000, 0.000000, 26705.000000, 683.076904, 4.000000, 4.000000, 4.000000, 4.000000, 4.000000, 4.000000, 4.000000, 4.000000, 4.000000, 4.000000, 4.000000, 4.000000, 4.000000, 4.000000, 4.000000, 4.000000
115.000000, 0.000000, 4227.179199, 4224.102539, 4216.922852, 4220.000000, 4200.000000, 4199.487305, 4210.769043, 4204.102539, 4212.307617, 4210.769043, 4206.666504, 4218.974121, 4200.000000, 4209.230469, 3560.000000, 8184.000000, 8105.000000, 0.000000, 0.000000, 0.000000, 26705.000000, 691.282043, 4.000000, 4.000000, 4.000000, 4.000000, 4.000000, 4.000000, 4.000000, 4.000000, 4.000000, 4.000000, 4.000000, 4.000000, 4.000000, 4.000000, 4.000000, 4.000000
116.000000, 0.000000, 4223.589844, 4218.974121, 4221.538574, 4215.897461, 4200.512695, 4204.615234, 4218.974121, 4212.307617, 4215.384277, 4217.948730, 4207.692383, 4216.410156, 4198.461426, 4214.871582, 3512.000000, 8184.000000, 8105.000000, 0.000000, 0.000000, 0.000000, 26705.000000, 698.974365, 4.000000, 4.000000, 4.000000, 4.000000, 4.000000, 4.000000, 4.000000, 4.000000, 4.000000, 4.000000, 4.000000, 4.000000, 4.000000, 4.000000, 4.000000, 4.000000
117.000000, 0.000000, 4214.358887, 4212.307617, 4215.897461, 4212.307617, 4200.000000, 4196.410156, 4205.641113, 4216.410156, 4211.794922, 4208.205078, 4198.461426, 4204.102539, 4188.717773, 4206.153809, 3479.000000, 8171.000000, 8093.000000, 0.000000, 0.000000, 0.000000, 26705.000000, 707.179443, 4.000000, 4.000000, 4.000000, 4.000000, 4.000000, 4.000000, 4.000000, 4.000000, 4.000000, 4.000000, 4.000000, 4.000000, 4.000000, 4.000000, 4.000000, 4.000000
118.000000, 0.000000, 4205.641113, 4215.384277, 4210.769043, 4206.153809, 4211.794922, 4205.127930, 4200.000000, 4205.127930, 4204.102539, 4205.641113, 4202.563965, 4205.641113, 4191.281738, 4206.153809, 3048.000000, 8171.000000, 8093.000000, 0.000000, 0.000000, 0.000000, 26705.000000, 714.871765, 4.000000, 4.000000, 4.000000, 4.000000, 4.000000, 4.000000, 4.000000, 4.000000, 4.000000, 4.000000, 4.000000, 4.000000, 4.000000, 4.000000, 4.000000, 4.000000
119.000000, 0.000000, 4209.743652, 4224.102539, 4217.948730, 4215.897461, 4218.974121, 4218.461426, 4205.641113, 4194.358887, 4208.205078, 4215.384277, 4216.922852, 4219.487305, 4203.076660, 4218.974121, 3560.000000, 8167.000000, 8074.000000, 0.000000, 0.000000, 0.000000, 26705.000000, 723.076904, 4.000000, 4.000000, 4.000000, 4.000000, 4.000000, 4.000000, 4.000000, 4.000000, 4.000000, 4.000000, 4.000000, 4.000000, 4.000000, 4.000000, 4.000000, 4.000000
120.000000, 0.000000, 4217.436035, 4229.743652, 4221.538574, 4219.487305, 4217.436035, 4205.641113, 4191.281738, 4187.179199, 4207.179199, 4208.205078, 4209.743652, 4219.487305, 4198.974121, 4214.358887, 3512.000000, 8167.000000, 8074.000000, 0.000000, 0.000000, 0.000000, 26705.000000, 730.769226, 4.000000, 4.000000, 4.000000, 4.000000, 4.000000, 4.000000, 4.000000, 4.000000, 4.000000, 4.000000, 4.000000, 4.000000, 4.000000, 4.000000, 4.000000, 4.000000
121.000000, 0.000000, 4208.717773, 4221.538574, 4208.717773, 4207.692383, 4218.461426, 4200.000000, 4180.000000, 4176.410156, 4185.641113, 4184.615234, 4188.717773, 4200.000000, 4181.025391, 4198.461426, 3479.000000, 8162.000000, 8081.000000, 0.000000, 0.000000, 0.000000, 26705.000000, 738.974365, 4.000000, 4.000000, 4.000000, 4.000000, 4.000000, 4.000000, 4.000000, 4.000000, 4.000000, 4.000000, 4.000000, 4.000000, 4.000000, 4.000000, 4.000000, 4.000000
122.000000, 0.000000, 4192.820313, 4206.153809, 4196.922852, 4204.615234, 4213.333008, 4222.051270, 4202.563965, 4172.820313, 4181.538574, 4177.948730, 4180.512695, 4186.153809, 4169.743652, 4192.307617, 3048.000000, 8162.000000, 8081.000000, 0.000000, 0.000000, 0.000000, 26705.000000, 746.666626, 4.000000, 4.000000, 4.000000, 4.000000, 4.000000, 4.000000, 4.000000, 4.000000, 4.000000, 4.000000, 4.000000, 4.000000, 4.000000, 4.000000, 4.000000, 4.000000
123.000000, 0.000000, 4190.769043, 4201.538574, 4196.410156, 4199.487305, 4206.666504, 4236.922852, 4223.589844, 4192.820313, 4207.179199, 4189.743652, 4184.615234, 4187.179199, 4166.153809, 4189.230469, 3560.000000, 8159.000000, 8084.000000, 0.000000, 0.000000, 0.000000, 26705.000000, 754.871765, 4.000000, 4.000000, 4.000000, 4.000000, 4.000000, 4.000000, 4.000000, 4.000000, 4.000000, 4.000000, 4.000000, 4.000000, 4.000000, 4.000000, 4.000000, 4.000000
124.000000, 0.000000, 4198.974121, 4202.051270, 4198.461426, 4199.487305, 4206.153809, 4227.692383, 4217.436035, 4207.179199, 4216.922852, 4200.000000, 4192.307617, 4195.897461, 4171.281738, 4190.256348, 3512.000000, 8159.000000, 8084.000000, 0.000000, 0.000000, 0.000000, 26705.000000, 762.564087, 4.000000, 4.000000, 4.000000, 4.000000, 4.000000, 4.000000, 4.000000, 4.000000, 4.000000, 4.000000, 4.000000, 4.000000, 4.000000, 4.000000, 4.000000, 4.000000
125.000000, 0.000000, 4198.461426, 4203.076660, 4197.436035, 4200.512695, 4208.717773, 4220.000000, 4209.230469, 4193.846191, 4205.127930, 4204.615234, 4196.922852, 4199.487305, 4180.000000, 4194.871582, 3479.000000, 8155.000000, 8063.000000, 0.000000, 0.000000, 0.000000, 26705.000000, 770.769226, 4.000000, 4.000000, 4.000000, 4.000000, 4.000000, 4.000000, 4.000000, 4.000000, 4.000000, 4.000000, 4.000000, 4.000000, 4.000000, 4.000000, 4.000000, 4.000000
126.000000, 0.000000, 4192.820313, 4206.666504, 4199.487305, 4200.000000, 4210.256348, 4221.025391, 4202.563965, 4184.615234, 4196.410156, 4203.589844, 4195.384277, 4195.897461, 4183.076660, 4194.358887, 3048.000000, 8155.000000, 8063.000000, 0.000000, 0.000000, 0.000000, 26705.000000, 778.461548, 4.000000, 4.000000, 4.000000, 4.000000, 4.000000, 4.000000, 4.000000, 4.000000, 4.000000, 4.000000, 4.000000, 4.000000, 4.000000, 4.000000, 4.000000, 4.000000
127.000000, 0.000000, 4184.102539, 4204.102539, 4200.000000, 4202.563965, 4203.076660, 4206.153809, 4192.307617, 4188.205078, 4197.436035, 4195.384277, 4190.769043, 4188.717773, 4178.461426, 4186.666504, 52.000000, 8152.000000, 8052.000000, 0.000000, 0.000000, 0.000000, 26705.000000, 786.153809, 4.000000, 4.000000, 4.000000, 4.000000, 4.000000, 4.000000, 4.000000, 4.000000, 4.000000, 4.000000, 4.000000, 4.000000, 4.000000, 4.000000, 4.000000, 4.000000
0.000000, 0.000000, 4184.102539, 4203.076660, 4191.794922, 4198.974121, 4196.922852, 4186.153809, 4183.076660, 4181.538574, 4203.076660, 4190.256348, 4185.127930, 4182.051270, 4170.769043, 4181.538574, 3489.000000, 8152.000000, 8052.000000, 0.000000, 0.000000, 0.000000, 26705.000000, 794.358948, 4.000000, 4.000000, 4.000000, 4.000000, 4.000000, 4.000000, 4.000000, 4.000000, 4.000000, 4.000000, 4.000000, 4.000000, 4.000000, 4.000000, 4.000000, 4.000000
1.000000, 0.000000, 4197.436035, 4212.820313, 4193.846191, 4206.153809, 4208.205078, 4191.281738, 4172.820313, 4171.794922, 4204.102539, 4197.436035, 4183.076660, 4184.102539, 4174.871582, 4183.589844, 2205.000000, 8151.000000, 8030.000000, 0.000000, 0.000000, 0.000000, 26705.000000, 802.051270, 4.000000, 4.000000, 4.000000, 4.000000, 4.000000, 4.000000, 4.000000, 4.000000, 4.000000, 4.000000, 4.000000, 4.000000, 4.000000, 4.000000, 4.000000, 4.000000
2.000000, 0.000000, 4197.948730, 4220.000000, 4205.127930, 4210.256348, 4220.512695, 4206.666504, 4169.230469, 4175.384277, 4203.589844, 4203.076660, 4185.127930, 4187.692383, 4181.538574, 4187.179199, 3083.000000, 8151.000000, 8030.000000, 0.000000, 0.000000, 0.000000, 26705.000000, 810.256409, 4.000000, 4.000000, 4.000000, 4.000000, 4.000000, 4.000000, 4.000000, 4.000000, 4.000000, 4.000000, 4.000000, 4.000000, 4.000000, 4.000000, 4.000000, 4.000000
3.000000, 0.000000, 4188.205078, 4212.307617, 4198.461426, 4198.974121, 4211.281738, 4200.512695, 4168.717773, 4173.333008, 4202.051270, 4197.436035, 4186.666504, 4183.589844, 4176.922852, 4183.589844, 3548.000000, 8149.000000, 8014.000000, 0.000000, 0.000000, 0.000000, 26705.000000, 817.948669, 4.000000, 4.000000, 4.000000, 4.000000, 4.000000, 4.000000, 4.000000, 4.000000, 4.000000, 4.000000, 4.000000, 4.000000, 4.000000, 4.000000, 4.000000, 4.000000
4.000000, 0.000000, 4188.205078, 4202.563965, 4187.692383, 4197.948730, 4197.948730, 4192.307617, 4172.307617, 4169.230469, 4197.436035, 4196.410156, 4185.641113, 4183.076660, 4169.743652, 4180.000000, 3534.000000, 8149.000000, 8014.000000, 0.000000, 0.000000, 0.000000, 26705.000000, 825.640991, 4.000000, 4.000000, 4.000000, 4.000000, 4.000000, 4.000000, 4.000000, 4.000000, 4.000000, 4.000000, 4.000000, 4.000000, 4.000000, 4.000000, 4.000000, 4.000000
5.000000, 0.000000, 4197.436035, 4204.615234, 4194.871582, 4200.512695, 4203.589844, 4202.051270, 4185.127930, 4181.538574, 4197.948730, 4202.563965, 4185.127930, 4187.692383, 4169.743652, 4181.538574, 3573.000000, 8146.000000, 8006.000000, 0.000000, 0.000000, 0.000000, 26705.000000, 833.846130, 4.000000, 4.000000, 4.000000, 4.000000, 4.000000, 4.000000, 4.000000, 4.000000, 4.000000, 4.000000, 4.000000, 4.000000, 4.000000, 4.000000, 4.000000, 4.000000
6.000000, 0.000000, 4201.025391, 4210.256348, 4204.102539, 4205.127930, 4207.692383, 4198.461426, 4184.102539, 4188.205078, 4201.538574, 4199.487305, 4190.769043, 4192.820313, 4176.410156, 4185.127930, 3502.000000, 8146.000000, 8006.000000, 0.000000, 0.000000, 0.000000, 26705.000000, 841.538452, 4.000000, 4.000000, 4.000000, 4.000000, 4.000000, 4.000000, 4.000000, 4.000000, 4.000000, 4.000000, 4.000000, 4.000000, 4.000000, 4.000000, 4.000000, 4.000000
7.000000, 0.000000, 4199.487305, 4209.743652, 4203.076660, 4206.666504, 4203.589844, 4184.615234, 4167.692383, 4173.846191, 4197.948730, 4196.922852, 4196.922852, 4197.948730, 4180.000000, 4193.846191, 3502.000000, 8144.000000, 7992.000000, 0.000000, 0.000000, 0.000000, 26705.000000, 849.743591, 4.000000, 4.000000, 4.000000, 4.000000, 4.000000, 4.000000, 4.000000, 4.000000, 4.000000, 4.000000, 4.000000, 4.000000, 4.000000, 4.000000, 4.000000, 4.000000
8.000000, 0.000000, 4206.153809, 4207.179199, 4206.153809, 4204.102539, 4201.025391, 4186.153809, 4163.589844, 4168.717773, 4197.436035, 4202.563965, 4194.871582, 4199.487305, 4176.922852, 4200.512695, 3343.000000, 8144.000000, 7992.000000, 0.000000, 0.000000, 0.000000, 26705.000000, 857.435852, 4.000000, 4.000000, 4.000000, 4.000000, 4.000000, 4.000000, 4.000000, 4.000000, 4.000000, 4.000000, 4.000000, 4.000000, 4.000000, 4.000000, 4.000000, 4.000000
9.000000, 0.000000, 4211.281738, 4207.692383, 4208.205078, 4207.179199, 4200.512695, 4191.794922, 4180.512695, 4184.102539, 4204.615234, 4196.410156, 4185.641113, 4196.410156, 4167.692383, 4192.307617, 3536.000000, 8137.000000, 7999.000000, 0.000000, 0.000000, 0.000000, 26705.000000, 865.640991, 4.000000, 4.000000, 4.000000, 4.000000, 4.000000, 4.000000, 4.000000, 4.000000, 4.000000, 4.000000, 4.000000, 4.000000, 4.000000, 4.000000, 4.000000, 4.000000
10.000000, 0.000000, 4202.051270, 4205.641113, 4203.589844, 4205.641113, 4197.436035, 4185.641113, 4182.051270, 4185.127930, 4200.512695, 4186.153809, 4185.127930, 4195.384277, 4164.615234, 4183.589844, 3050.000000, 8137.000000, 7999.000000, 0.000000, 0.000000, 0.000000, 26705.000000, 873.333313, 4.000000, 4.000000, 4.000000, 4.000000, 4.000000, 4.000000, 4.000000, 4.000000, 4.000000, 4.000000, 4.000000, 4.000000, 4.000000, 4.000000, 4.000000, 4.000000
11.000000, 0.000000, 4196.410156, 4201.538574, 4201.538574, 4205.127930, 4197.436035, 4185.641113, 4175.384277, 4173.333008, 4193.846191, 4191.281738, 4191.794922, 4199.487305, 4168.717773, 4192.820313, 3560.000000, 8133.000000, 8018.000000, 0.000000, 0.000000, 0.000000, 26705.000000, 881.538452, 4.000000, 4.000000, 4.000000, 4.000000, 4.000000, 4.000000, 4.000000, 4.000000, 4.000000, 4.000000, 4.000000, 4.000000, 4.000000, 4.000000, 4.000000, 4.000000
12.000000, 0.000000, 4202.051270, 4201.025391, 4201.538574, 4206.153809, 4205.641113, 4197.948730, 4181.025391, 4182.051270, 4199.487305, 4197.436035, 4193.333008, 4206.666504, 4172.307617, 4202.051270, 3516.000000, 8133.000000, 8018.000000, 0.000000, 0.000000, 0.000000, 26705.000000, 889.230774, 4.000000, 4.000000, 4.000000, 4.000000, 4.000000, 4.000000, 4.000000, 4.000000, 4.000000, 4.000000, 4.000000, 4.000000, 4.000000, 4.000000, 4.000000, 4.000000
13.000000, 0.000000, 4197.948730, 4200.512695, 4199.487305, 4199.487305, 4204.102539, 4195.384277, 4182.051270, 4193.333008, 4197.436035, 4189.230469, 4189.230469, 4205.127930, 4165.641113, 4192.820313, 3479.000000, 8134.000000, 8026.000000, 0.000000, 0.000000, 0.000000, 26705.000000, 896.923035, 4.000000, 4.000000, 4.000000, 4.000000, 4.000000, 4.000000, 4.000000, 4.000000, 4.000000, 4.000000, 4.000000, 4.000000, 4.000000, 4.000000, 4.000000, 4.000000
14.000000, 0.000000, 4186.666504, 4195.384277, 4194.358887, 4200.000000, 4198.461426, 4179.487305, 4173.333008, 4178.461426, 4183.076660, 4177.948730, 4179.487305, 4194.358887, 4153.846191, 4178.461426, 3050.000000, 8134.000000, 8026.000000, 0.000000, 0.000000, 0.000000, 26705.000000, 905.128174, 4.000000, 4.000000, 4.000000, 4.000000, 4.000000, 4.000000, 4.000000, 4.000000, 4.000000, 4.000000, 4.000000, 4.000000, 4.000000, 4.000000, 4.000000, 4.000000
15.000000, 0.000000, 4194.871582, 4200.512695, 4196.410156, 4202.051270, 4209.743652, 4184.102539, 4167.692383, 4178.974121, 4192.307617, 4183.076660, 4182.563965, 4194.358887, 4163.076660, 4185.127930, 3560.000000, 8131.000000, 8026.000000, 0.000000, 0.000000, 0.000000, 26705.000000, 912.820496, 4.000000, 4.000000, 4.000000, 4.000000, 4.000000, 4.000000, 4.000000, 4.000000, 4.000000, 4.000000, 4.000000, 4.000000, 4.000000, 4.000000, 4.000000, 4.000000
16.000000, 0.000000, 4213.846191, 4215.384277, 4204.615234, 4210.256348, 4218.461426, 4201.538574, 4169.230469, 4202.051270, 4213.846191, 4201.025391, 4199.487305, 4206.666504, 4176.410156, 4203.076660, 0.000000, 8131.000000, 8026.000000, 0.000000, 0.000000, 0.000000, 26705.000000, 921.025635, 4.000000, 4.000000, 4.000000, 4.000000, 4.000000, 4.000000, 4.000000, 4.000000, 4.000000, 4.000000, 4.000000, 4.000000, 4.000000, 4.000000, 4.000000, 4.000000
17.000000, 0.000000, 4217.436035, 4221.025391, 4203.589844, 4211.794922, 4215.384277, 4197.436035, 4165.641113, 4190.256348, 4210.256348, 4203.076660, 4199.487305, 4207.179199, 4167.179199, 4203.076660, 0.000000, 8132.000000, 8016.000000, 0.000000, 0.000000, 0.000000, 26705.000000, 928.717896, 4.000000, 4.000000, 4.000000, 4.000000, 4.000000, 4.000000, 4.000000, 4.000000, 4.000000, 4.000000, 4.000000, 4.000000, 4.000000, 4.000000, 4.000000, 4.000000
18.000000, 0.000000, 4214.871582, 4213.846191, 4198.461426, 4199.487305, 4213.846191, 4185.641113, 4165.641113, 4163.589844, 4198.461426, 4192.307617, 4191.794922, 4198.461426, 4167.692383, 4194.871582, 0.000000, 8132.000000, 8016.000000, 0.000000, 0.000000, 0.000000, 26705.000000, 936.410217, 4.000000, 4.000000, 4.000000, 4.000000, 4.000000, 4.000000, 4.000000, 4.000000, 4.000000, 4.000000, 4.000000, 4.000000, 4.000000, 4.000000, 4.000000, 4.000000
19.000000, 0.000000, 4219.487305, 4211.794922, 4200.000000, 4205.641113, 4217.948730, 4198.974121, 4178.461426, 4166.666504, 4199.487305, 4197.436035, 4200.000000, 4202.563965, 4186.153809, 4206.153809, 0.000000, 8129.000000, 8012.000000, 0.000000, 0.000000, 0.000000, 26705.000000, 944.615356, 4.000000, 4.000000, 4.000000, 4.000000, 4.000000, 4.000000, 4.000000, 4.000000, 4.000000, 4.000000, 4.000000, 4.000000, 4.000000, 4.000000, 4.000000, 4.000000
20.000000, 0.000000, 4220.512695, 4220.000000, 4205.127930, 4211.281738, 4220.512695, 4212.820313, 4188.205078, 4175.384277, 4202.051270, 4211.281738, 4209.743652, 4208.205078, 4192.820313, 4220.000000, 0.000000, 8129.000000, 8012.000000, 0.000000, 0.000000, 0.000000, 26705.000000, 952.307678, 4.000000, 4.000000, 4.000000, 4.000000, 4.000000, 4.000000, 4.000000, 4.000000, 4.000000, 4.000000, 4.000000, 4.000000, 4.000000, 4.000000, 4.000000, 4.000000
21.000000, 0.000000, 4211.794922, 4219.487305, 4205.641113, 4205.641113, 4218.974121, 4205.127930, 4190.256348, 4167.692383, 4197.948730, 4205.127930, 4203.589844, 4199.487305, 4187.692383, 4212.820313, 0.000000, 8119.000000, 8020.000000, 0.000000, 0.000000, 0.000000, 26705.000000, 960.512817, 4.000000, 4.000000, 4.000000, 4.000000, 4.000000, 4.000000, 4.000000, 4.000000, 4.000000, 4.000000, 4.000000, 4.000000, 4.000000, 4.000000, 4.000000, 4.000000
22.000000, 0.000000, 4205.127930, 4206.666504, 4195.384277, 4201.025391, 4213.846191, 4202.051270, 4187.179199, 4171.794922, 4200.512695, 4192.820313, 4191.794922, 4186.153809, 4181.025391, 4196.410156, 0.000000, 8119.000000, 8020.000000, 0.000000, 0.000000, 0.000000, 26705.000000, 968.205078, 4.000000, 4.000000, 4.000000, 4.000000, 4.000000, 4.000000, 4.000000, 4.000000, 4.000000, 4.000000, 4.000000, 4.000000, 4.000000, 4.000000, 4.000000, 4.000000
23.000000, 0.000000, 4205.127930, 4200.000000, 4182.563965, 4194.358887, 4212.820313, 4213.333008, 4185.127930, 4187.692383, 4205.127930, 4195.897461, 4185.127930, 4181.538574, 4170.769043, 4187.692383, 0.000000, 8116.000000, 8031.000000, 0.000000, 0.000000, 0.000000, 26705.000000, 975.897400, 4.000000, 4.000000, 4.000000, 4.000000, 4.000000, 4.000000, 4.000000, 4.000000, 4.000000, 4.000000, 4.000000, 4.000000, 4.000000, 4.000000, 4.000000, 4.000000
24.000000, 0.000000, 4206.153809, 4207.692383, 4184.102539, 4197.948730, 4222.563965, 4213.846191, 4182.563965, 4196.922852, 4203.589844, 4198.974121, 4185.127930, 4184.615234, 4167.692383, 4186.153809, 0.000000, 8116.000000, 8031.000000, 0.000000, 0.000000, 0.000000, 26705.000000, 984.102539, 4.000000, 4.000000, 4.000000, 4.000000, 4.000000, 4.000000, 4.000000, 4.000000, 4.000000, 4.000000, 4.000000, 4.000000, 4.000000, 4.000000, 4.000000, 4.000000
25.000000, 0.000000, 4198.461426, 4206.666504, 4190.769043, 4197.948730, 4215.897461, 4204.615234, 4185.127930, 4201.538574, 4203.589844, 4191.281738, 4186.666504, 4187.179199, 4170.769043, 4182.563965, 0.000000, 8112.000000, 8036.000000, 0.000000, 0.000000, 0.000000, 26705.000000, 991.794861, 4.000000, 4.000000, 4.000000, 4.000000, 4.000000, 4.000000, 4.000000, 4.000000, 4.000000, 4.000000, 4.000000, 4.000000, 4.000000, 4.000000, 4.000000, 4.000000
26.000000, 0.000000, 4185.127930, 4188.205078, 4181.025391, 4192.820313, 4196.922852, 4203.076660, 4193.333008, 4196.410156, 4191.281738, 4182.563965, 4176.922852, 4180.000000, 4160.512695, 4172.307617, 0.000000, 8112.000000, 8036.000000, 0.000000, 0.000000, 0.000000, 26705.000000, 999.487183, 4.000000, 4.000000, 4.000000, 4.000000, 4.000000, 4.000000, 4.000000, 4.000000, 4.000000, 4.000000, 4.000000, 4.000000, 4.000000, 4.000000, 4.000000, 4.000000
27.000000, 0.000000, 4178.461426, 4177.436035, 4167.692383, 4192.820313, 4199.487305, 4198.974121, 4187.692383, 4178.461426, 4170.256348, 4176.922852, 4166.666504, 4170.769043, 4153.846191, 4167.692383, 0.000000, 8120.000000, 8032.000000, 0.000000, 0.000000, 0.000000, 26706.000000, 7.692307, 4.000000, 4.000000, 4.000000, 4.000000, 4.000000, 4.000000, 4.000000, 4.000000, 4.000000, 4.000000, 4.000000, 4.000000, 4.000000, 4.000000, 4.000000, 4.000000
28.000000, 0.000000, 4186.666504, 4191.281738, 4172.820313, 4190.256348, 4218.974121, 4192.820313, 4168.717773, 4161.025391, 4171.281738, 4176.922852, 4172.820313, 4170.769043, 4163.589844, 4176.410156, 0.000000, 8120.000000, 8032.000000, 0.000000, 0.000000, 0.000000, 26706.000000, 15.384615, 4.000000, 4.000000, 4.000000, 4.000000, 4.000000, 4.000000, 4.000000, 4.000000, 4.000000, 4.000000, 4.000000, 4.000000, 4.000000, 4.000000, 4.000000, 4.000000
29.000000, 0.000000, 4209.230469, 4210.256348, 4186.153809, 4200.000000, 4224.615234, 4205.127930, 4167.692383, 4159.487305, 4189.743652, 4184.615234, 4184.102539, 4180.000000, 4175.384277, 4186.666504, 0.000000, 8133.000000, 8039.000000, 0.000000, 0.000000, 0.000000, 26706.000000, 23.589743, 4.000000, 4.000000, 4.000000, 4.000000, 4.000000, 4.000000, 4.000000, 4.000000, 4.000000, 4.000000, 4.000000, 4.000000, 4.000000, 4.000000, 4.000000, 4.000000
30.000000, 0.000000, 4213.333008, 4209.230469, 4189.230469, 4205.127930, 4211.281738, 4215.384277, 4185.641113, 4166.666504, 4192.307617, 4187.692383, 4186.666504, 4183.076660, 4175.384277, 4193.846191, 0.000000, 8133.000000, 8039.000000, 0.000000, 0.000000, 0.000000, 26706.000000, 31.282051, 4.000000, 4.000000, 4.000000, 4.000000, 4.000000, 4.000000, 4.000000, 4.000000, 4.000000, 4.000000, 4.000000, 4.000000, 4.000000, 4.000000, 4.000000, 4.000000
31.000000, 0.000000, 4202.051270, 4202.563965, 4186.666504, 4200.512695, 4207.692383, 4205.641113, 4189.743652, 4168.205078, 4182.051270, 4187.692383, 4182.051270, 4182.563965, 4171.794922, 4197.948730, 0.000000, 8144.000000, 8038.000000, 0.000000, 0.000000, 0.000000, 26706.000000, 38.974358, 4.000000, 4.000000, 4.000000, 4.000000, 4.000000, 4.000000, 4.000000, 4.000000, 4.000000, 4.000000, 4.000000, 4.000000, 4.000000, 4.000000, 4.000000, 4.000000
32.000000, 0.000000, 4205.641113, 4206.666504, 4187.692383, 4206.666504, 4218.461426, 4197.948730, 4181.538574, 4167.692383, 4186.666504, 4195.897461, 4187.692383, 4192.820313, 4179.487305, 4198.974121, 0.000000, 8144.000000, 8038.000000, 0.000000, 0.000000, 0.000000, 26706.000000, 47.179485, 4.000000, 4.000000, 4.000000, 4.000000, 4.000000, 4.000000, 4.000000, 4.000000, 4.000000, 4.000000, 4.000000, 4.000000, 4.000000, 4.000000, 4.000000, 4.000000
33.000000, 0.000000, 4214.871582, 4212.307617, 4188.205078, 4207.179199, 4221.025391, 4206.153809, 4192.820313, 4184.615234, 4206.666504, 4208.205078, 4200.000000, 4201.538574, 4188.717773, 4203.589844, 0.000000, 8150.000000, 8043.000000, 0.000000, 0.000000, 0.000000, 26706.000000, 54.871792, 4.000000, 4.000000, 4.000000, 4.000000, 4.000000, 4.000000, 4.000000, 4.000000, 4.000000, 4.000000, 4.000000, 4.000000, 4.000000, 4.000000, 4.000000, 4.000000
34.000000, 0.000000, 4209.230469, 4210.769043, 4190.769043, 4207.692383, 4217.436035, 4211.794922, 4209.743652, 4216.410156, 4222.563965, 4212.307617, 4204.615234, 4200.512695, 4189.230469, 4209.230469, 0.000000, 8150.000000, 8043.000000, 0.000000, 0.000000, 0.000000, 26706.000000, 62.564102, 4.000000, 4.000000, 4.000000, 4.000000, 4.000000, 4.000000, 4.000000, 4.000000, 4.000000, 4.000000, 4.000000, 4.000000, 4.000000, 4.000000, 4.000000, 4.000000
35.000000, 0.000000, 4195.897461, 4207.179199, 4190.769043, 4203.076660, 4214.358887, 4201.538574, 4200.000000, 4220.000000, 4216.410156, 4208.717773, 4196.410156, 4193.333008, 4184.615234, 4200.000000, 0.000000, 8149.000000, 8043.000000, 0.000000, 0.000000, 0.000000, 26706.000000, 70.769226, 4.000000, 4.000000, 4.000000, 4.000000, 4.000000, 4.000000, 4.000000, 4.000000, 4.000000, 4.000000, 4.000000, 4.000000, 4.000000, 4.000000, 4.000000, 4.000000
36.000000, 0.000000, 4191.794922, 4200.000000, 4179.487305, 4190.769043, 4203.076660, 4187.179199, 4182.051270, 4203.589844, 4208.205078, 4203.589844, 4188.205078, 4185.127930, 4182.563965, 4184.615234, 0.000000, 8149.000000, 8043.000000, 0.000000, 0.000000, 0.000000, 26706.000000, 78.461540, 4.000000, 4.000000, 4.000000, 4.000000, 4.000000, 4.000000, 4.000000, 4.000000, 4.000000, 4.000000, 4.000000, 4.000000, 4.000000, 4.000000, 4.000000, 4.000000
37.000000, 0.000000, 4191.794922, 4188.205078, 4169.743652, 4191.794922, 4194.871582, 4188.717773, 4189.230469, 4210.256348, 4215.897461, 4202.051270, 4186.666504, 4184.102539, 4177.436035, 4184.102539, 0.000000, 8148.000000, 8038.000000, 0.000000, 0.000000, 0.000000, 26706.000000, 86.666664, 4.000000, 4.000000, 4.000000, 4.000000, 4.000000, 4.000000, 4.000000, 4.000000, 4.000000, 4.000000, 4.000000, 4.000000, 4.000000, 4.000000, 4.000000, 4.000000
38.000000, 0.000000, 4185.127930, 4183.589844, 4167.692383, 4189.743652, 4202.051270, 4202.563965, 4205.127930, 4214.871582, 4213.333008, 4199.487305, 4180.512695, 4185.641113, 4163.076660, 4181.538574, 0.000000, 8148.000000, 8038.000000, 0.000000, 0.000000, 0.000000, 26706.000000, 94.358971, 4.000000, 4.000000, 4.000000, 4.000000, 4.000000, 4.000000, 4.000000, 4.000000, 4.000000, 4.000000, 4.000000, 4.000000, 4.000000, 4.000000, 4.000000, 4.000000
39.000000, 0.000000, 4181.025391, 4182.051270, 4172.307617, 4188.717773, 4202.051270, 4203.076660, 4198.974121, 4190.256348, 4201.538574, 4192.307617, 4175.897461, 4184.102539, 4161.025391, 4175.384277, 0.000000, 8146.000000, 8036.000000, 0.000000, 0.000000, 0.000000, 26706.000000, 102.564102, 4.000000, 4.000000, 4.000000, 4.000000, 4.000000, 4.000000, 4.000000, 4.000000, 4.000000, 4.000000, 4.000000, 4.000000, 4.000000, 4.000000, 4.000000, 4.000000
40.000000, 0.000000, 4190.769043, 4182.563965, 4180.512695, 4190.769043, 4196.922852, 4196.410156, 4186.153809, 4171.794922, 4196.922852, 4193.333008, 4181.538574, 4185.127930, 4177.948730, 4187.692383, 0.000000, 8146.000000, 8036.000000, 0.000000, 0.000000, 0.000000, 26706.000000, 110.256409, 4.000000, 4.000000, 4.000000, 4.000000, 4.000000, 4.000000, 4.000000, 4.000000, 4.000000, 4.000000, 4.000000, 4.000000, 4.000000, 4.000000, 4.000000, 4.000000
41.000000, 0.000000, 4203.076660, 4190.769043, 4187.179199, 4189.743652, 4202.563965, 4198.461426, 4184.102539, 4174.871582, 4188.717773, 4201.025391, 4190.769043, 4189.743652, 4191.794922, 4203.589844, 0.000000, 8142.000000, 8045.000000, 0.000000, 0.000000, 0.000000, 26706.000000, 118.461533, 4.000000, 4.000000, 4.000000, 4.000000, 4.000000, 4.000000, 4.000000, 4.000000, 4.000000, 4.000000, 4.000000, 4.000000, 4.000000, 4.000000, 4.000000, 4.000000
42.000000, 0.000000, 4202.051270, 4194.871582, 4193.333008, 4196.410156, 4202.051270, 4200.512695, 4184.615234, 4168.717773, 4178.974121, 4198.461426, 4192.820313, 4195.897461, 4192.820313, 4203.076660, 0.000000, 8142.000000, 8045.000000, 0.000000, 0.000000, 0.000000, 26706.000000, 126.153847, 4.000000, 4.000000, 4.000000, 4.000000, 4.000000, 4.000000, 4.000000, 4.000000, 4.000000, 4.000000, 4.000000, 4.000000, 4.000000, 4.000000, 4.000000, 4.000000
43.000000, 0.000000, 4201.025391, 4195.384277, 4199.487305, 4198.974121, 4197.436035, 4194.358887, 4182.563965, 4156.922852, 4182.563965, 4193.333008, 4194.871582, 4195.384277, 4197.948730, 4206.153809, 0.000000, 8142.000000, 8057.000000, 0.000000, 0.000000, 0.000000, 26706.000000, 133.846146, 4.000000, 4.000000, 4.000000, 4.000000, 4.000000, 4.000000, 4.000000, 4.000000, 4.000000, 4.000000, 4.000000, 4.000000, 4.000000, 4.000000, 4.000000, 4.000000
44.000000, 0.000000, 4204.102539, 4198.461426, 4196.410156, 4197.436035, 4201.025391, 4191.281738, 4184.102539, 4158.461426, 4184.615234, 4195.384277, 4197.948730, 4188.717773, 4203.589844, 4212.820313, 0.000000, 8142.000000, 8057.000000, 0.000000, 0.000000, 0.000000, 26706.000000, 141.538452, 4.000000, 4.000000, 4.000000, 4.000000, 4.000000, 4.000000, 4.000000, 4.000000, 4.000000, 4.000000, 4.000000, 4.000000, 4.000000, 4.000000, 4.000000, 4.000000
45.000000, 0.000000, 4200.512695, 4197.948730, 4188.717773, 4197.436035, 4204.615234, 4195.897461, 4191.794922, 4166.666504, 4185.127930, 4200.512695, 4197.436035, 4190.256348, 4201.538574, 4207.179199, 0.000000, 8145.000000, 8059.000000, 0.000000, 0.000000, 0.000000, 26706.000000, 149.743591, 4.000000, 4.000000, 4.000000, 4.000000, 4.000000, 4.000000, 4.000000, 4.000000, 4.000000, 4.000000, 4.000000, 4.000000, 4.000000, 4.000000, 4.000000, 4.000000
46.000000, 0.000000, 4202.051270, 4194.358887, 4195.384277, 4197.948730, 4208.717773, 4201.025391, 4201.025391, 4183.076660, 4200.512695, 4203.076660, 4200.000000, 4197.948730, 4202.051270, 4205.127930, 0.000000, 8145.000000, 8059.000000, 0.000000, 0.000000, 0.000000, 26706.000000, 157.948715, 4.000000, 4.000000, 4.000000, 4.000000, 4.000000, 4.000000, 4.000000, 4.000000, 4.000000, 4.000000, 4.000000, 4.000000, 4.000000, 4.000000, 4.000000, 4.000000
47.000000, 0.000000, 4207.692383, 4196.922852, 4203.076660, 4202.563965, 4215.384277, 4206.666504, 4204.615234, 4204.615234, 4211.281738, 4207.692383, 4202.051270, 4205.127930, 4205.641113, 4206.153809, 0.000000, 8144.000000, 8058.000000, 0.000000, 0.000000, 0.000000, 26706.000000, 165.641022, 4.000000, 4.000000, 4.000000, 4.000000, 4.000000, 4.000000, 4.000000, 4.000000, 4.000000, 4.000000, 4.000000, 4.000000, 4.000000, 4.000000, 4.000000, 4.000000
48.000000, 0.000000, 4206.153809, 4202.051270, 4198.974121, 4200.512695, 4210.769043, 4204.615234, 4206.666504, 4220.000000, 4214.871582, 4217.948730, 4205.641113, 4210.769043, 4208.717773, 4204.615234, 0.000000, 8144.000000, 8058.000000, 0.000000, 0.000000, 0.000000, 26706.000000, 173.333328, 4.000000, 4.000000, 4.000000, 4.000000, 4.000000, 4.000000, 4.000000, 4.000000, 4.000000, 4.000000, 4.000000, 4.000000, 4.000000, 4.000000, 4.000000, 4.000000
49.000000, 0.000000, 4201.025391, 4200.512695, 4198.974121, 4200.512695, 4200.000000, 4189.743652, 4201.538574, 4220.512695, 4216.922852, 4217.436035, 4206.666504, 4210.769043, 4209.230469, 4208.717773, 0.000000, 8154.000000, 8054.000000, 0.000000, 0.000000, 0.000000, 26706.000000, 181.538452, 4.000000, 4.000000, 4.000000, 4.000000, 4.000000, 4.000000, 4.000000, 4.000000, 4.000000, 4.000000, 4.000000, 4.000000, 4.000000, 4.000000, 4.000000, 4.000000
50.000000, 0.000000, 4203.076660, 4200.512695, 4202.051270, 4200.000000, 4200.512695, 4182.563965, 4191.281738, 4213.333008, 4208.717773, 4205.641113, 4202.051270, 4203.589844, 4203.589844, 4213.333008, 0.000000, 8154.000000, 8054.000000, 0.000000, 0.000000, 0.000000, 26706.000000, 189.230759, 4.000000, 4.000000, 4.000000, 4.000000, 4.000000, 4.000000, 4.000000, 4.000000, 4.000000, 4.000000, 4.000000, 4.000000, 4.000000, 4.000000, 4.000000, 4.000000
51.000000, 0.000000, 4207.692383, 4198.974121, 4194.871582, 4190.769043, 4203.589844, 4196.922852, 4191.281738, 4207.179199, 4201.538574, 4204.615234, 4200.000000, 4200.000000, 4204.615234, 4207.692383, 0.000000, 8158.000000, 8050.000000, 0.000000, 0.000000, 0.000000, 26706.000000, 196.923065, 4.000000, 4.000000, 4.000000, 4.000000, 4.000000, 4.000000, 4.000000, 4.000000, 4.000000, 4.000000, 4.000000, 4.000000, 4.000000, 4.000000, 4.000000, 4.000000
52.000000, 0.000000, 4206.153809, 4198.461426, 4189.743652, 4194.358887, 4202.051270, 4205.127930, 4202.563965, 4197.436035, 4206.153809, 4211.794922, 4198.974121, 4204.615234, 4210.256348, 4200.512695, 0.000000, 8158.000000, 8050.000000, 0.000000, 0.000000, 0.000000, 26706.000000, 204.615387, 4.000000, 4.000000, 4.000000, 4.000000, 4.000000, 4.000000, 4.000000, 4.000000, 4.000000, 4.000000, 4.000000, 4.000000, 4.000000, 4.000000, 4.000000, 4.000000
53.000000, 0.000000, 4198.461426, 4197.948730, 4196.410156, 4193.846191, 4200.512695, 4196.410156, 4205.641113, 4201.538574, 4207.179199, 4210.256348, 4193.333008, 4202.563965, 4205.641113, 4201.025391, 0.000000, 8167.000000, 8058.000000, 0.000000, 0.000000, 0.000000, 26706.000000, 212.820511, 4.000000, 4.000000, 4.000000, 4.000000, 4.000000, 4.000000, 4.000000, 4.000000, 4.000000, 4.000000, 4.000000, 4.000000, 4.000000, 4.000000, 4.000000, 4.000000
54.000000, 0.000000, 4195.384277, 4190.769043, 4200.512695, 4190.256348, 4195.897461, 4193.333008, 4203.589844, 4204.102539, 4198.461426, 4202.563965, 4187.179199, 4195.897461, 4199.487305, 4201.538574, 0.000000, 8167.000000, 8058.000000, 0.000000, 0.000000, 0.000000, 26706.000000, 220.512817, 4.000000, 4.000000, 4.000000, 4.000000, 4.000000, 4.000000, 4.000000, 4.000000, 4.000000, 4.000000, 4.000000, 4.000000, 4.000000, 4.000000, 4.000000, 4.000000
55.000000, 0.000000, 4201.025391, 4188.717773, 4200.000000, 4196.922852, 4197.948730, 4201.025391, 4204.615234, 4186.153809, 4192.820313, 4205.641113, 4193.333008, 4196.410156, 4205.127930, 4200.512695, 0.000000, 8171.000000, 8066.000000, 0.000000, 0.000000, 0.000000, 26706.000000, 228.717941, 4.000000, 4.000000, 4.000000, 4.000000, 4.000000, 4.000000, 4.000000, 4.000000, 4.000000, 4.000000, 4.000000, 4.000000, 4.000000, 4.000000, 4.000000, 4.000000
56.000000, 0.000000, 4207.179199, 4198.974121, 4199.487305, 4195.897461, 4207.179199, 4202.563965, 4206.153809, 4182.051270, 4197.948730, 4216.410156, 4204.102539, 4200.512695, 4213.333008, 4204.615234, 0.000000, 8171.000000, 8066.000000, 0.000000, 0.000000, 0.000000, 26706.000000, 236.410248, 4.000000, 4.000000, 4.000000, 4.000000, 4.000000, 4.000000, 4.000000, 4.000000, 4.000000, 4.000000, 4.000000, 4.000000, 4.000000, 4.000000, 4.000000, 4.000000
57.000000, 0.000000, 4206.153809, 4200.000000, 4191.794922, 4192.820313, 4201.538574, 4195.897461, 4212.307617, 4204.615234, 4205.127930, 4218.461426, 4204.102539, 4202.563965, 4213.333008, 4205.641113, 0.000000, 8168.000000, 8068.000000, 0.000000, 0.000000, 0.000000, 26706.000000, 244.102554, 4.000000, 4.000000, 4.000000, 4.000000, 4.000000, 4.000000, 4.000000, 4.000000, 4.000000, 4.000000, 4.000000, 4.000000, 4.000000, 4.000000, 4.000000, 4.000000
58.000000, 0.000000, 4197.436035, 4191.281738, 4182.051270, 4188.717773, 4196.922852, 4196.922852, 4220.512695, 4209.743652, 4205.127930, 4213.846191, 4197.948730, 4195.384277, 4207.692383, 4201.025391, 0.000000, 8168.000000, 8068.000000, 0.000000, 0.000000, 0.000000, 26706.000000, 252.307693, 4.000000, 4.000000, 4.000000, 4.000000, 4.000000, 4.000000, 4.000000, 4.000000, 4.000000, 4.000000, 4.000000, 4.000000, 4.000000, 4.000000, 4.000000, 4.000000
59.000000, 0.000000, 4194.871582, 4192.307617, 4190.256348, 4192.820313, 4208.717773, 4204.102539, 4215.384277, 4198.974121, 4201.025391, 4214.358887, 4197.436035, 4186.666504, 4210.256348, 4198.974121, 0.000000, 8162.000000, 8059.000000, 0.000000, 0.000000, 0.000000, 26706.000000, 260.000000, 4.000000, 4.000000, 4.000000, 4.000000, 4.000000, 4.000000, 4.000000, 4.000000, 4.000000, 4.000000, 4.000000, 4.000000, 4.000000, 4.000000, 4.000000, 4.000000
60.000000, 0.000000, 4200.000000, 4199.487305, 4203.589844, 4197.436035, 4205.641113, 4198.461426, 4199.487305, 4205.127930, 4200.000000, 4218.461426, 4201.538574, 4193.333008, 4217.436035, 4202.051270, 0.000000, 8162.000000, 8059.000000, 0.000000, 0.000000, 0.000000, 26706.000000, 267.692291, 4.000000, 4.000000, 4.000000, 4.000000, 4.000000, 4.000000, 4.000000, 4.000000, 4.000000, 4.000000, 4.000000, 4.000000, 4.000000, 4.000000, 4.000000, 4.000000
61.000000, 0.000000, 4196.410156, 4200.512695, 4196.922852, 4189.743652, 4196.922852, 4192.307617, 4192.820313, 4211.281738, 4204.615234, 4216.922852, 4201.025391, 4197.436035, 4216.410156, 4205.641113, 0.000000, 8162.000000, 8058.000000, 0.000000, 0.000000, 0.000000, 26706.000000, 275.897430, 4.000000, 4.000000, 4.000000, 4.000000, 4.000000, 4.000000, 4.000000, 4.000000, 4.000000, 4.000000, 4.000000, 4.000000, 4.000000, 4.000000, 4.000000, 4.000000
62.000000, 0.000000, 4194.358887, 4201.538574, 4187.179199, 4195.384277, 4211.794922, 4196.922852, 4196.410156, 4201.538574, 4211.281738, 4216.410156, 4200.000000, 4191.281738, 4215.897461, 4205.127930, 0.000000, 8162.000000, 8058.000000, 0.000000, 0.000000, 0.000000, 26706.000000, 283.589722, 4.000000, 4.000000, 4.000000, 4.000000, 4.000000, 4.000000, 4.000000, 4.000000, 4.000000, 4.000000, 4.000000, 4.000000, 4.000000, 4.000000, 4.000000, 4.000000
63.000000, 0.000000, 4200.512695, 4197.948730, 4188.717773, 4200.000000, 4215.384277, 4198.974121, 4199.487305, 4195.897461, 4209.743652, 4220.512695, 4195.897461, 4187.692383, 4213.846191, 4192.307617, 0.000000, 8170.000000, 8050.000000, 0.000000, 0.000000, 0.000000, 26706.000000, 291.282043, 4.000000, 4.000000, 4.000000, 4.000000, 4.000000, 4.000000, 4.000000, 4.000000, 4.000000, 4.000000, 4.000000, 4.000000, 4.000000, 4.000000, 4.000000, 4.000000
64.000000, 0.000000, 4194.871582, 4187.692383, 4189.743652, 4193.846191, 4197.948730, 4195.897461, 4200.000000, 4200.512695, 4200.000000, 4216.922852, 4187.692383, 4186.666504, 4205.127930, 4180.512695, 3491.000000, 8170.000000, 8050.000000, 0.000000, 0.000000, 0.000000, 26706.000000, 298.974365, 4.000000, 4.000000, 4.000000, 4.000000, 4.000000, 4.000000, 4.000000, 4.000000, 4.000000, 4.000000, 4.000000, 4.000000, 4.000000, 4.000000, 4.000000, 4.000000
65.000000, 0.000000, 4186.153809, 4190.256348, 4188.205078, 4196.410156, 4202.563965, 4201.538574, 4202.051270, 4200.512695, 4200.000000, 4214.358887, 4190.256348, 4187.179199, 4206.153809, 4187.179199, 2206.000000, 8176.000000, 8051.000000, 0.000000, 0.000000, 0.000000, 26706.000000, 307.179474, 4.000000, 4.000000, 4.000000, 4.000000, 4.000000, 4.000000, 4.000000, 4.000000, 4.000000, 4.000000, 4.000000, 4.000000, 4.000000, 4.000000, 4.000000, 4.000000
66.000000, 0.000000, 4189.743652, 4204.615234, 4187.692383, 4195.384277, 4216.922852, 4199.487305, 4197.948730, 4195.897461, 4207.692383, 4218.974121, 4200.000000, 4187.179199, 4214.358887, 4197.436035, 2938.000000, 8176.000000, 8051.000000, 0.000000, 0.000000, 0.000000, 26706.000000, 314.871796, 4.000000, 4.000000, 4.000000, 4.000000, 4.000000, 4.000000, 4.000000, 4.000000, 4.000000, 4.000000, 4.000000, 4.000000, 4.000000, 4.000000, 4.000000, 4.000000
67.000000, 0.000000, 4189.743652, 4202.563965, 4188.205078, 4196.410156, 4211.281738, 4183.589844, 4190.256348, 4188.205078, 4195.384277, 4214.871582, 4197.948730, 4187.179199, 4212.820313, 4193.333008, 3548.000000, 8178.000000, 8043.000000, 0.000000, 0.000000, 0.000000, 26706.000000, 322.564087, 4.000000, 4.000000, 4.000000, 4.000000, 4.000000, 4.000000, 4.000000, 4.000000, 4.000000, 4.000000, 4.000000, 4.000000, 4.000000, 4.000000, 4.000000, 4.000000
68.000000, 0.000000, 4178.461426, 4190.256348, 4193.846191, 4197.436035, 4203.076660, 4187.692383, 4188.205078, 4180.512695, 4183.589844, 4207.692383, 4197.436035, 4192.307617, 4211.281738, 4185.127930, 3531.000000, 8178.000000, 8043.000000, 0.000000, 0.000000, 0.000000, 26706.000000, 330.769226, 4.000000, 4.000000, 4.000000, 4.000000, 4.000000, 4.000000, 4.000000, 4.000000, 4.000000, 4.000000, 4.000000, 4.000000, 4.000000, 4.000000, 4.000000, 4.000000
69.000000, 0.000000, 4180.512695, 4191.794922, 4198.974121, 4195.384277, 4199.487305, 4203.076660, 4193.333008, 4191.794922, 4195.897461, 4208.717773, 4200.512695, 4198.461426, 4209.230469, 4184.615234, 3569.000000, 8180.000000, 8027.000000, 0.000000, 0.000000, 0.000000, 26706.000000, 338.461517, 4.000000, 4.000000, 4.000000, 4.000000, 4.000000, 4.000000, 4.000000, 4.000000, 4.000000, 4.000000, 4.000000, 4.000000, 4.000000, 4.000000, 4.000000, 4.000000
70.000000, 0.000000, 4186.153809, 4192.307617, 4198.974121, 4195.897461, 4195.897461, 4201.538574, 4201.538574, 4198.461426, 4201.025391, 4206.666504, 4190.769043, 4196.922852, 4201.538574, 4186.666504, 3494.000000, 8180.000000, 8027.000000, 0.000000, 0.000000, 0.000000, 26706.000000, 346.153839, 4.000000, 4.000000, 4.000000, 4.000000, 4.000000, 4.000000, 4.000000, 4.000000, 4.000000, 4.000000, 4.000000, 4.000000, 4.000000, 4.000000, 4.000000, 4.000000
71.000000, 0.000000, 4184.615234, 4188.205078, 4195.384277, 4188.717773, 4204.102539, 4196.922852, 4202.051270, 4176.922852, 4184.615234, 4198.974121, 4183.589844, 4190.769043, 4201.538574, 4180.512695, 3505.000000, 8186.000000, 8025.000000, 0.000000, 0.000000, 0.000000, 26706.000000, 354.358978, 4.000000, 4.000000, 4.000000, 4.000000, 4.000000, 4.000000, 4.000000, 4.000000, 4.000000, 4.000000, 4.000000, 4.000000, 4.000000, 4.000000, 4.000000, 4.000000
72.000000, 0.000000, 4186.153809, 4188.205078, 4190.769043, 4190.769043, 4211.794922, 4200.512695, 4191.281738, 4157.436035, 4175.384277, 4193.333008, 4182.051270, 4186.666504, 4197.948730, 4167.692383, 3342.000000, 8186.000000, 8025.000000, 0.000000, 0.000000, 0.000000, 26706.000000, 362.051270, 4.000000, 4.000000, 4.000000, 4.000000, 4.000000, 4.000000, 4.000000, 4.000000, 4.000000, 4.000000, 4.000000, 4.000000, 4.000000, 4.000000, 4.000000, 4.000000
73.000000, 0.000000, 4184.102539, 4186.666504, 4186.666504, 4192.307617, 4202.563965, 4195.897461, 4186.153809, 4171.281738, 4188.205078, 4190.256348, 4174.358887, 4184.102539, 4187.179199, 4167.692383, 3533.000000, 8187.000000, 8026.000000, 0.000000, 0.000000, 0.000000, 26706.000000, 369.743591, 4.000000, 4.000000, 4.000000, 4.000000, 4.000000, 4.000000, 4.000000, 4.000000, 4.000000, 4.000000, 4.000000, 4.000000, 4.000000, 4.000000, 4.000000, 4.000000
74.000000, 0.000000, 4177.948730, 4192.820313, 4193.846191, 4187.692383, 4194.871582, 4195.897461, 4192.307617, 4198.974121, 4208.205078, 4198.461426, 4181.538574, 4188.205078, 4200.000000, 4193.846191, 3050.000000, 8187.000000, 8026.000000, 0.000000, 0.000000, 0.000000, 26706.000000, 377.435883, 4.000000, 4.000000, 4.000000, 4.000000, 4.000000, 4.000000, 4.000000, 4.000000, 4.000000, 4.000000, 4.000000, 4.000000, 4.000000, 4.000000, 4.000000, 4.000000
75.000000, 0.000000, 4170.769043, 4201.025391, 4212.307617, 4198.974121, 4205.127930, 4197.948730, 4197.436035, 4210.256348, 4214.871582, 4212.820313, 4200.512695, 4195.897461, 4224.102539, 4219.487305, 3557.000000, 8179.000000, 8039.000000, 0.000000, 0.000000, 0.000000, 26706.000000, 385.641022, 4.000000, 4.000000, 4.000000, 4.000000, 4.000000, 4.000000, 4.000000, 4.000000, 4.000000, 4.000000, 4.000000, 4.000000, 4.000000, 4.000000, 4.000000, 4.000000
76.000000, 0.000000, 4168.717773, 4197.436035, 4214.871582, 4201.025391, 4219.487305, 4188.205078, 4197.436035, 4203.589844, 4210.769043, 4218.974121, 4202.051270, 4196.410156, 4231.281738, 4217.436035, 3516.000000, 8179.000000, 8039.000000, 0.000000, 0.000000, 0.000000, 26706.000000, 393.333313, 4.000000, 4.000000, 4.000000, 4.000000, 4.000000, 4.000000, 4.000000, 4.000000, 4.000000, 4.000000, 4.000000, 4.000000, 4.000000, 4.000000, 4.000000, 4.000000
77.000000, 0.000000, 4160.000000, 4192.307617, 4203.589844, 4192.820313, 4218.461426, 4187.692383, 4199.487305, 4202.051270, 4210.769043, 4215.897461, 4201.538574, 4198.974121, 4233.846191, 4212.307617, 3478.000000, 8168.000000, 8056.000000, 0.000000, 0.000000, 0.000000, 26706.000000, 401.538452, 4.000000, 4.000000, 4.000000, 4.000000, 4.000000, 4.000000, 4.000000, 4.000000, 4.000000, 4.000000, 4.000000, 4.000000, 4.000000, 4.000000, 4.000000, 4.000000
78.000000, 0.000000, 4155.384277, 4200.000000, 4203.076660, 4195.384277, 4206.666504, 4203.589844, 4204.615234, 4218.974121, 4217.948730, 4223.589844, 4218.974121, 4210.769043, 4251.281738, 4229.230469, 3050.000000, 8168.000000, 8056.000000, 0.000000, 0.000000, 0.000000, 26706.000000, 409.230774, 4.000000, 4.000000, 4.000000, 4.000000, 4.000000, 4.000000, 4.000000, 4.000000, 4.000000, 4.000000, 4.000000, 4.000000, 4.000000, 4.000000, 4.000000, 4.000000
79.000000, 0.000000, 4180.000000, 4205.127930, 4218.461426, 4200.512695, 4199.487305, 4212.820313, 4206.153809, 4226.153809, 4223.589844, 4241.538574, 4239.487305, 4222.051270, 4270.256348, 4243.076660, 3557.000000, 8134.000000, 8086.000000, 0.000000, 0.000000, 0.000000, 26706.000000, 416.923065, 4.000000, 4.000000, 4.000000, 4.000000, 4.000000, 4.000000, 4.000000, 4.000000, 4.000000, 4.000000, 4.000000, 4.000000, 4.000000, 4.000000, 4.000000, 4.000000
80.000000, 0.000000, 4189.743652, 4198.461426, 4223.076660, 4203.076660, 4209.230469, 4208.205078, 4203.076660, 4220.000000, 4225.127930, 4243.589844, 4244.615234, 4226.666504, 4276.410156, 4227.179199, 3516.000000, 8134.000000, 8086.000000, 0.000000, 0.000000, 0.000000, 26706.000000, 425.128204, 4.000000, 4.000000, 4.000000, 4.000000, 4.000000, 4.000000, 4.000000, 4.000000, 4.000000, 4.000000, 4.000000, 4.000000, 4.000000, 4.000000, 4.000000, 4.000000
81.000000, 0.000000, 4172.307617, 4200.512695, 4213.846191, 4194.871582, 4229.230469, 4210.256348, 4207.179199, 4229.230469, 4231.794922, 4240.000000, 4242.051270, 4228.717773, 4281.025391, 4224.102539, 3478.000000, 8116.000000, 8089.000000, 0.000000, 0.000000, 0.000000, 26706.000000, 432.820496, 4.000000, 4.000000, 4.000000, 4.000000, 4.000000, 4.000000, 4.000000, 4.000000, 4.000000, 4.000000, 4.000000, 4.000000, 4.000000, 4.000000, 4.000000, 4.000000
82.000000, 0.000000, 4172.307617, 4203.589844, 4215.897461, 4196.410156, 4221.025391, 4212.307617, 4216.410156, 4233.846191, 4233.846191, 4247.692383, 4251.281738, 4233.846191, 4296.410156, 4266.666504, 3050.000000, 8116.000000, 8089.000000, 0.000000, 0.000000, 0.000000, 26706.000000, 440.512817, 4.000000, 4.000000, 4.000000, 4.000000, 4.000000, 4.000000, 4.000000, 4.000000, 4.000000, 4.000000, 4.000000, 4.000000, 4.000000, 4.000000, 4.000000, 4.000000
83.000000, 0.000000, 4159.487305, 4184.615234, 4222.051270, 4203.589844, 4195.384277, 4202.563965, 4212.820313, 4215.384277, 4224.102539, 4242.051270, 4259.487305, 4233.846191, 4300.000000, 4285.127930, 3557.000000, 8093.000000, 8065.000000, 0.000000, 0.000000, 0.000000, 26706.000000, 448.717926, 4.000000, 4.000000, 4.000000, 4.000000, 4.000000, 4.000000, 4.000000, 4.000000, 4.000000, 4.000000, 4.000000, 4.000000, 4.000000, 4.000000, 4.000000, 4.000000
84.000000, 0.000000, 4130.769043, 4172.307617, 4217.436035, 4197.948730, 4197.948730, 4200.512695, 4204.615234, 4201.025391, 4213.333008, 4225.641113, 4250.256348, 4228.717773, 4282.563965, 4253.846191, 3516.000000, 8093.000000, 8065.000000, 0.000000, 0.000000, 0.000000, 26706.000000, 456.410248, 4.000000, 4.000000, 4.000000, 4.000000, 4.000000, 4.000000, 4.000000, 4.000000, 4.000000, 4.000000, 4.000000, 4.000000, 4.000000, 4.000000, 4.000000, 4.000000
85.000000, 0.000000, 4151.281738, 4188.717773, 4202.563965, 4193.333008, 4215.897461, 4209.230469, 4200.000000, 4197.948730, 4208.717773, 4225.127930, 4241.538574, 4225.641113, 4278.461426, 4238.974121, 3478.000000, 8096.000000, 8067.000000, 0.000000, 0.000000, 0.000000, 26706.000000, 464.615387, 4.000000, 4.000000, 4.000000, 4.000000, 4.000000, 4.000000, 4.000000, 4.000000, 4.000000, 4.000000, 4.000000, 4.000000, 4.000000, 4.000000, 4.000000, 4.000000
86.000000, 0.000000, 4170.256348, 4195.384277, 4195.897461, 4184.102539, 4227.692383, 4212.820313, 4198.461426, 4207.179199, 4215.897461, 4232.820313, 4247.179199, 4226.666504, 4287.692383, 4251.794922, 3050.000000, 8096.000000, 8067.000000, 0.000000, 0.000000, 0.000000, 26706.000000, 472.307678, 4.000000, 4.000000, 4.000000, 4.000000, 4.000000, 4.000000, 4.000000, 4.000000, 4.000000, 4.000000, 4.000000, 4.000000, 4.000000, 4.000000, 4.000000, 4.000000
87.000000, 0.000000, 4145.641113, 4185.127930, 4203.076660, 4182.051270, 4238.974121, 4218.461426, 4207.692383, 4224.615234, 4227.179199, 4234.358887, 4251.794922, 4227.692383, 4289.230469, 4250.256348, 3557.000000, 8105.000000, 8084.000000, 0.000000, 0.000000, 0.000000, 26706.000000, 480.512817, 4.000000, 4.000000, 4.000000, 4.000000, 4.000000, 4.000000, 4.000000, 4.000000, 4.000000, 4.000000, 4.000000, 4.000000, 4.000000, 4.000000, 4.000000, 4.000000
88.000000, 0.000000, 4130.769043, 4182.051270, 4203.589844, 4190.769043, 4222.563965, 4222.051270, 4217.948730, 4225.127930, 4223.589844, 4227.179199, 4243.076660, 4225.641113, 4278.974121, 4235.897461, 3516.000000, 8105.000000, 8084.000000, 0.000000, 0.000000, 0.000000, 26706.000000, 488.205109, 4.000000, 4.000000, 4.000000, 4.000000, 4.000000, 4.000000, 4.000000, 4.000000, 4.000000, 4.000000, 4.000000, 4.000000, 4.000000, 4.000000, 4.000000, 4.000000
89.000000, 0.000000, 4128.717773, 4181.025391, 4194.871582, 4186.153809, 4196.410156, 4205.641113, 4212.307617, 4220.000000, 4213.846191, 4215.384277, 4232.820313, 4220.000000, 4265.641113, 4223.076660, 3478.000000, 8129.000000, 8099.000000, 0.000000, 0.000000, 0.000000, 26706.000000, 495.897430, 4.000000, 4.000000, 4.000000, 4.000000, 4.000000, 4.000000, 4.000000, 4.000000, 4.000000, 4.000000, 4.000000, 4.000000, 4.000000, 4.000000, 4.000000, 4.000000
90.000000, 0.000000, 4130.256348, 4182.051270, 4195.897461, 4187.692383, 4210.256348, 4196.410156, 4204.102539, 4229.230469, 4223.076660, 4212.307617, 4231.281738, 4220.000000, 4263.589844, 4218.974121, 3050.000000, 8129.000000, 8099.000000, 0.000000, 0.000000, 0.000000, 26706.000000, 504.102539, 4.000000, 4.000000, 4.000000, 4.000000, 4.000000, 4.000000, 4.000000, 4.000000, 4.000000, 4.000000, 4.000000, 4.000000, 4.000000, 4.000000, 4.000000, 4.000000
91.000000, 0.000000, 4140.512695, 4189.230469, 4204.102539, 4190.769043, 4220.512695, 4204.615234, 4203.589844, 4230.769043, 4232.307617, 4218.974121, 4231.794922, 4226.666504, 4271.281738, 4233.846191, 3557.000000, 8146.000000, 8109.000000, 0.000000, 0.000000, 0.000000, 26706.000000, 511.794861, 4.000000, 4.000000, 4.000000, 4.000000, 4.000000, 4.000000, 4.000000, 4.000000, 4.000000, 4.000000, 4.000000, 4.000000, 4.000000, 4.000000, 4.000000, 4.000000
92.000000, 0.000000, 4144.102539, 4192.820313, 4202.051270, 4192.307617, 4206.153809, 4201.025391, 4200.000000, 4218.974121, 4222.051270, 4217.436035, 4234.358887, 4225.641113, 4276.410156, 4243.076660, 3516.000000, 8146.000000, 8109.000000, 0.000000, 0.000000, 0.000000, 26706.000000, 519.487183, 4.000000, 4.000000, 4.000000, 4.000000, 4.000000, 4.000000, 4.000000, 4.000000, 4.000000, 4.000000, 4.000000, 4.000000, 4.000000, 4.000000, 4.000000, 4.000000
93.000000, 0.000000, 4137.436035, 4197.436035, 4202.051270, 4198.974121, 4207.179199, 4200.512695, 4203.076660, 4217.948730, 4212.820313, 4210.769043, 4240.512695, 4220.512695, 4277.436035, 4245.641113, 3478.000000, 8150.000000, 8161.000000, 0.000000, 0.000000, 0.000000, 26706.000000, 527.692322, 4.000000, 4.000000, 4.000000, 4.000000, 4.000000, 4.000000, 4.000000, 4.000000, 4.000000, 4.000000, 4.000000, 4.000000, 4.000000, 4.000000, 4.000000, 4.000000
94.000000, 0.000000, 4138.461426, 4205.641113, 4200.512695, 4192.820313, 4221.538574, 4214.358887, 4214.871582, 4217.436035, 4205.641113, 4203.589844, 4231.794922, 4213.846191, 4272.307617, 4246.153809, 3050.000000, 8150.000000, 8161.000000, 0.000000, 0.000000, 0.000000, 26706.000000, 535.384583, 4.000000, 4.000000, 4.000000, 4.000000, 4.000000, 4.000000, 4.000000, 4.000000, 4.000000, 4.000000, 4.000000, 4.000000, 4.000000, 4.000000, 4.000000, 4.000000
95.000000, 0.000000, 4134.871582, 4193.333008, 4188.717773, 4185.127930, 4223.589844, 4214.358887, 4214.358887, 4213.333008, 4198.461426, 4193.846191, 4212.820313, 4210.769043, 4258.974121, 4234.871582, 3557.000000, 8154.000000, 8178.000000, 0.000000, 0.000000, 0.000000, 26706.000000, 543.589722, 4.000000, 4.000000, 4.000000, 4.000000, 4.000000, 4.000000, 4.000000, 4.000000, 4.000000, 4.000000, 4.000000, 4.000000, 4.000000, 4.000000, 4.000000, 4.000000
96.000000, 0.000000, 4126.153809, 4179.487305, 4190.256348, 4183.589844, 4220.512695, 4213.333008, 4214.871582, 4227.692383, 4215.897461, 4198.974121, 4222.563965, 4216.922852, 4259.487305, 4238.974121, 3516.000000, 8154.000000, 8178.000000, 0.000000, 0.000000, 0.000000, 26706.000000, 551.282043, 4.000000, 4.000000, 4.000000, 4.000000, 4.000000, 4.000000, 4.000000, 4.000000, 4.000000, 4.000000, 4.000000, 4.000000, 4.000000, 4.000000, 4.000000, 4.000000
97.000000, 0.000000, 4138.974121, 4189.743652, 4204.102539, 4189.743652, 4213.846191, 4221.025391, 4227.179199, 4245.641113, 4243.589844, 4215.384277, 4245.641113, 4231.281738, 4276.922852, 4258.974121, 3478.000000, 8155.000000, 8181.000000, 0.000000, 0.000000, 0.000000, 26706.000000, 558.974365, 4.000000, 4.000000, 4.000000, 4.000000, 4.000000, 4.000000, 4.000000, 4.000000, 4.000000, 4.000000, 4.000000, 4.000000, 4.000000, 4.000000, 4.000000, 4.000000
98.000000, 0.000000, 4158.974121, 4199.487305, 4210.256348, 4195.384277, 4207.179199, 4209.230469, 4223.589844, 4250.769043, 4243.589844, 4218.461426, 4245.127930, 4242.051270, 4280.512695, 4266.666504, 3050.000000, 8155.000000, 8181.000000, 0.000000, 0.000000, 0.000000, 26706.000000, 567.179443, 4.000000, 4.000000, 4.000000, 4.000000, 4.000000, 4.000000, 4.000000, 4.000000, 4.000000, 4.000000, 4.000000, 4.000000, 4.000000, 4.000000, 4.000000, 4.000000
99.000000, 0.000000, 4166.153809, 4204.615234, 4215.384277, 4191.794922, 4217.436035, 4197.436035, 4200.512695, 4244.102539, 4227.179199, 4217.948730, 4244.102539, 4244.102539, 4278.974121, 4271.794922, 3557.000000, 8162.000000, 8197.000000, 0.000000, 0.000000, 0.000000, 26706.000000, 574.871765, 4.000000, 4.000000, 4.000000, 4.000000, 4.000000, 4.000000, 4.000000, 4.000000, 4.000000, 4.000000, 4.000000, 4.000000, 4.000000, 4.000000, 4.000000, 4.000000
100.000000, 0.000000, 4167.179199, 4217.948730, 4218.461426, 4201.025391, 4227.179199, 4209.230469, 4196.922852, 4226.153809, 4223.589844, 4223.589844, 4255.897461, 4247.179199, 4288.717773, 4284.102539, 3516.000000, 8162.000000, 8197.000000, 0.000000, 0.000000, 0.000000, 26706.000000, 582.564087, 4.000000, 4.000000, 4.000000, 4.000000, 4.000000, 4.000000, 4.000000, 4.000000, 4.000000, 4.000000, 4.000000, 4.000000, 4.000000, 4.000000, 4.000000, 4.000000
101.000000, 0.000000, 4163.076660, 4218.974121, 4207.692383, 4203.076660, 4223.076660, 4214.358887, 4206.153809, 4212.820313, 4225.127930, 4224.102539, 4254.358887, 4247.179199, 4291.794922, 4276.410156, 3478.000000, 8172.000000, 8216.000000, 0.000000, 0.000000, 0.000000, 26706.000000, 590.769226, 4.000000, 4.000000, 4.000000, 4.000000, 4.000000, 4.000000, 4.000000, 4.000000, 4.000000, 4.000000, 4.000000, 4.000000, 4.000000, 4.000000, 4.000000, 4.000000
102.000000, 0.000000, 4154.358887, 4204.102539, 4197.948730, 4192.307617, 4215.897461, 4203.076660, 4204.615234, 4223.589844, 4218.461426, 4216.410156, 4245.641113, 4240.512695, 4281.538574, 4264.615234, 3050.000000, 8172.000000, 8216.000000, 0.000000, 0.000000, 0.000000, 26706.000000, 598.461548, 4.000000, 4.000000, 4.000000, 4.000000, 4.000000, 4.000000, 4.000000, 4.000000, 4.000000, 4.000000, 4.000000, 4.000000, 4.000000, 4.000000, 4.000000, 4.000000
103.000000, 0.000000, 4150.769043, 4207.179199, 4204.102539, 4197.948730, 4215.384277, 4202.051270, 4203.076660, 4238.461426, 4216.410156, 4213.333008, 4250.769043, 4243.589844, 4279.487305, 4265.641113, 3557.000000, 8191.000000, 8224.000000, 0.000000, 0.000000, 0.000000, 26706.000000, 606.153809, 4.000000, 4.000000, 4.000000, 4.000000, 4.000000, 4.000000, 4.000000, 4.000000, 4.000000, 4.000000, 4.000000, 4.000000, 4.000000, 4.000000, 4.000000, 4.000000
104.000000, 0.000000, 4150.256348, 4213.846191, 4208.717773, 4197.948730, 4219.487305, 4204.102539, 4200.512695, 4225.641113, 4215.897461, 4214.358887, 4249.230469, 4244.615234, 4282.563965, 4257.948730, 3516.000000, 8191.000000, 8224.000000, 0.000000, 0.000000, 0.000000, 26706.000000, 614.358948, 4.000000, 4.000000, 4.000000, 4.000000, 4.000000, 4.000000, 4.000000, 4.000000, 4.000000, 4.000000, 4.000000, 4.000000, 4.000000, 4.000000, 4.000000, 4.000000
105.000000, 0.000000, 4149.743652, 4202.563965, 4199.487305, 4190.256348, 4216.922852, 4194.871582, 4186.666504, 4201.538574, 4206.153809, 4210.256348, 4233.333008, 4232.820313, 4272.307617, 4246.666504, 3478.000000, 8219.000000, 8213.000000, 0.000000, 0.000000, 0.000000, 26706.000000, 622.051270, 4.000000, 4.000000, 4.000000, 4.000000, 4.000000, 4.000000, 4.000000, 4.000000, 4.000000, 4.000000, 4.000000, 4.000000, 4.000000, 4.000000, 4.000000, 4.000000
106.000000, 0.000000, 4150.256348, 4196.922852, 4190.256348, 4188.717773, 4209.230469, 4188.717773, 4185.127930, 4202.051270, 4196.410156, 4203.076660, 4225.127930, 4219.487305, 4262.051270, 4243.076660, 3050.000000, 8219.000000, 8213.000000, 0.000000, 0.000000, 0.000000, 26706.000000, 630.256409, 4.000000, 4.000000, 4.000000, 4.000000, 4.000000, 4.000000, 4.000000, 4.000000, 4.000000, 4.000000, 4.000000, 4.000000, 4.000000, 4.000000, 4.000000, 4.000000
107.000000, 0.000000, 4148.205078, 4200.000000, 4188.717773, 4189.230469, 4199.487305, 4197.948730, 4198.974121, 4213.333008, 4197.948730, 4196.410156, 4224.615234, 4216.410156, 4261.538574, 4231.281738, 3557.000000, 8268.000000, 8202.000000, 0.000000, 0.000000, 0.000000, 26706.000000, 637.948730, 4.000000, 4.000000, 4.000000, 4.000000, 4.000000, 4.000000, 4.000000, 4.000000, 4.000000, 4.000000, 4.000000, 4.000000, 4.000000, 4.000000, 4.000000, 4.000000
108.000000, 0.000000, 4144.102539, 4199.487305, 4188.717773, 4191.794922, 4206.153809, 4209.743652, 4206.153809, 4220.000000, 4210.769043, 4202.051270, 4223.589844, 4220.000000, 4262.563965, 4215.384277, 3516.000000, 8268.000000, 8202.000000, 0.000000, 0.000000, 0.000000, 26706.000000, 646.153809, 4.000000, 4.000000, 4.000000, 4.000000, 4.000000, 4.000000, 4.000000, 4.000000, 4.000000, 4.000000, 4.000000, 4.000000, 4.000000, 4.000000, 4.000000, 4.000000
109.000000, 0.000000, 4136.410156, 4198.461426, 4191.281738, 4187.692383, 4227.179199, 4207.179199, 4201.538574, 4227.692383, 4214.358887, 4215.384277, 4227.179199, 4221.538574, 4262.563965, 4210.256348, 3478.000000, 8279.000000, 8204.000000, 0.000000, 0.000000, 0.000000, 26706.000000, 653.846130, 4.000000, 4.000000, 4.000000, 4.000000, 4.000000, 4.000000, 4.000000, 4.000000, 4.000000, 4.000000, 4.000000, 4.000000, 4.000000, 4.000000, 4.000000, 4.000000
110.000000, 0.000000, 4130.256348, 4197.948730, 4198.974121, 4192.307617, 4230.769043, 4198.974121, 4193.333008, 4221.538574, 4206.153809, 4218.461426, 4231.281738, 4219.487305, 4265.641113, 4206.666504, 3050.000000, 8279.000000, 8204.000000, 0.000000, 0.000000, 0.000000, 26706.000000, 661.538452, 4.000000, 4.000000, 4.000000, 4.000000, 4.000000, 4.000000, 4.000000, 4.000000, 4.000000, 4.000000, 4.000000, 4.000000, 4.000000, 4.000000, 4.000000, 4.000000
111.000000, 0.000000, 4140.512695, 4202.563965, 4201.025391, 4200.512695, 4221.025391, 4204.615234, 4192.307617, 4210.256348, 4205.641113, 4215.384277, 4232.307617, 4219.487305, 4268.717773, 4197.948730, 3557.000000, 8283.000000, 8196.000000, 0.000000, 0.000000, 0.000000, 26706.000000, 669.743591, 4.000000, 4.000000, 4.000000, 4.000000, 4.000000, 4.000000, 4.000000, 4.000000, 4.000000, 4.000000, 4.000000, 4.000000, 4.000000, 4.000000, 4.000000, 4.000000
112.000000, 0.000000, 4153.333008, 4205.641113, 4189.230469, 4194.358887, 4218.461426, 4210.256348, 4200.000000, 4212.820313, 4210.769043, 4208.205078, 4224.102539, 4215.384277, 4255.897461, 4183.589844, 3516.000000, 8283.000000, 8196.000000, 0.000000, 0.000000, 0.000000, 26706.000000, 677.435852, 4.000000, 4.000000, 4.000000, 4.000000, 4.000000, 4.000000, 4.000000, 4.000000, 4.000000, 4.000000, 4.000000, 4.000000, 4.000000, 4.000000, 4.000000, 4.000000
113.000000, 0.000000, 4148.205078, 4198.461426, 4181.538574, 4192.307617, 4216.922852, 4205.641113, 4204.615234, 4210.256348, 4202.051270, 4199.487305, 4214.358887, 4204.615234, 4246.153809, 4164.615234, 3478.000000, 8281.000000, 8185.000000, 0.000000, 0.000000, 0.000000, 26706.000000, 685.640991, 4.000000, 4.000000, 4.000000, 4.000000, 4.000000, 4.000000, 4.000000, 4.000000, 4.000000, 4.000000, 4.000000, 4.000000, 4.000000, 4.000000, 4.000000, 4.000000
114.000000, 0.000000, 4147.179199, 4198.974121, 4188.717773, 4190.256348, 4217.436035, 4207.692383, 4197.948730, 4204.102539, 4198.461426, 4201.025391, 4224.615234, 4205.127930, 4257.948730, 4162.051270, 3050.000000, 8281.000000, 8185.000000, 0.000000, 0.000000, 0.000000, 26706.000000, 693.333313, 4.000000, 4.000000, 4.000000, 4.000000, 4.000000, 4.000000, 4.000000, 4.000000, 4.000000, 4.000000, 4.000000, 4.000000, 4.000000, 4.000000, 4.000000, 4.000000
115.000000, 0.000000, 4162.563965, 4204.102539, 4198.974121, 4191.794922, 4226.153809, 4218.461426, 4196.410156, 4215.384277, 4212.307617, 4207.179199, 4236.410156, 4219.487305, 4271.794922, 4180.000000, 3557.000000, 8276.000000, 8173.000000, 0.000000, 0.000000, 0.000000, 26706.000000, 701.538452, 4.000000, 4.000000, 4.000000, 4.000000, 4.000000, 4.000000, 4.000000, 4.000000, 4.000000, 4.000000, 4.000000, 4.000000, 4.000000, 4.000000, 4.000000, 4.000000
116.000000, 0.000000, 4161.538574, 4193.333008, 4191.794922, 4188.717773, 4228.717773, 4214.871582, 4201.538574, 4222.563965, 4213.846191, 4203.076660, 4224.102539, 4218.461426, 4267.692383, 4188.717773, 3516.000000, 8276.000000, 8173.000000, 0.000000, 0.000000, 0.000000, 26706.000000, 709.230774, 4.000000, 4.000000, 4.000000, 4.000000, 4.000000, 4.000000, 4.000000, 4.000000, 4.000000, 4.000000, 4.000000, 4.000000, 4.000000, 4.000000, 4.000000, 4.000000
117.000000, 0.000000, 4151.281738, 4183.076660, 4178.461426, 4176.922852, 4216.922852, 4201.538574, 4195.384277, 4224.615234, 4208.717773, 4194.871582, 4212.820313, 4201.538574, 4257.948730, 4178.461426, 3478.000000, 8260.000000, 8167.000000, 0.000000, 0.000000, 0.000000, 26706.000000, 717.435852, 4.000000, 4.000000, 4.000000, 4.000000, 4.000000, 4.000000, 4.000000, 4.000000, 4.000000, 4.000000, 4.000000, 4.000000, 4.000000, 4.000000, 4.000000, 4.000000
118.000000, 0.000000, 4156.410156, 4179.487305, 4186.153809, 4181.025391, 4211.281738, 4195.897461, 4189.743652, 4231.281738, 4208.717773, 4190.769043, 4217.436035, 4197.948730, 4251.794922, 4162.051270, 3050.000000, 8260.000000, 8167.000000, 0.000000, 0.000000, 0.000000, 26706.000000, 725.128174, 4.000000, 4.000000, 4.000000, 4.000000, 4.000000, 4.000000, 4.000000, 4.000000, 4.000000, 4.000000, 4.000000, 4.000000, 4.000000, 4.000000, 4.000000, 4.000000
119.000000, 0.000000, 4163.076660, 4181.538574, 4200.000000, 4187.692383, 4215.384277, 4204.615234, 4197.436035, 4222.563965, 4208.205078, 4185.641113, 4217.948730, 4204.615234, 4248.717773, 4156.922852, 3557.000000, 8243.000000, 8166.000000, 0.000000, 0.000000, 0.000000, 26706.000000, 733.333313, 4.000000, 4.000000, 4.000000, 4.000000, 4.000000, 4.000000, 4.000000, 4.000000, 4.000000, 4.000000, 4.000000, 4.000000, 4.000000, 4.000000, 4.000000, 4.000000
120.000000, 0.000000, 4168.717773, 4193.333008, 4193.846191, 4185.641113, 4219.487305, 4214.358887, 4204.102539, 4212.307617, 4206.666504, 4186.153809, 4214.871582, 4205.641113, 4251.794922, 4168.205078, 3516.000000, 8243.000000, 8166.000000, 0.000000, 0.000000, 0.000000, 26706.000000, 741.538452, 4.000000, 4.000000, 4.000000, 4.000000, 4.000000, 4.000000, 4.000000, 4.000000, 4.000000, 4.000000, 4.000000, 4.000000, 4.000000, 4.000000, 4.000000, 4.000000
121.000000, 0.000000, 4170.769043, 4193.846191, 4182.051270, 4178.461426, 4219.487305, 4206.153809, 4203.589844, 4217.948730, 4204.102539, 4194.358887, 4215.384277, 4205.127930, 4250.256348, 4173.333008, 3478.000000, 8226.000000, 8166.000000, 0.000000, 0.000000, 0.000000, 26706.000000, 749.230774, 4.000000, 4.000000, 4.000000, 4.000000, 4.000000, 4.000000, 4.000000, 4.000000, 4.000000, 4.000000, 4.000000, 4.000000, 4.000000, 4.000000, 4.000000, 4.000000
122.000000, 0.000000, 4162.051270, 4182.051270, 4191.794922, 4174.358887, 4218.974121, 4197.948730, 4208.205078, 4219.487305, 4210.256348, 4204.102539, 4218.461426, 4210.256348, 4249.230469, 4171.794922, 3050.000000, 8226.000000, 8166.000000, 0.000000, 0.000000, 0.000000, 26706.000000, 757.435852, 4.000000, 4.000000, 4.000000, 4.000000, 4.000000, 4.000000, 4.000000, 4.000000, 4.000000, 4.000000, 4.000000, 4.000000, 4.000000, 4.000000, 4.000000, 4.000000
123.000000, 0.000000, 4158.461426, 4182.051270, 4207.692383, 4185.641113, 4213.333008, 4208.717773, 4222.051270, 4217.948730, 4214.358887, 4201.538574, 4226.153809, 4221.025391, 4254.871582, 4176.922852, 3557.000000, 8199.000000, 8164.000000, 0.000000, 0.000000, 0.000000, 26706.000000, 765.128174, 4.000000, 4.000000, 4.000000, 4.000000, 4.000000, 4.000000, 4.000000, 4.000000, 4.000000, 4.000000, 4.000000, 4.000000, 4.000000, 4.000000, 4.000000, 4.000000
124.000000, 0.000000, 4162.051270, 4183.589844, 4197.436035, 4184.102539, 4203.076660, 4212.820313, 4223.589844, 4221.538574, 4206.153809, 4190.256348, 4224.102539, 4214.871582, 4249.230469, 4173.333008, 3516.000000, 8199.000000, 8164.000000, 0.000000, 0.000000, 0.000000, 26706.000000, 773.333313, 4.000000, 4.000000, 4.000000, 4.000000, 4.000000, 4.000000, 4.000000, 4.000000, 4.000000, 4.000000, 4.000000, 4.000000, 4.000000, 4.000000, 4.000000, 4.000000
125.000000, 0.000000, 4162.563965, 4181.025391, 4185.127930, 4177.948730, 4204.615234, 4200.512695, 4203.076660, 4218.974121, 4204.615234, 4190.769043, 4216.410156, 4200.512695, 4247.179199, 4167.692383, 3478.000000, 8187.000000, 8172.000000, 0.000000, 0.000000, 0.000000, 26706.000000, 781.025635, 4.000000, 4.000000, 4.000000, 4.000000, 4.000000, 4.000000, 4.000000, 4.000000, 4.000000, 4.000000, 4.000000, 4.000000, 4.000000, 4.000000, 4.000000, 4.000000
126.000000, 0.000000, 4158.974121, 4184.615234, 4189.743652, 4183.076660, 4219.487305, 4198.461426, 4180.512695, 4214.358887, 4216.410156, 4196.410156, 4219.487305, 4202.051270, 4258.461426, 4172.307617, 3050.000000, 8187.000000, 8172.000000, 0.000000, 0.000000, 0.000000, 26706.000000, 789.230774, 4.000000, 4.000000, 4.000000, 4.000000, 4.000000, 4.000000, 4.000000, 4.000000, 4.000000, 4.000000, 4.000000, 4.000000, 4.000000, 4.000000, 4.000000, 4.000000
127.000000, 0.000000, 4153.846191, 4179.487305, 4182.051270, 4173.846191, 4218.461426, 4197.948730, 4186.666504, 4216.410156, 4212.307617, 4188.717773, 4216.922852, 4198.974121, 4253.333008, 4163.076660, 52.000000, 8184.000000, 8177.000000, 0.000000, 0.000000, 0.000000, 26706.000000, 796.923035, 4.000000, 4.000000, 4.000000, 4.000000, 4.000000, 4.000000, 4.000000, 4.000000, 4.000000, 4.000000, 4.000000, 4.000000, 4.000000, 4.000000, 4.000000, 4.000000
0.000000, 0.000000, 4145.641113, 4162.563965, 4171.281738, 4169.230469, 4207.179199, 4191.281738, 4210.769043, 4213.333008, 4194.358887, 4176.410156, 4198.461426, 4185.641113, 4235.897461, 4145.641113, 3490.000000, 8184.000000, 8177.000000, 0.000000, 0.000000, 0.000000, 26706.000000, 805.128174, 4.000000, 4.000000, 4.000000, 4.000000, 4.000000, 4.000000, 4.000000, 4.000000, 4.000000, 4.000000, 4.000000, 4.000000, 4.000000, 4.000000, 4.000000, 4.000000
1.000000, 0.000000, 4145.641113, 4164.615234, 4178.461426, 4174.358887, 4204.615234, 4197.436035, 4213.846191, 4206.666504, 4196.922852, 4178.974121, 4192.307617, 4187.179199, 4233.846191, 4149.743652, 2206.000000, 8187.000000, 8165.000000, 0.000000, 0.000000, 0.000000, 26706.000000, 813.333313, 4.000000, 4.000000, 4.000000, 4.000000, 4.000000, 4.000000, 4.000000, 4.000000, 4.000000, 4.000000, 4.000000, 4.000000, 4.000000, 4.000000, 4.000000, 4.000000
2.000000, 0.000000, 4154.358887, 4182.051270, 4185.127930, 4181.538574, 4198.461426, 4201.025391, 4200.512695, 4205.641113, 4204.615234, 4187.179199, 4200.512695, 4195.897461, 4238.974121, 4157.948730, 2966.000000, 8187.000000, 8165.000000, 0.000000, 0.000000, 0.000000, 26706.000000, 821.025635, 4.000000, 4.000000, 4.000000, 4.000000, 4.000000, 4.000000, 4.000000, 4.000000, 4.000000, 4.000000, 4.000000, 4.000000, 4.000000, 4.000000, 4.000000, 4.000000
3.000000, 0.000000, 4153.846191, 4183.589844, 4183.589844, 4189.230469, 4190.769043, 4186.666504, 4196.410156, 4198.974121, 4195.384277, 4185.127930, 4202.051270, 4192.820313, 4234.871582, 4148.717773, 3549.000000, 8196.000000, 8154.000000, 0.000000, 0.000000, 0.000000, 26706.000000, 829.230774, 4.000000, 4.000000, 4.000000, 4.000000, 4.000000, 4.000000, 4.000000, 4.000000, 4.000000, 4.000000, 4.000000, 4.000000, 4.000000, 4.000000, 4.000000, 4.000000
4.000000, 1.000000, 4154.871582, 4183.076660, 4185.641113, 4188.717773, 4190.256348, 4188.717773, 4199.487305, 4200.000000, 4196.922852, 4185.127930, 4201.538574, 4193.333008, 4235.384277, 4149.743652, 3580.000000, 8195.000000, 8157.000000, 0.000000, 0.000000, 0.000000, 26706.000000, 836.923035, 4.000000, 4.000000, 4.000000, 4.000000, 4.000000, 4.000000, 4.000000, 4.000000, 4.000000, 4.000000, 4.000000, 4.000000, 4.000000, 4.000000, 4.000000, 4.000000
5.000000, 1.000000, 4156.410156, 4182.051270, 4187.179199, 4187.692383, 4189.743652, 4190.256348, 4202.563965, 4201.538574, 4198.461426, 4185.641113, 4201.025391, 4194.358887, 4235.897461, 4151.281738, 3611.000000, 8194.000000, 8160.000000, 0.000000, 0.000000, 0.000000, 26706.000000, 844.615356, 4.000000, 4.000000, 4.000000, 4.000000, 4.000000, 4.000000, 4.000000, 4.000000, 4.000000, 4.000000, 4.000000, 4.000000, 4.000000, 4.000000, 4.000000, 4.000000
6.000000, 1.000000, 4157.436035, 4181.025391, 4189.230469, 4186.666504, 4188.717773, 4192.307617, 4205.641113, 4202.563965, 4199.487305, 4185.641113, 4201.025391, 4194.871582, 4236.410156, 4152.307617, 3642.000000, 8193.000000, 8163.000000, 0.000000, 0.000000, 0.000000, 26706.000000, 852.820496, 4.000000, 4.000000, 4.000000, 4.000000, 4.000000, 4.000000, 4.000000, 4.000000, 4.000000, 4.000000, 4.000000, 4.000000, 4.000000, 4.000000, 4.000000, 4.000000
7.000000, 1.000000, 4158.974121, 4180.000000, 4190.769043, 4185.641113, 4188.205078, 4193.846191, 4208.717773, 4204.102539, 4201.025391, 4185.641113, 4200.512695, 4195.384277, 4236.922852, 4153.846191, 3673.000000, 8192.000000, 8166.000000, 0.000000, 0.000000, 0.000000, 26706.000000, 860.512817, 4.000000, 4.000000, 4.000000, 4.000000, 4.000000, 4.000000, 4.000000, 4.000000, 4.000000, 4.000000, 4.000000, 4.000000, 4.000000, 4.000000, 4.000000, 4.000000
8.000000, 1.000000, 4160.000000, 4179.487305, 4192.820313, 4185.127930, 4187.692383, 4195.897461, 4211.794922, 4205.127930, 4202.563965, 4185.641113, 4200.000000, 4195.897461, 4237.436035, 4154.871582, 3704.000000, 8191.000000, 8169.000000, 0.000000, 0.000000, 0.000000, 26706.000000, 868.205078, 4.000000, 4.000000, 4.000000, 4.000000, 4.000000, 4.000000, 4.000000, 4.000000, 4.000000, 4.000000, 4.000000, 4.000000, 4.000000, 4.000000, 4.000000, 4.000000
9.000000, 0.000000, 4162.051270, 4177.948730, 4194.871582, 4183.589844, 4186.666504, 4197.948730, 4215.384277, 4206.666504, 4204.102539, 4186.666504, 4199.487305, 4196.922852, 4237.948730, 4156.410156, 3736.000000, 8185.000000, 8176.000000, 0.000000, 0.000000, 0.000000, 26706.000000, 876.410217, 4.000000, 4.000000, 4.000000, 4.000000, 4.000000, 4.000000, 4.000000, 4.000000, 4.000000, 4.000000, 4.000000, 4.000000, 4.000000, 4.000000, 4.000000, 4.000000
10.000000, 0.000000, 4154.871582, 4169.743652, 4190.769043, 4180.000000, 4211.281738, 4195.897461, 4200.512695, 4197.436035, 4205.127930, 4193.333008, 4205.127930, 4200.000000, 4236.922852, 4155.384277, 3050.000000, 8185.000000, 8176.000000, 0.000000, 0.000000, 0.000000, 26706.000000, 884.102539, 4.000000, 4.000000, 4.000000, 4.000000, 4.000000, 4.000000, 4.000000, 4.000000, 4.000000, 4.000000, 4.000000, 4.000000, 4.000000, 4.000000, 4.000000, 4.000000
11.000000, 0.000000, 4171.281738, 4178.974121, 4186.153809, 4178.461426, 4222.563965, 4202.051270, 4204.615234, 4202.051270, 4213.333008, 4201.025391, 4214.871582, 4203.589844, 4240.512695, 4156.922852, 3560.000000, 8175.000000, 8179.000000, 0.000000, 0.000000, 0.000000, 26706.000000, 892.307678, 4.000000, 4.000000, 4.000000, 4.000000, 4.000000, 4.000000, 4.000000, 4.000000, 4.000000, 4.000000, 4.000000, 4.000000, 4.000000, 4.000000, 4.000000, 4.000000
12.000000, 0.000000, 4176.922852, 4180.512695, 4186.666504, 4177.948730, 4209.230469, 4202.051270, 4209.230469, 4204.615234, 4214.358887, 4204.615234, 4216.922852, 4202.051270, 4248.717773, 4155.384277, 3523.000000, 8175.000000, 8179.000000, 0.000000, 0.000000, 0.000000, 26706.000000, 900.000000, 4.000000, 4.000000, 4.000000, 4.000000, 4.000000, 4.000000, 4.000000, 4.000000, 4.000000, 4.000000, 4.000000, 4.000000, 4.000000, 4.000000, 4.000000, 4.000000
13.000000, 0.000000, 4168.717773, 4171.281738, 4190.769043, 4184.615234, 4198.461426, 4195.897461, 4202.563965, 4197.948730, 4208.205078, 4200.512695, 4216.410156, 4205.641113, 4246.666504, 4154.871582, 3478.000000, 8167.000000, 8199.000000, 0.000000, 0.000000, 0.000000, 26706.000000, 907.692261, 4.000000, 4.000000, 4.000000, 4.000000, 4.000000, 4.000000, 4.000000, 4.000000, 4.000000, 4.000000, 4.000000, 4.000000, 4.000000, 4.000000, 4.000000, 4.000000
14.000000, 0.000000, 4170.769043, 4175.384277, 4194.871582, 4186.153809, 4198.974121, 4202.563965, 4195.897461, 4198.974121, 4211.794922, 4202.051270, 4220.000000, 4211.281738, 4247.179199, 4165.127930, 3050.000000, 8167.000000, 8199.000000, 0.000000, 0.000000, 0.000000, 26706.000000, 915.897400, 4.000000, 4.000000, 4.000000, 4.000000, 4.000000, 4.000000, 4.000000, 4.000000, 4.000000, 4.000000, 4.000000, 4.000000, 4.000000, 4.000000, 4.000000, 4.000000
15.000000, 0.000000, 4175.897461, 4181.025391, 4193.846191, 4186.153809, 4203.589844, 4198.461426, 4185.127930, 4200.512695, 4216.410156, 4210.256348, 4220.512695, 4206.666504, 4252.307617, 4173.333008, 3560.000000, 8170.000000, 8205.000000, 0.000000, 0.000000, 0.000000, 26706.000000, 923.589722, 4.000000, 4.000000, 4.000000, 4.000000, 4.000000, 4.000000, 4.000000, 4.000000, 4.000000, 4.000000, 4.000000, 4.000000, 4.000000, 4.000000, 4.000000, 4.000000
16.000000, 0.000000, 4168.205078, 4165.641113, 4184.102539, 4178.974121, 4204.615234, 4186.153809, 4188.205078, 4202.051270, 4214.358887, 4208.205078, 4216.922852, 4197.436035, 4245.641113, 4161.538574, 0.000000, 8170.000000, 8205.000000, 0.000000, 0.000000, 0.000000, 26706.000000, 931.282043, 4.000000, 4.000000, 4.000000, 4.000000, 4.000000, 4.000000, 4.000000, 4.000000, 4.000000, 4.000000, 4.000000, 4.000000, 4.000000, 4.000000, 4.000000, 4.000000
17.000000, 0.000000, 4158.461426, 4150.769043, 4185.127930, 4171.794922, 4202.563965, 4200.000000, 4212.307617, 4212.307617, 4216.410156, 4208.717773, 4216.922852, 4201.025391, 4241.025391, 4150.769043, 0.000000, 8180.000000, 8212.000000, 0.000000, 0.000000, 0.000000, 26706.000000, 939.487183, 4.000000, 4.000000, 4.000000, 4.000000, 4.000000, 4.000000, 4.000000, 4.000000, 4.000000, 4.000000, 4.000000, 4.000000, 4.000000, 4.000000, 4.000000, 4.000000
18.000000, 0.000000, 4164.102539, 4167.692383, 4198.461426, 4185.127930, 4206.666504, 4216.410156, 4218.974121, 4217.948730, 4217.436035, 4215.384277, 4218.974121, 4207.179199, 4248.205078, 4163.589844, 0.000000, 8180.000000, 8212.000000, 0.000000, 0.000000, 0.000000, 26706.000000, 947.179443, 4.000000, 4.000000, 4.000000, 4.000000, 4.000000, 4.000000, 4.000000, 4.000000, 4.000000, 4.000000, 4.000000, 4.000000, 4.000000, 4.000000, 4.000000, 4.000000
19.000000, 0.000000, 4176.922852, 4189.743652, 4196.410156, 4188.717773, 4206.153809, 4203.589844, 4204.102539, 4216.410156, 4211.281738, 4213.333008, 4219.487305, 4202.051270, 4250.256348, 4169.743652, 0.000000, 8202.000000, 8213.000000, 0.000000, 0.000000, 0.000000, 26706.000000, 954.871765, 4.000000, 4.000000, 4.000000, 4.000000, 4.000000, 4.000000, 4.000000, 4.000000, 4.000000, 4.000000, 4.000000, 4.000000, 4.000000, 4.000000, 4.000000, 4.000000
20.000000, 0.000000, 4181.025391, 4183.589844, 4185.641113, 4185.127930, 4200.000000, 4193.333008, 4202.563965, 4216.410156, 4212.307617, 4208.205078, 4215.384277, 4198.974121, 4244.102539, 4155.384277, 0.000000, 8202.000000, 8213.000000, 0.000000, 0.000000, 0.000000, 26706.000000, 962.564087, 4.000000, 4.000000, 4.000000, 4.000000, 4.000000, 4.000000, 4.000000, 4.000000, 4.000000, 4.000000, 4.000000, 4.000000, 4.000000, 4.000000, 4.000000, 4.000000
21.000000, 0.000000, 4185.641113, 4189.743652, 4195.384277, 4192.307617, 4207.692383, 4203.589844, 4206.666504, 4219.487305, 4220.512695, 4212.307617, 4216.410156, 4208.205078, 4247.692383, 4156.922852, 0.000000, 8223.000000, 8218.000000, 0.000000, 0.000000, 0.000000, 26706.000000, 970.256409, 4.000000, 4.000000, 4.000000, 4.000000, 4.000000, 4.000000, 4.000000, 4.000000, 4.000000, 4.000000, 4.000000, 4.000000, 4.000000, 4.000000, 4.000000, 4.000000
22.000000, 0.000000, 4193.846191, 4213.846191, 4204.102539, 4196.410156, 4221.538574, 4202.563965, 4196.922852, 4221.538574, 4217.948730, 4213.846191, 4223.589844, 4210.256348, 4250.769043, 4174.871582, 0.000000, 8223.000000, 8218.000000, 0.000000, 0.000000, 0.000000, 26706.000000, 978.461487, 4.000000, 4.000000, 4.000000, 4.000000, 4.000000, 4.000000, 4.000000, 4.000000, 4.000000, 4.000000, 4.000000, 4.000000, 4.000000, 4.000000, 4.000000, 4.000000
23.000000, 0.000000, 4192.307617, 4210.256348, 4191.794922, 4200.512695, 4217.948730, 4187.692383, 4188.717773, 4208.717773, 4203.076660, 4201.538574, 4214.871582, 4198.461426, 4236.922852, 4169.743652, 0.000000, 8265.000000, 8228.000000, 0.000000, 0.000000, 0.000000, 26706.000000, 986.153809, 4.000000, 4.000000, 4.000000, 4.000000, 4.000000, 4.000000, 4.000000, 4.000000, 4.000000, 4.000000, 4.000000, 4.000000, 4.000000, 4.000000, 4.000000, 4.000000
24.000000, 0.000000, 4190.769043, 4204.102539, 4187.692383, 4199.487305, 4211.281738, 4182.563965, 4188.205078, 4183.076660, 4194.871582, 4190.769043, 4196.922852, 4188.205078, 4226.153809, 4152.307617, 0.000000, 8265.000000, 8228.000000, 0.000000, 0.000000, 0.000000, 26706.000000, 993.846130, 4.000000, 4.000000, 4.000000, 4.000000, 4.000000, 4.000000, 4.000000, 4.000000, 4.000000, 4.000000, 4.000000, 4.000000, 4.000000, 4.000000, 4.000000, 4.000000
25.000000, 0.000000, 4201.025391, 4224.102539, 4200.512695, 4202.563965, 4216.922852, 4185.127930, 4184.615234, 4185.127930, 4199.487305, 4194.358887, 4198.974121, 4189.743652, 4234.358887, 4154.358887, 0.000000, 8282.000000, 8238.000000, 0.000000, 0.000000, 0.000000, 26707.000000, 1.538461, 4.000000, 4.000000, 4.000000, 4.000000, 4.000000, 4.000000, 4.000000, 4.000000, 4.000000, 4.000000, 4.000000, 4.000000, 4.000000, 4.000000, 4.000000, 4.000000
26.000000, 0.000000, 4207.692383, 4235.384277, 4203.589844, 4210.769043, 4217.436035, 4188.205078, 4184.615234, 4204.102539, 4197.948730, 4198.974121, 4206.153809, 4193.846191, 4234.358887, 4160.512695, 0.000000, 8282.000000, 8238.000000, 0.000000, 0.000000, 0.000000, 26707.000000, 9.230769, 4.000000, 4.000000, 4.000000, 4.000000, 4.000000, 4.000000, 4.000000, 4.000000, 4.000000, 4.000000, 4.000000, 4.000000, 4.000000, 4.000000, 4.000000, 4.000000
27.000000, 0.000000, 4204.615234, 4234.358887, 4196.922852, 4210.256348, 4213.333008, 4182.563965, 4186.153809, 4186.666504, 4184.102539, 4191.281738, 4193.333008, 4188.205078, 4219.487305, 4148.717773, 0.000000, 8294.000000, 8247.000000, 0.000000, 0.000000, 0.000000, 26707.000000, 16.923077, 4.000000, 4.000000, 4.000000, 4.000000, 4.000000, 4.000000, 4.000000, 4.000000, 4.000000, 4.000000, 4.000000, 4.000000, 4.000000, 4.000000, 4.000000, 4.000000
28.000000, 0.000000, 4203.589844, 4238.974121, 4198.461426, 4214.871582, 4216.410156, 4179.487305, 4182.563965, 4162.563965, 4176.922852, 4186.153809, 4184.615234, 4183.589844, 4214.358887, 4136.410156, 0.000000, 8294.000000, 8247.000000, 0.000000, 0.000000, 0.000000, 26707.000000, 25.128204, 4.000000, 4.000000, 4.000000, 4.000000, 4.000000, 4.000000, 4.000000, 4.000000, 4.000000, 4.000000, 4.000000, 4.000000, 4.000000, 4.000000, 4.000000, 4.000000
29.000000, 0.000000, 4208.717773, 4242.563965, 4200.000000, 4215.384277, 4221.538574, 4192.820313, 4186.153809, 4174.871582, 4183.589844, 4190.769043, 4189.743652, 4183.589844, 4215.897461, 4138.974121, 0.000000, 8308.000000, 8272.000000, 0.000000, 0.000000, 0.000000, 26707.000000, 32.820511, 4.000000, 4.000000, 4.000000, 4.000000, 4.000000, 4.000000, 4.000000, 4.000000, 4.000000, 4.000000, 4.000000, 4.000000, 4.000000, 4.000000, 4.000000, 4.000000
30.000000, 0.000000, 4213.333008, 4237.948730, 4197.436035, 4213.333008, 4222.563965, 4202.051270, 4198.974121, 4191.281738, 4192.820313, 4189.230469, 4186.666504, 4180.000000, 4207.692383, 4138.974121, 0.000000, 8308.000000, 8272.000000, 0.000000, 0.000000, 0.000000, 26707.000000, 40.512821, 4.000000, 4.000000, 4.000000, 4.000000, 4.000000, 4.000000, 4.000000, 4.000000, 4.000000, 4.000000, 4.000000, 4.000000, 4.000000, 4.000000, 4.000000, 4.000000
31.000000, 0.000000, 4202.051270, 4229.230469, 4198.461426, 4215.384277, 4220.512695, 4196.922852, 4202.563965, 4186.666504, 4194.871582, 4180.512695, 4180.512695, 4180.000000, 4200.000000, 4126.666504, 0.000000, 8307.000000, 8275.000000, 0.000000, 0.000000, 0.000000, 26707.000000, 48.205128, 4.000000, 4.000000, 4.000000, 4.000000, 4.000000, 4.000000, 4.000000, 4.000000, 4.000000, 4.000000, 4.000000, 4.000000, 4.000000, 4.000000, 4.000000, 4.000000
32.000000, 0.000000, 4192.307617, 4227.179199, 4200.512695, 4211.794922, 4215.384277, 4195.384277, 4194.871582, 4183.589844, 4193.846191, 4178.974121, 4182.051270, 4183.589844, 4198.461426, 4124.615234, 0.000000, 8307.000000, 8275.000000, 0.000000, 0.000000, 0.000000, 26707.000000, 55.897434, 4.000000, 4.000000, 4.000000, 4.000000, 4.000000, 4.000000, 4.000000, 4.000000, 4.000000, 4.000000, 4.000000, 4.000000, 4.000000, 4.000000, 4.000000, 4.000000
33.000000, 0.000000, 4208.205078, 4233.333008, 4201.538574, 4215.384277, 4214.358887, 4201.025391, 4195.384277, 4191.281738, 4196.922852, 4182.563965, 4186.153809, 4188.205078, 4201.538574, 4135.897461, 0.000000, 8310.000000, 8280.000000, 0.000000, 0.000000, 0.000000, 26707.000000, 63.589741, 4.000000, 4.000000, 4.000000, 4.000000, 4.000000, 4.000000, 4.000000, 4.000000, 4.000000, 4.000000, 4.000000, 4.000000, 4.000000, 4.000000, 4.000000, 4.000000
34.000000, 0.000000, 4224.615234, 4234.871582, 4199.487305, 4214.871582, 4222.051270, 4201.538574, 4204.102539, 4206.666504, 4205.127930, 4188.717773, 4192.307617, 4195.384277, 4209.230469, 4141.538574, 0.000000, 8310.000000, 8280.000000, 0.000000, 0.000000, 0.000000, 26707.000000, 71.794868, 4.000000, 4.000000, 4.000000, 4.000000, 4.000000, 4.000000, 4.000000, 4.000000, 4.000000, 4.000000, 4.000000, 4.000000, 4.000000, 4.000000, 4.000000, 4.000000
35.000000, 0.000000, 4222.563965, 4229.230469, 4201.538574, 4212.820313, 4225.127930, 4202.051270, 4202.563965, 4218.461426, 4212.820313, 4195.384277, 4195.897461, 4203.076660, 4211.281738, 4141.025391, 0.000000, 8307.000000, 8277.000000, 0.000000, 0.000000, 0.000000, 26707.000000, 79.487175, 4.000000, 4.000000, 4.000000, 4.000000, 4.000000, 4.000000, 4.000000, 4.000000, 4.000000, 4.000000, 4.000000, 4.000000, 4.000000, 4.000000, 4.000000, 4.000000
36.000000, 0.000000, 4214.871582, 4226.666504, 4211.281738, 4217.948730, 4218.461426, 4203.076660, 4193.846191, 4207.692383, 4206.153809, 4193.846191, 4190.256348, 4200.512695, 4202.563965, 4140.512695, 0.000000, 8307.000000, 8277.000000, 0.000000, 0.000000, 0.000000, 26707.000000, 87.179482, 4.000000, 4.000000, 4.000000, 4.000000, 4.000000, 4.000000, 4.000000, 4.000000, 4.000000, 4.000000, 4.000000, 4.000000, 4.000000, 4.000000, 4.000000, 4.000000
37.000000, 0.000000, 4209.743652, 4226.666504, 4213.846191, 4213.846191, 4215.384277, 4193.846191, 4190.256348, 4182.051270, 4192.820313, 4189.230469, 4186.153809, 4189.743652, 4198.974121, 4138.461426, 0.000000, 8307.000000, 8269.000000, 0.000000, 0.000000, 0.000000, 26707.000000, 94.871796, 4.000000, 4.000000, 4.000000, 4.000000, 4.000000, 4.000000, 4.000000, 4.000000, 4.000000, 4.000000, 4.000000, 4.000000, 4.000000, 4.000000, 4.000000, 4.000000
38.000000, 0.000000, 4210.256348, 4225.127930, 4204.615234, 4214.871582, 4214.358887, 4186.666504, 4190.769043, 4168.205078, 4181.025391, 4183.589844, 4186.153809, 4184.615234, 4203.589844, 4135.384277, 0.000000, 8307.000000, 8269.000000, 0.000000, 0.000000, 0.000000, 26707.000000, 102.564102, 4.000000, 4.000000, 4.000000, 4.000000, 4.000000, 4.000000, 4.000000, 4.000000, 4.000000, 4.000000, 4.000000, 4.000000, 4.000000, 4.000000, 4.000000, 4.000000
39.000000, 0.000000, 4211.281738, 4227.179199, 4197.436035, 4215.897461, 4213.846191, 4188.205078, 4189.743652, 4167.179199, 4174.871582, 4174.358887, 4176.410156, 4178.461426, 4196.922852, 4129.230469, 0.000000, 8310.000000, 8268.000000, 0.000000, 0.000000, 0.000000, 26707.000000, 110.769226, 4.000000, 4.000000, 4.000000, 4.000000, 4.000000, 4.000000, 4.000000, 4.000000, 4.000000, 4.000000, 4.000000, 4.000000, 4.000000, 4.000000, 4.000000, 4.000000
40.000000, 0.000000, 4209.230469, 4223.076660, 4196.410156, 4210.256348, 4214.871582, 4188.717773, 4183.589844, 4168.205078, 4176.922852, 4168.717773, 4169.743652, 4170.769043, 4190.256348, 4122.051270, 0.000000, 8310.000000, 8268.000000, 0.000000, 0.000000, 0.000000, 26707.000000, 118.461533, 4.000000, 4.000000, 4.000000, 4.000000, 4.000000, 4.000000, 4.000000, 4.000000, 4.000000, 4.000000, 4.000000, 4.000000, 4.000000, 4.000000, 4.000000, 4.000000
41.000000, 0.000000, 4207.692383, 4214.871582, 4198.461426, 4214.358887, 4212.307617, 4185.641113, 4175.384277, 4171.794922, 4185.641113, 4179.487305, 4177.436035, 4175.897461, 4197.436035, 4123.076660, 0.000000, 8322.000000, 8261.000000, 0.000000, 0.000000, 0.000000, 26707.000000, 126.153847, 4.000000, 4.000000, 4.000000, 4.000000, 4.000000, 4.000000, 4.000000, 4.000000, 4.000000, 4.000000, 4.000000, 4.000000, 4.000000, 4.000000, 4.000000, 4.000000
42.000000, 0.000000, 4209.230469, 4218.974121, 4197.948730, 4215.897461, 4208.205078, 4186.666504, 4178.461426, 4185.641113, 4195.897461, 4189.743652, 4184.615234, 4180.000000, 4202.051270, 4128.717773, 0.000000, 8322.000000, 8261.000000, 0.000000, 0.000000, 0.000000, 26707.000000, 133.846146, 4.000000, 4.000000, 4.000000, 4.000000, 4.000000, 4.000000, 4.000000, 4.000000, 4.000000, 4.000000, 4.000000, 4.000000, 4.000000, 4.000000, 4.000000, 4.000000
43.000000, 0.000000, 4211.281738, 4228.717773, 4192.820313, 4215.897461, 4200.000000, 4188.205078, 4189.230469, 4196.922852, 4201.025391, 4186.666504, 4182.563965, 4173.846191, 4198.461426, 4126.666504, 0.000000, 8346.000000, 8243.000000, 0.000000, 0.000000, 0.000000, 26707.000000, 141.538452, 4.000000, 4.000000, 4.000000, 4.000000, 4.000000, 4.000000, 4.000000, 4.000000, 4.000000, 4.000000, 4.000000, 4.000000, 4.000000, 4.000000, 4.000000, 4.000000
44.000000, 0.000000, 4207.179199, 4223.589844, 4190.256348, 4216.922852, 4198.974121, 4182.563965, 4189.743652, 4193.846191, 4197.436035, 4184.102539, 4176.922852, 4171.794922, 4195.897461, 4121.538574, 0.000000, 8346.000000, 8243.000000, 0.000000, 0.000000, 0.000000, 26707.000000, 149.743591, 4.000000, 4.000000, 4.000000, 4.000000, 4.000000, 4.000000, 4.000000, 4.000000, 4.000000, 4.000000, 4.000000, 4.000000, 4.000000, 4.000000, 4.000000, 4.000000
45.000000, 0.000000, 4205.127930, 4218.974121, 4197.436035, 4217.436035, 4211.794922, 4181.025391, 4191.281738, 4190.256348, 4186.666504, 4187.179199, 4178.461426, 4182.563965, 4198.974121, 4122.563965, 0.000000, 8361.000000, 8240.000000, 0.000000, 0.000000, 0.000000, 26707.000000, 157.435898, 4.000000, 4.000000, 4.000000, 4.000000, 4.000000, 4.000000, 4.000000, 4.000000, 4.000000, 4.000000, 4.000000, 4.000000, 4.000000, 4.000000, 4.000000, 4.000000
46.000000, 0.000000, 4210.769043, 4224.615234, 4201.538574, 4221.538574, 4211.281738, 4185.641113, 4198.974121, 4189.743652, 4183.076660, 4186.666504, 4182.563965, 4186.666504, 4200.512695, 4124.615234, 0.000000, 8361.000000, 8240.000000, 0.000000, 0.000000, 0.000000, 26707.000000, 165.128204, 4.000000, 4.000000, 4.000000, 4.000000, 4.000000, 4.000000, 4.000000, 4.000000, 4.000000, 4.000000, 4.000000, 4.000000, 4.000000, 4.000000, 4.000000, 4.000000
47.000000, 0.000000, 4213.846191, 4224.615234, 4191.281738, 4214.358887, 4195.897461, 4189.743652, 4194.871582, 4186.153809, 4187.179199, 4184.102539, 4182.051270, 4180.512695, 4200.000000, 4127.692383, 0.000000, 8400.000000, 8236.000000, 0.000000, 0.000000, 0.000000, 26707.000000, 172.820511, 4.000000, 4.000000, 4.000000, 4.000000, 4.000000, 4.000000, 4.000000, 4.000000, 4.000000, 4.000000, 4.000000, 4.000000, 4.000000, 4.000000, 4.000000, 4.000000
48.000000, 0.000000, 4214.358887, 4219.487305, 4185.641113, 4213.333008, 4199.487305, 4189.743652, 4186.153809, 4183.076660, 4186.153809, 4183.589844, 4182.051270, 4183.076660, 4201.538574, 4134.871582, 0.000000, 8400.000000, 8236.000000, 0.000000, 0.000000, 0.000000, 26707.000000, 180.512817, 4.000000, 4.000000, 4.000000, 4.000000, 4.000000, 4.000000, 4.000000, 4.000000, 4.000000, 4.000000, 4.000000, 4.000000, 4.000000, 4.000000, 4.000000, 4.000000
49.000000, 0.000000, 4213.333008, 4217.436035, 4195.897461, 4216.410156, 4210.256348, 4183.076660, 4184.615234, 4178.974121, 4184.615234, 4183.589844, 4184.102539, 4188.717773, 4200.000000, 4140.000000, 0.000000, 8419.000000, 8245.000000, 0.000000, 0.000000, 0.000000, 26707.000000, 188.717941, 4.000000, 4.000000, 4.000000, 4.000000, 4.000000, 4.000000, 4.000000, 4.000000, 4.000000, 4.000000, 4.000000, 4.000000, 4.000000, 4.000000, 4.000000, 4.000000
50.000000, 0.000000, 4214.358887, 4218.461426, 4200.000000, 4211.794922, 4206.153809, 4184.615234, 4189.743652, 4177.948730, 4185.641113, 4184.615234, 4186.153809, 4186.153809, 4198.974121, 4138.974121, 0.000000, 8419.000000, 8245.000000, 0.000000, 0.000000, 0.000000, 26707.000000, 196.410248, 4.000000, 4.000000, 4.000000, 4.000000, 4.000000, 4.000000, 4.000000, 4.000000, 4.000000, 4.000000, 4.000000, 4.000000, 4.000000, 4.000000, 4.000000, 4.000000
51.000000, 0.000000, 4214.871582, 4209.743652, 4189.230469, 4212.820313, 4203.589844, 4193.846191, 4197.948730, 4181.025391, 4185.127930, 4186.153809, 4182.563965, 4185.127930, 4202.563965, 4141.538574, 0.000000, 8433.000000, 8261.000000, 0.000000, 0.000000, 0.000000, 26707.000000, 204.102554, 4.000000, 4.000000, 4.000000, 4.000000, 4.000000, 4.000000, 4.000000, 4.000000, 4.000000, 4.000000, 4.000000, 4.000000, 4.000000, 4.000000, 4.000000, 4.000000
52.000000, 0.000000, 4202.051270, 4190.769043, 4181.025391, 4204.102539, 4196.922852, 4186.666504, 4200.000000, 4180.512695, 4185.127930, 4186.666504, 4173.846191, 4184.102539, 4194.871582, 4135.897461, 0.000000, 8433.000000, 8261.000000, 0.000000, 0.000000, 0.000000, 26707.000000, 211.794861, 4.000000, 4.000000, 4.000000, 4.000000, 4.000000, 4.000000, 4.000000, 4.000000, 4.000000, 4.000000, 4.000000, 4.000000, 4.000000, 4.000000, 4.000000, 4.000000
53.000000, 0.000000, 4194.358887, 4184.102539, 4187.692383, 4200.512695, 4186.153809, 4175.384277, 4191.281738, 4171.281738, 4184.615234, 4190.256348, 4172.307617, 4183.589844, 4185.641113, 4127.179199, 0.000000, 8446.000000, 8300.000000, 0.000000, 0.000000, 0.000000, 26707.000000, 220.000000, 4.000000, 4.000000, 4.000000, 4.000000, 4.000000, 4.000000, 4.000000, 4.000000, 4.000000, 4.000000, 4.000000, 4.000000, 4.000000, 4.000000, 4.000000, 4.000000
54.000000, 0.000000, 4204.102539, 4198.461426, 4195.897461, 4208.717773, 4194.871582, 4183.589844, 4183.076660, 4166.666504, 4186.153809, 4197.948730, 4185.127930, 4191.281738, 4196.922852, 4138.974121, 0.000000, 8446.000000, 8300.000000, 0.000000, 0.000000, 0.000000, 26707.000000, 227.692307, 4.000000, 4.000000, 4.000000, 4.000000, 4.000000, 4.000000, 4.000000, 4.000000, 4.000000, 4.000000, 4.000000, 4.000000, 4.000000, 4.000000, 4.000000, 4.000000
55.000000, 0.000000, 4211.794922, 4205.641113, 4198.461426, 4206.153809, 4205.641113, 4189.743652, 4181.025391, 4174.871582, 4193.333008, 4204.615234, 4189.230469, 4195.897461, 4211.794922, 4154.358887, 0.000000, 8445.000000, 8311.000000, 0.000000, 0.000000, 0.000000, 26707.000000, 235.384613, 4.000000, 4.000000, 4.000000, 4.000000, 4.000000, 4.000000, 4.000000, 4.000000, 4.000000, 4.000000, 4.000000, 4.000000, 4.000000, 4.000000, 4.000000, 4.000000
56.000000, 0.000000, 4207.179199, 4194.871582, 4201.538574, 4206.666504, 4198.461426, 4182.563965, 4182.051270, 4182.051270, 4198.974121, 4206.153809, 4185.641113, 4192.820313, 4211.794922, 4151.794922, 0.000000, 8445.000000, 8311.000000, 0.000000, 0.000000, 0.000000, 26707.000000, 243.076920, 4.000000, 4.000000, 4.000000, 4.000000, 4.000000, 4.000000, 4.000000, 4.000000, 4.000000, 4.000000, 4.000000, 4.000000, 4.000000, 4.000000, 4.000000, 4.000000
57.000000, 0.000000, 4209.230469, 4194.871582, 4204.102539, 4209.230469, 4198.974121, 4187.179199, 4184.102539, 4182.563965, 4199.487305, 4207.692383, 4196.410156, 4196.410156, 4215.897461, 4152.820313, 0.000000, 8435.000000, 8344.000000, 0.000000, 0.000000, 0.000000, 26707.000000, 250.769226, 4.000000, 4.000000, 4.000000, 4.000000, 4.000000, 4.000000, 4.000000, 4.000000, 4.000000, 4.000000, 4.000000, 4.000000, 4.000000, 4.000000, 4.000000, 4.000000
58.000000, 0.000000, 4213.846191, 4202.051270, 4200.512695, 4209.230469, 4206.666504, 4190.769043, 4185.641113, 4182.051270, 4200.000000, 4212.307617, 4206.666504, 4201.025391, 4227.692383, 4163.076660, 0.000000, 8435.000000, 8344.000000, 0.000000, 0.000000, 0.000000, 26707.000000, 258.974365, 4.000000, 4.000000, 4.000000, 4.000000, 4.000000, 4.000000, 4.000000, 4.000000, 4.000000, 4.000000, 4.000000, 4.000000, 4.000000, 4.000000, 4.000000, 4.000000
59.000000, 0.000000, 4209.743652, 4195.384277, 4200.512695, 4207.179199, 4197.436035, 4181.538574, 4188.205078, 4183.589844, 4198.461426, 4214.358887, 4205.641113, 4205.641113, 4237.436035, 4163.589844, 0.000000, 8423.000000, 8344.000000, 0.000000, 0.000000, 0.000000, 26707.000000, 266.666656, 4.000000, 4.000000, 4.000000, 4.000000, 4.000000, 4.000000, 4.000000, 4.000000, 4.000000, 4.000000, 4.000000, 4.000000, 4.000000, 4.000000, 4.000000, 4.000000
60.000000, 0.000000, 4217.436035, 4187.179199, 4213.333008, 4205.641113, 4198.461426, 4181.538574, 4188.717773, 4187.179199, 4199.487305, 4218.974121, 4214.358887, 4212.307617, 4248.205078, 4174.358887, 0.000000, 8423.000000, 8344.000000, 0.000000, 0.000000, 0.000000, 26707.000000, 274.358978, 4.000000, 4.000000, 4.000000, 4.000000, 4.000000, 4.000000, 4.000000, 4.000000, 4.000000, 4.000000, 4.000000, 4.000000, 4.000000, 4.000000, 4.000000, 4.000000
61.000000, 0.000000, 4222.051270, 4185.127930, 4222.051270, 4215.384277, 4208.717773, 4186.666504, 4187.179199, 4189.743652, 4204.615234, 4219.487305, 4224.615234, 4213.333008, 4254.871582, 4186.153809, 0.000000, 8410.000000, 8330.000000, 0.000000, 0.000000, 0.000000, 26707.000000, 282.051270, 4.000000, 4.000000, 4.000000, 4.000000, 4.000000, 4.000000, 4.000000, 4.000000, 4.000000, 4.000000, 4.000000, 4.000000, 4.000000, 4.000000, 4.000000, 4.000000
62.000000, 0.000000, 4208.717773, 4183.076660, 4218.974121, 4214.358887, 4206.153809, 4186.666504, 4187.179199, 4185.127930, 4200.000000, 4209.743652, 4216.922852, 4206.153809, 4247.179199, 4172.820313, 0.000000, 8410.000000, 8330.000000, 0.000000, 0.000000, 0.000000, 26707.000000, 290.256409, 4.000000, 4.000000, 4.000000, 4.000000, 4.000000, 4.000000, 4.000000, 4.000000, 4.000000, 4.000000, 4.000000, 4.000000, 4.000000, 4.000000, 4.000000, 4.000000
63.000000, 0.000000, 4208.717773, 4183.076660, 4215.897461, 4208.205078, 4204.615234, 4185.127930, 4180.512695, 4176.410156, 4192.307617, 4206.153809, 4204.102539, 4202.051270, 4237.948730, 4164.615234, 0.000000, 8401.000000, 8342.000000, 0.000000, 0.000000, 0.000000, 26707.000000, 297.948700, 4.000000, 4.000000, 4.000000, 4.000000, 4.000000, 4.000000, 4.000000, 4.000000, 4.000000, 4.000000, 4.000000, 4.000000, 4.000000, 4.000000, 4.000000, 4.000000
64.000000, 0.000000, 4222.051270, 4187.692383, 4214.358887, 4212.307617, 4206.666504, 4178.974121, 4174.871582, 4176.410156, 4194.871582, 4210.256348, 4201.538574, 4203.076660, 4237.436035, 4167.179199, 3489.000000, 8401.000000, 8342.000000, 0.000000, 0.000000, 0.000000, 26707.000000, 305.641022, 4.000000, 4.000000, 4.000000, 4.000000, 4.000000, 4.000000, 4.000000, 4.000000, 4.000000, 4.000000, 4.000000, 4.000000, 4.000000, 4.000000, 4.000000, 4.000000
65.000000, 0.000000, 4216.922852, 4185.641113, 4212.307617, 4209.230469, 4201.025391, 4173.846191, 4180.512695, 4174.358887, 4194.871582, 4207.179199, 4202.563965, 4196.410156, 4241.025391, 4160.000000, 2199.000000, 8417.000000, 8367.000000, 0.000000, 0.000000, 0.000000, 26707.000000, 313.333313, 4.000000, 4.000000, 4.000000, 4.000000, 4.000000, 4.000000, 4.000000, 4.000000, 4.000000, 4.000000, 4.000000, 4.000000, 4.000000, 4.000000, 4.000000, 4.000000
66.000000, 0.000000, 4205.641113, 4180.512695, 4218.974121, 4214.358887, 4203.076660, 4185.127930, 4188.717773, 4167.179199, 4187.179199, 4200.000000, 4203.076660, 4192.307617, 4239.487305, 4158.974121, 3071.000000, 8417.000000, 8367.000000, 0.000000, 0.000000, 0.000000, 26707.000000, 321.025635, 4.000000, 4.000000, 4.000000, 4.000000, 4.000000, 4.000000, 4.000000, 4.000000, 4.000000, 4.000000, 4.000000, 4.000000, 4.000000, 4.000000, 4.000000, 4.000000
67.000000, 0.000000, 4212.307617, 4185.127930, 4216.410156, 4215.384277, 4215.384277, 4200.512695, 4190.256348, 4171.281738, 4183.076660, 4193.333008, 4200.000000, 4192.307617, 4231.794922, 4168.205078, 3550.000000, 8438.000000, 8380.000000, 0.000000, 0.000000, 0.000000, 26707.000000, 328.717926, 4.000000, 4.000000, 4.000000, 4.000000, 4.000000, 4.000000, 4.000000, 4.000000, 4.000000, 4.000000, 4.000000, 4.000000, 4.000000, 4.000000, 4.000000, 4.000000
68.000000, 0.000000, 4211.281738, 4181.025391, 4198.974121, 4207.692383, 4210.769043, 4203.589844, 4196.410156, 4186.153809, 4188.717773, 4184.102539, 4189.230469, 4190.256348, 4222.563965, 4158.461426, 3542.000000, 8438.000000, 8380.000000, 0.000000, 0.000000, 0.000000, 26707.000000, 336.923065, 4.000000, 4.000000, 4.000000, 4.000000, 4.000000, 4.000000, 4.000000, 4.000000, 4.000000, 4.000000, 4.000000, 4.000000, 4.000000, 4.000000, 4.000000, 4.000000
69.000000, 0.000000, 4189.743652, 4159.487305, 4188.717773, 4203.076660, 4192.307617, 4205.127930, 4209.230469, 4194.358887, 4193.333008, 4185.127930, 4178.974121, 4184.102539, 4213.846191, 4138.461426, 3573.000000, 8455.000000, 8367.000000, 0.000000, 0.000000, 0.000000, 26707.000000, 344.615387, 4.000000, 4.000000, 4.000000, 4.000000, 4.000000, 4.000000, 4.000000, 4.000000, 4.000000, 4.000000, 4.000000, 4.000000, 4.000000, 4.000000, 4.000000, 4.000000
70.000000, 0.000000, 4181.025391, 4150.769043, 4189.230469, 4193.846191, 4188.205078, 4197.436035, 4209.230469, 4189.743652, 4196.922852, 4200.512695, 4184.615234, 4180.000000, 4216.922852, 4137.948730, 3573.000000, 8455.000000, 8367.000000, 0.000000, 0.000000, 0.000000, 26707.000000, 352.307678, 4.000000, 4.000000, 4.000000, 4.000000, 4.000000, 4.000000, 4.000000, 4.000000, 4.000000, 4.000000, 4.000000, 4.000000, 4.000000, 4.000000, 4.000000, 4.000000
71.000000, 0.000000, 4198.461426, 4162.563965, 4198.461426, 4202.563965, 4193.846191, 4182.563965, 4201.025391, 4188.717773, 4203.589844, 4214.358887, 4199.487305, 4191.794922, 4234.871582, 4156.410156, 3500.000000, 8474.000000, 8346.000000, 0.000000, 0.000000, 0.000000, 26707.000000, 360.000000, 4.000000, 4.000000, 4.000000, 4.000000, 4.000000, 4.000000, 4.000000, 4.000000, 4.000000, 4.000000, 4.000000, 4.000000, 4.000000, 4.000000, 4.000000, 4.000000
72.000000, 0.000000, 4208.205078, 4173.846191, 4210.769043, 4210.256348, 4196.922852, 4188.717773, 4197.948730, 4205.641113, 4219.487305, 4227.692383, 4210.769043, 4207.692383, 4249.230469, 4176.922852, 3342.000000, 8474.000000, 8346.000000, 0.000000, 0.000000, 0.000000, 26707.000000, 367.692291, 4.000000, 4.000000, 4.000000, 4.000000, 4.000000, 4.000000, 4.000000, 4.000000, 4.000000, 4.000000, 4.000000, 4.000000, 4.000000, 4.000000, 4.000000, 4.000000
73.000000, 0.000000, 4203.589844, 4183.589844, 4217.436035, 4206.666504, 4207.692383, 4205.127930, 4205.127930, 4223.076660, 4230.256348, 4237.948730, 4216.410156, 4215.897461, 4254.871582, 4185.641113, 3607.000000, 8479.000000, 8335.000000, 0.000000, 0.000000, 0.000000, 26707.000000, 375.384613, 4.000000, 4.000000, 4.000000, 4.000000, 4.000000, 4.000000, 4.000000, 4.000000, 4.000000, 4.000000, 4.000000, 4.000000, 4.000000, 4.000000, 4.000000, 4.000000
74.000000, 0.000000, 4206.153809, 4185.127930, 4214.871582, 4209.230469, 4214.358887, 4205.127930, 4216.922852, 4223.589844, 4224.615234, 4231.281738, 4218.461426, 4217.948730, 4253.846191, 4184.615234, 3050.000000, 8479.000000, 8335.000000, 0.000000, 0.000000, 0.000000, 26707.000000, 383.589722, 4.000000, 4.000000, 4.000000, 4.000000, 4.000000, 4.000000, 4.000000, 4.000000, 4.000000, 4.000000, 4.000000, 4.000000, 4.000000, 4.000000, 4.000000, 4.000000
75.000000, 0.000000, 4210.769043, 4173.846191, 4208.205078, 4204.615234, 4200.512695, 4200.512695, 4218.974121, 4210.769043, 4216.410156, 4216.922852, 4213.333008, 4212.307617, 4247.179199, 4179.487305, 3560.000000, 8480.000000, 8319.000000, 0.000000, 0.000000, 0.000000, 26707.000000, 391.282043, 4.000000, 4.000000, 4.000000, 4.000000, 4.000000, 4.000000, 4.000000, 4.000000, 4.000000, 4.000000, 4.000000, 4.000000, 4.000000, 4.000000, 4.000000, 4.000000
76.000000, 0.000000, 4209.230469, 4166.666504, 4200.000000, 4198.974121, 4186.666504, 4196.922852, 4207.179199, 4198.974121, 4206.666504, 4213.846191, 4204.615234, 4203.076660, 4245.641113, 4175.897461, 3523.000000, 8480.000000, 8319.000000, 0.000000, 0.000000, 0.000000, 26707.000000, 398.974335, 4.000000, 4.000000, 4.000000, 4.000000, 4.000000, 4.000000, 4.000000, 4.000000, 4.000000, 4.000000, 4.000000, 4.000000, 4.000000, 4.000000, 4.000000, 4.000000
77.000000, 0.000000, 4197.948730, 4165.641113, 4197.948730, 4197.948730, 4187.692383, 4195.384277, 4198.974121, 4205.127930, 4203.076660, 4217.436035, 4202.051270, 4198.974121, 4249.230469, 4169.230469, 3480.000000, 8470.000000, 8307.000000, 0.000000, 0.000000, 0.000000, 26707.000000, 407.179474, 4.000000, 4.000000, 4.000000, 4.000000, 4.000000, 4.000000, 4.000000, 4.000000, 4.000000, 4.000000, 4.000000, 4.000000, 4.000000, 4.000000, 4.000000, 4.000000
78.000000, 0.000000, 4191.794922, 4162.563965, 4204.102539, 4195.897461, 4193.333008, 4202.563965, 4196.922852, 4201.025391, 4204.102539, 4210.769043, 4201.025391, 4202.051270, 4243.589844, 4162.051270, 3050.000000, 8470.000000, 8307.000000, 0.000000, 0.000000, 0.000000, 26707.000000, 414.871796, 4.000000, 4.000000, 4.000000, 4.000000, 4.000000, 4.000000, 4.000000, 4.000000, 4.000000, 4.000000, 4.000000, 4.000000, 4.000000, 4.000000, 4.000000, 4.000000
79.000000, 0.000000, 4194.358887, 4163.076660, 4202.563965, 4199.487305, 4195.384277, 4201.538574, 4188.205078, 4174.358887, 4196.410156, 4199.487305, 4197.436035, 4201.025391, 4232.307617, 4164.615234, 3560.000000, 8465.000000, 8299.000000, 0.000000, 0.000000, 0.000000, 26707.000000, 422.564087, 4.000000, 4.000000, 4.000000, 4.000000, 4.000000, 4.000000, 4.000000, 4.000000, 4.000000, 4.000000, 4.000000, 4.000000, 4.000000, 4.000000, 4.000000, 4.000000
80.000000, 0.000000, 4196.922852, 4172.307617, 4197.948730, 4202.563965, 4190.769043, 4192.820313, 4187.692383, 4172.307617, 4188.717773, 4201.538574, 4200.000000, 4196.922852, 4233.846191, 4174.358887, 3523.000000, 8465.000000, 8299.000000, 0.000000, 0.000000, 0.000000, 26707.000000, 430.769226, 4.000000, 4.000000, 4.000000, 4.000000, 4.000000, 4.000000, 4.000000, 4.000000, 4.000000, 4.000000, 4.000000, 4.000000, 4.000000, 4.000000, 4.000000, 4.000000
81.000000, 0.000000, 4198.974121, 4175.384277, 4197.948730, 4202.563965, 4180.512695, 4188.205078, 4190.256348, 4188.717773, 4188.205078, 4199.487305, 4196.410156, 4192.307617, 4238.461426, 4177.436035, 3480.000000, 8454.000000, 8289.000000, 0.000000, 0.000000, 0.000000, 26707.000000, 438.461517, 4.000000, 4.000000, 4.000000, 4.000000, 4.000000, 4.000000, 4.000000, 4.000000, 4.000000, 4.000000, 4.000000, 4.000000, 4.000000, 4.000000, 4.000000, 4.000000
82.000000, 0.000000, 4191.794922, 4163.589844, 4191.281738, 4193.846191, 4182.051270, 4175.897461, 4186.153809, 4184.102539, 4187.179199, 4186.666504, 4180.512695, 4186.666504, 4229.230469, 4165.127930, 3050.000000, 8454.000000, 8289.000000, 0.000000, 0.000000, 0.000000, 26707.000000, 446.666656, 4.000000, 4.000000, 4.000000, 4.000000, 4.000000, 4.000000, 4.000000, 4.000000, 4.000000, 4.000000, 4.000000, 4.000000, 4.000000, 4.000000, 4.000000, 4.000000
83.000000, 0.000000, 4176.922852, 4151.794922, 4185.641113, 4188.205078, 4192.307617, 4174.871582, 4194.358887, 4190.256348, 4192.820313, 4189.743652, 4183.589844, 4186.666504, 4223.589844, 4157.948730, 3560.000000, 8445.000000, 8283.000000, 0.000000, 0.000000, 0.000000, 26707.000000, 454.358978, 4.000000, 4.000000, 4.000000, 4.000000, 4.000000, 4.000000, 4.000000, 4.000000, 4.000000, 4.000000, 4.000000, 4.000000, 4.000000, 4.000000, 4.000000, 4.000000
84.000000, 0.000000, 4174.358887, 4156.410156, 4186.153809, 4196.922852, 4184.102539, 4190.256348, 4207.692383, 4202.051270, 4199.487305, 4195.897461, 4195.384277, 4188.717773, 4228.717773, 4161.538574, 3523.000000, 8445.000000, 8283.000000, 0.000000, 0.000000, 0.000000, 26707.000000, 462.051270, 4.000000, 4.000000, 4.000000, 4.000000, 4.000000, 4.000000, 4.000000, 4.000000, 4.000000, 4.000000, 4.000000, 4.000000, 4.000000, 4.000000, 4.000000, 4.000000
85.000000, 0.000000, 4183.589844, 4170.769043, 4190.256348, 4198.461426, 4169.230469, 4195.384277, 4200.000000, 4187.179199, 4194.358887, 4192.820313, 4191.794922, 4186.666504, 4231.794922, 4164.615234, 3480.000000, 8437.000000, 8281.000000, 0.000000, 0.000000, 0.000000, 26707.000000, 469.743591, 4.000000, 4.000000, 4.000000, 4.000000, 4.000000, 4.000000, 4.000000, 4.000000, 4.000000, 4.000000, 4.000000, 4.000000, 4.000000, 4.000000, 4.000000, 4.000000
