title:winkLeft11, recorded:17.05.18 22.00.25, timestamp started:2018-05-12T20:28:52.032863+02:00            , sampling:128, subject:Noé, labels:COUNTER INTERPOLATED AF3 F7 F3 FC5 T7 P7 O1 O2 P8 T8 FC6 F4 F8 AF4 RAW_CQ GYROX GYROY MARKER MARKER_HARDWARE SYNC TIME_STAMP_s TIME_STAMP_ms CQ_AF3 CQ_F7 CQ_F3 CQ_FC5 CQ_T7 CQ_P7 CQ_O1 CQ_O2 CQ_P8 CQ_T8 CQ_FC6 CQ_F4 CQ_F8 CQ_AF4 CQ_CMS CQ_DRL, chan:40, samples:2080, units:emotiv
6.000000, 0.000000, 4232.307617, 4167.692383, 4199.487305, 4209.230469, 4218.461426, 4213.333008, 4198.461426, 4188.717773, 4202.563965, 4220.512695, 4179.487305, 4174.358887, 4170.769043, 4193.333008, 3143.000000, 8290.000000, 8109.000000, 0.000000, 0.000000, 0.000000, -21258.000000, 253.333328, 4.000000, 4.000000, 4.000000, 4.000000, 4.000000, 4.000000, 4.000000, 4.000000, 4.000000, 4.000000, 4.000000, 4.000000, 4.000000, 4.000000, 4.000000, 4.000000
7.000000, 0.000000, 4225.127930, 4173.333008, 4195.897461, 4208.205078, 4221.025391, 4218.974121, 4193.333008, 4187.692383, 4207.179199, 4224.615234, 4178.461426, 4169.743652, 4169.743652, 4194.871582, 3518.000000, 8288.000000, 8107.000000, 0.000000, 0.000000, 0.000000, -21258.000000, 261.538452, 4.000000, 4.000000, 4.000000, 4.000000, 4.000000, 4.000000, 4.000000, 4.000000, 4.000000, 4.000000, 4.000000, 4.000000, 4.000000, 4.000000, 4.000000, 4.000000
8.000000, 0.000000, 4218.461426, 4170.256348, 4193.333008, 4200.000000, 4217.948730, 4216.410156, 4194.358887, 4188.717773, 4209.743652, 4216.922852, 4171.281738, 4164.102539, 4162.563965, 4187.179199, 3511.000000, 8288.000000, 8107.000000, 0.000000, 0.000000, 0.000000, -21258.000000, 269.230774, 4.000000, 4.000000, 4.000000, 4.000000, 4.000000, 4.000000, 4.000000, 4.000000, 4.000000, 4.000000, 4.000000, 4.000000, 4.000000, 4.000000, 4.000000, 4.000000
9.000000, 0.000000, 4216.922852, 4163.589844, 4193.846191, 4201.538574, 4216.410156, 4214.358887, 4200.512695, 4190.256348, 4213.846191, 4215.897461, 4174.871582, 4168.717773, 4163.589844, 4184.102539, 3542.000000, 8294.000000, 8102.000000, 0.000000, 0.000000, 0.000000, -21258.000000, 277.435883, 4.000000, 4.000000, 4.000000, 4.000000, 4.000000, 4.000000, 4.000000, 4.000000, 4.000000, 4.000000, 4.000000, 4.000000, 4.000000, 4.000000, 4.000000, 4.000000
10.000000, 0.000000, 4221.025391, 4169.230469, 4194.871582, 4209.743652, 4221.538574, 4217.436035, 4200.000000, 4198.974121, 4216.922852, 4229.230469, 4184.102539, 4172.307617, 4169.743652, 4183.076660, 3540.000000, 8294.000000, 8102.000000, 0.000000, 0.000000, 0.000000, -21258.000000, 285.128204, 4.000000, 4.000000, 4.000000, 4.000000, 4.000000, 4.000000, 4.000000, 4.000000, 4.000000, 4.000000, 4.000000, 4.000000, 4.000000, 4.000000, 4.000000, 4.000000
11.000000, 0.000000, 4213.333008, 4168.717773, 4185.641113, 4201.025391, 4221.025391, 4217.948730, 4195.384277, 4203.589844, 4209.230469, 4234.358887, 4178.974121, 4164.615234, 4163.589844, 4175.897461, 671.000000, 8295.000000, 8099.000000, 0.000000, 0.000000, 0.000000, -21258.000000, 292.820496, 4.000000, 4.000000, 4.000000, 4.000000, 4.000000, 4.000000, 4.000000, 4.000000, 4.000000, 4.000000, 4.000000, 4.000000, 4.000000, 4.000000, 4.000000, 4.000000
12.000000, 0.000000, 4200.512695, 4158.461426, 4176.922852, 4186.153809, 4214.358887, 4214.871582, 4195.897461, 4197.436035, 4202.563965, 4228.205078, 4166.153809, 4158.974121, 4153.846191, 4174.871582, 3476.000000, 8295.000000, 8099.000000, 0.000000, 0.000000, 0.000000, -21258.000000, 300.512817, 4.000000, 4.000000, 4.000000, 4.000000, 4.000000, 4.000000, 4.000000, 4.000000, 4.000000, 4.000000, 4.000000, 4.000000, 4.000000, 4.000000, 4.000000, 4.000000
13.000000, 0.000000, 4202.051270, 4153.846191, 4184.102539, 4190.256348, 4212.307617, 4212.820313, 4194.871582, 4198.461426, 4212.820313, 4228.717773, 4173.846191, 4164.102539, 4156.922852, 4169.743652, 3413.000000, 8290.000000, 8096.000000, 0.000000, 0.000000, 0.000000, -21258.000000, 308.717926, 4.000000, 4.000000, 4.000000, 4.000000, 4.000000, 4.000000, 4.000000, 4.000000, 4.000000, 4.000000, 4.000000, 4.000000, 4.000000, 4.000000, 4.000000, 4.000000
14.000000, 0.000000, 4206.153809, 4155.384277, 4192.307617, 4197.948730, 4214.871582, 4213.846191, 4192.820313, 4208.717773, 4222.563965, 4234.358887, 4187.692383, 4172.820313, 4166.666504, 4169.743652, 3540.000000, 8290.000000, 8096.000000, 0.000000, 0.000000, 0.000000, -21258.000000, 316.410248, 4.000000, 4.000000, 4.000000, 4.000000, 4.000000, 4.000000, 4.000000, 4.000000, 4.000000, 4.000000, 4.000000, 4.000000, 4.000000, 4.000000, 4.000000, 4.000000
15.000000, 0.000000, 4206.666504, 4154.871582, 4191.794922, 4197.948730, 4214.871582, 4215.897461, 4197.436035, 4213.333008, 4220.512695, 4234.871582, 4185.641113, 4177.436035, 4169.743652, 4170.769043, 671.000000, 8286.000000, 8093.000000, 0.000000, 0.000000, 0.000000, -21258.000000, 324.615387, 4.000000, 4.000000, 4.000000, 4.000000, 4.000000, 4.000000, 4.000000, 4.000000, 4.000000, 4.000000, 4.000000, 4.000000, 4.000000, 4.000000, 4.000000, 4.000000
16.000000, 0.000000, 4204.102539, 4153.333008, 4193.333008, 4197.436035, 4215.384277, 4215.897461, 4203.076660, 4208.205078, 4217.948730, 4234.871582, 4183.589844, 4177.948730, 4169.743652, 4168.717773, 0.000000, 8286.000000, 8093.000000, 0.000000, 0.000000, 0.000000, -21258.000000, 332.307678, 4.000000, 4.000000, 4.000000, 4.000000, 4.000000, 4.000000, 4.000000, 4.000000, 4.000000, 4.000000, 4.000000, 4.000000, 4.000000, 4.000000, 4.000000, 4.000000
17.000000, 0.000000, 4203.589844, 4154.358887, 4197.436035, 4201.538574, 4215.384277, 4214.358887, 4203.589844, 4199.487305, 4207.692383, 4233.846191, 4186.153809, 4178.974121, 4168.717773, 4171.794922, 0.000000, 8289.000000, 8101.000000, 0.000000, 0.000000, 0.000000, -21258.000000, 340.000000, 4.000000, 4.000000, 4.000000, 4.000000, 4.000000, 4.000000, 4.000000, 4.000000, 4.000000, 4.000000, 4.000000, 4.000000, 4.000000, 4.000000, 4.000000, 4.000000
18.000000, 0.000000, 4209.743652, 4153.846191, 4197.948730, 4204.102539, 4215.897461, 4215.384277, 4200.000000, 4199.487305, 4197.436035, 4231.281738, 4186.666504, 4177.436035, 4169.743652, 4168.717773, 0.000000, 8289.000000, 8101.000000, 0.000000, 0.000000, 0.000000, -21258.000000, 348.205109, 4.000000, 4.000000, 4.000000, 4.000000, 4.000000, 4.000000, 4.000000, 4.000000, 4.000000, 4.000000, 4.000000, 4.000000, 4.000000, 4.000000, 4.000000, 4.000000
19.000000, 0.000000, 4209.230469, 4154.871582, 4197.436035, 4203.076660, 4215.897461, 4217.436035, 4203.076660, 4204.615234, 4206.666504, 4233.333008, 4186.666504, 4181.538574, 4172.307617, 4173.333008, 0.000000, 8279.000000, 8107.000000, 0.000000, 0.000000, 0.000000, -21258.000000, 355.897430, 4.000000, 4.000000, 4.000000, 4.000000, 4.000000, 4.000000, 4.000000, 4.000000, 4.000000, 4.000000, 4.000000, 4.000000, 4.000000, 4.000000, 4.000000, 4.000000
20.000000, 0.000000, 4207.179199, 4157.436035, 4202.051270, 4202.563965, 4214.358887, 4215.897461, 4208.205078, 4201.538574, 4212.820313, 4234.358887, 4187.692383, 4186.153809, 4171.794922, 4179.487305, 0.000000, 8279.000000, 8107.000000, 0.000000, 0.000000, 0.000000, -21258.000000, 363.589722, 4.000000, 4.000000, 4.000000, 4.000000, 4.000000, 4.000000, 4.000000, 4.000000, 4.000000, 4.000000, 4.000000, 4.000000, 4.000000, 4.000000, 4.000000, 4.000000
21.000000, 0.000000, 4214.358887, 4157.436035, 4204.102539, 4208.205078, 4214.871582, 4214.358887, 4208.205078, 4201.538574, 4210.769043, 4235.384277, 4193.333008, 4190.256348, 4174.871582, 4175.897461, 0.000000, 8274.000000, 8110.000000, 0.000000, 0.000000, 0.000000, -21258.000000, 371.794861, 4.000000, 4.000000, 4.000000, 4.000000, 4.000000, 4.000000, 4.000000, 4.000000, 4.000000, 4.000000, 4.000000, 4.000000, 4.000000, 4.000000, 4.000000, 4.000000
22.000000, 0.000000, 4217.436035, 4157.948730, 4203.076660, 4215.384277, 4218.461426, 4216.922852, 4208.205078, 4211.281738, 4212.307617, 4241.538574, 4201.538574, 4195.897461, 4179.487305, 4178.461426, 0.000000, 8274.000000, 8110.000000, 0.000000, 0.000000, 0.000000, -21258.000000, 379.487183, 4.000000, 4.000000, 4.000000, 4.000000, 4.000000, 4.000000, 4.000000, 4.000000, 4.000000, 4.000000, 4.000000, 4.000000, 4.000000, 4.000000, 4.000000, 4.000000
23.000000, 0.000000, 4212.307617, 4156.922852, 4202.051270, 4209.743652, 4216.922852, 4219.487305, 4216.410156, 4217.948730, 4216.410156, 4242.563965, 4196.922852, 4192.307617, 4171.794922, 4175.897461, 0.000000, 8273.000000, 8112.000000, 0.000000, 0.000000, 0.000000, -21258.000000, 387.179474, 4.000000, 4.000000, 4.000000, 4.000000, 4.000000, 4.000000, 4.000000, 4.000000, 4.000000, 4.000000, 4.000000, 4.000000, 4.000000, 4.000000, 4.000000, 4.000000
24.000000, 0.000000, 4206.153809, 4154.871582, 4197.436035, 4199.487305, 4213.333008, 4219.487305, 4219.487305, 4218.461426, 4215.384277, 4234.871582, 4187.692383, 4187.179199, 4164.102539, 4176.410156, 0.000000, 8273.000000, 8112.000000, 0.000000, 0.000000, 0.000000, -21258.000000, 394.871796, 4.000000, 4.000000, 4.000000, 4.000000, 4.000000, 4.000000, 4.000000, 4.000000, 4.000000, 4.000000, 4.000000, 4.000000, 4.000000, 4.000000, 4.000000, 4.000000
25.000000, 0.000000, 4206.666504, 4154.358887, 4195.897461, 4201.025391, 4214.871582, 4216.410156, 4204.615234, 4218.974121, 4216.922852, 4232.820313, 4186.666504, 4187.179199, 4167.692383, 4179.487305, 0.000000, 8252.000000, 8120.000000, 0.000000, 0.000000, 0.000000, -21258.000000, 403.076904, 4.000000, 4.000000, 4.000000, 4.000000, 4.000000, 4.000000, 4.000000, 4.000000, 4.000000, 4.000000, 4.000000, 4.000000, 4.000000, 4.000000, 4.000000, 4.000000
26.000000, 0.000000, 4205.641113, 4154.358887, 4192.820313, 4203.076660, 4213.333008, 4214.358887, 4192.307617, 4212.820313, 4215.384277, 4234.358887, 4185.641113, 4182.051270, 4164.102539, 4176.922852, 0.000000, 8252.000000, 8120.000000, 0.000000, 0.000000, 0.000000, -21258.000000, 410.769226, 4.000000, 4.000000, 4.000000, 4.000000, 4.000000, 4.000000, 4.000000, 4.000000, 4.000000, 4.000000, 4.000000, 4.000000, 4.000000, 4.000000, 4.000000, 4.000000
27.000000, 0.000000, 4198.974121, 4152.307617, 4187.179199, 4195.897461, 4204.615234, 4214.358887, 4199.487305, 4201.538574, 4204.615234, 4230.769043, 4182.563965, 4168.205078, 4154.871582, 4180.000000, 0.000000, 8239.000000, 8128.000000, 0.000000, 0.000000, 0.000000, -21258.000000, 418.974335, 4.000000, 4.000000, 4.000000, 4.000000, 4.000000, 4.000000, 4.000000, 4.000000, 4.000000, 4.000000, 4.000000, 4.000000, 4.000000, 4.000000, 4.000000, 4.000000
28.000000, 0.000000, 4199.487305, 4150.256348, 4187.179199, 4191.281738, 4200.000000, 4215.897461, 4207.179199, 4202.051270, 4204.615234, 4227.692383, 4180.000000, 4163.589844, 4153.846191, 4176.922852, 0.000000, 8239.000000, 8128.000000, 0.000000, 0.000000, 0.000000, -21258.000000, 426.666656, 4.000000, 4.000000, 4.000000, 4.000000, 4.000000, 4.000000, 4.000000, 4.000000, 4.000000, 4.000000, 4.000000, 4.000000, 4.000000, 4.000000, 4.000000, 4.000000
29.000000, 0.000000, 4199.487305, 4150.769043, 4188.205078, 4192.820313, 4201.025391, 4215.384277, 4205.127930, 4205.641113, 4215.384277, 4230.769043, 4178.974121, 4171.794922, 4155.897461, 4175.384277, 0.000000, 8203.000000, 8130.000000, 0.000000, 0.000000, 0.000000, -21258.000000, 434.358978, 4.000000, 4.000000, 4.000000, 4.000000, 4.000000, 4.000000, 4.000000, 4.000000, 4.000000, 4.000000, 4.000000, 4.000000, 4.000000, 4.000000, 4.000000, 4.000000
30.000000, 0.000000, 4197.948730, 4150.769043, 4185.127930, 4190.769043, 4200.512695, 4210.256348, 4200.512695, 4197.948730, 4214.358887, 4231.281738, 4180.000000, 4169.230469, 4155.384277, 4182.563965, 0.000000, 8203.000000, 8130.000000, 0.000000, 0.000000, 0.000000, -21258.000000, 442.564087, 4.000000, 4.000000, 4.000000, 4.000000, 4.000000, 4.000000, 4.000000, 4.000000, 4.000000, 4.000000, 4.000000, 4.000000, 4.000000, 4.000000, 4.000000, 4.000000
31.000000, 0.000000, 4202.051270, 4147.179199, 4185.127930, 4187.179199, 4201.025391, 4203.589844, 4193.846191, 4193.333008, 4211.281738, 4230.256348, 4183.589844, 4165.127930, 4160.512695, 4186.666504, 0.000000, 8190.000000, 8124.000000, 0.000000, 0.000000, 0.000000, -21258.000000, 450.256409, 4.000000, 4.000000, 4.000000, 4.000000, 4.000000, 4.000000, 4.000000, 4.000000, 4.000000, 4.000000, 4.000000, 4.000000, 4.000000, 4.000000, 4.000000, 4.000000
32.000000, 0.000000, 4201.025391, 4147.179199, 4192.820313, 4188.205078, 4201.538574, 4200.512695, 4193.333008, 4198.974121, 4217.436035, 4231.281738, 4186.153809, 4176.410156, 4167.692383, 4189.743652, 0.000000, 8190.000000, 8124.000000, 0.000000, 0.000000, 0.000000, -21258.000000, 457.948700, 4.000000, 4.000000, 4.000000, 4.000000, 4.000000, 4.000000, 4.000000, 4.000000, 4.000000, 4.000000, 4.000000, 4.000000, 4.000000, 4.000000, 4.000000, 4.000000
33.000000, 0.000000, 4203.589844, 4148.205078, 4200.000000, 4189.743652, 4196.410156, 4201.025391, 4197.948730, 4203.076660, 4217.948730, 4232.307617, 4187.179199, 4188.717773, 4165.127930, 4188.717773, 0.000000, 8170.000000, 8118.000000, 0.000000, 0.000000, 0.000000, -21258.000000, 466.153839, 4.000000, 4.000000, 4.000000, 4.000000, 4.000000, 4.000000, 4.000000, 4.000000, 4.000000, 4.000000, 4.000000, 4.000000, 4.000000, 4.000000, 4.000000, 4.000000
34.000000, 0.000000, 4209.230469, 4147.692383, 4201.538574, 4187.179199, 4194.358887, 4200.512695, 4193.333008, 4204.102539, 4214.358887, 4232.820313, 4186.666504, 4189.743652, 4161.025391, 4194.358887, 0.000000, 8170.000000, 8118.000000, 0.000000, 0.000000, 0.000000, -21258.000000, 473.846130, 4.000000, 4.000000, 4.000000, 4.000000, 4.000000, 4.000000, 4.000000, 4.000000, 4.000000, 4.000000, 4.000000, 4.000000, 4.000000, 4.000000, 4.000000, 4.000000
35.000000, 0.000000, 4210.769043, 4150.256348, 4200.000000, 4187.692383, 4194.358887, 4196.410156, 4187.692383, 4199.487305, 4212.820313, 4230.769043, 4184.102539, 4187.692383, 4160.512695, 4202.051270, 0.000000, 8130.000000, 8102.000000, 0.000000, 0.000000, 0.000000, -21258.000000, 482.051270, 4.000000, 4.000000, 4.000000, 4.000000, 4.000000, 4.000000, 4.000000, 4.000000, 4.000000, 4.000000, 4.000000, 4.000000, 4.000000, 4.000000, 4.000000, 4.000000
36.000000, 0.000000, 4213.333008, 4154.871582, 4193.846191, 4189.230469, 4188.205078, 4196.410156, 4195.897461, 4188.205078, 4205.127930, 4228.205078, 4182.051270, 4180.512695, 4161.025391, 4203.589844, 0.000000, 8130.000000, 8102.000000, 0.000000, 0.000000, 0.000000, -21258.000000, 489.743591, 4.000000, 4.000000, 4.000000, 4.000000, 4.000000, 4.000000, 4.000000, 4.000000, 4.000000, 4.000000, 4.000000, 4.000000, 4.000000, 4.000000, 4.000000, 4.000000
37.000000, 0.000000, 4214.358887, 4155.897461, 4187.692383, 4185.641113, 4186.153809, 4201.538574, 4206.666504, 4188.717773, 4203.076660, 4227.692383, 4186.153809, 4175.384277, 4165.127930, 4210.256348, 0.000000, 8112.000000, 8095.000000, 0.000000, 0.000000, 0.000000, -21258.000000, 497.435883, 4.000000, 4.000000, 4.000000, 4.000000, 4.000000, 4.000000, 4.000000, 4.000000, 4.000000, 4.000000, 4.000000, 4.000000, 4.000000, 4.000000, 4.000000, 4.000000
38.000000, 0.000000, 4216.922852, 4156.922852, 4192.820313, 4187.692383, 4198.974121, 4203.589844, 4200.000000, 4198.974121, 4216.410156, 4231.794922, 4191.281738, 4183.076660, 4171.281738, 4213.846191, 0.000000, 8112.000000, 8095.000000, 0.000000, 0.000000, 0.000000, -21258.000000, 505.641022, 4.000000, 4.000000, 4.000000, 4.000000, 4.000000, 4.000000, 4.000000, 4.000000, 4.000000, 4.000000, 4.000000, 4.000000, 4.000000, 4.000000, 4.000000, 4.000000
39.000000, 0.000000, 4220.000000, 4158.974121, 4200.512695, 4194.358887, 4210.769043, 4205.127930, 4197.436035, 4203.589844, 4229.743652, 4240.512695, 4190.769043, 4185.641113, 4174.358887, 4217.436035, 0.000000, 8075.000000, 8088.000000, 0.000000, 0.000000, 0.000000, -21258.000000, 513.333313, 4.000000, 4.000000, 4.000000, 4.000000, 4.000000, 4.000000, 4.000000, 4.000000, 4.000000, 4.000000, 4.000000, 4.000000, 4.000000, 4.000000, 4.000000, 4.000000
40.000000, 0.000000, 4221.538574, 4163.076660, 4202.051270, 4198.461426, 4212.820313, 4213.333008, 4212.820313, 4207.692383, 4229.230469, 4245.127930, 4193.333008, 4179.487305, 4177.948730, 4223.076660, 0.000000, 8075.000000, 8088.000000, 0.000000, 0.000000, 0.000000, -21258.000000, 521.025635, 4.000000, 4.000000, 4.000000, 4.000000, 4.000000, 4.000000, 4.000000, 4.000000, 4.000000, 4.000000, 4.000000, 4.000000, 4.000000, 4.000000, 4.000000, 4.000000
41.000000, 0.000000, 4227.179199, 4169.230469, 4205.127930, 4197.436035, 4211.281738, 4219.487305, 4221.538574, 4209.743652, 4222.563965, 4234.871582, 4198.974121, 4178.461426, 4181.538574, 4220.512695, 0.000000, 8058.000000, 8094.000000, 0.000000, 0.000000, 0.000000, -21258.000000, 529.230774, 4.000000, 4.000000, 4.000000, 4.000000, 4.000000, 4.000000, 4.000000, 4.000000, 4.000000, 4.000000, 4.000000, 4.000000, 4.000000, 4.000000, 4.000000, 4.000000
42.000000, 0.000000, 4221.025391, 4167.692383, 4197.948730, 4188.205078, 4204.615234, 4214.358887, 4215.384277, 4202.051270, 4218.974121, 4216.410156, 4191.281738, 4176.922852, 4174.871582, 4221.538574, 0.000000, 8058.000000, 8094.000000, 0.000000, 0.000000, 0.000000, -21258.000000, 536.923035, 4.000000, 4.000000, 4.000000, 4.000000, 4.000000, 4.000000, 4.000000, 4.000000, 4.000000, 4.000000, 4.000000, 4.000000, 4.000000, 4.000000, 4.000000, 4.000000
43.000000, 0.000000, 4214.358887, 4164.102539, 4184.102539, 4183.076660, 4204.615234, 4212.820313, 4211.281738, 4197.436035, 4215.897461, 4211.794922, 4180.512695, 4168.717773, 4162.563965, 4224.102539, 0.000000, 8049.000000, 8123.000000, 0.000000, 0.000000, 0.000000, -21258.000000, 544.615356, 4.000000, 4.000000, 4.000000, 4.000000, 4.000000, 4.000000, 4.000000, 4.000000, 4.000000, 4.000000, 4.000000, 4.000000, 4.000000, 4.000000, 4.000000, 4.000000
44.000000, 0.000000, 4219.487305, 4167.692383, 4183.076660, 4186.666504, 4215.384277, 4224.102539, 4219.487305, 4207.179199, 4208.205078, 4218.461426, 4182.051270, 4165.127930, 4155.384277, 4226.153809, 0.000000, 8049.000000, 8123.000000, 0.000000, 0.000000, 0.000000, -21258.000000, 552.307678, 4.000000, 4.000000, 4.000000, 4.000000, 4.000000, 4.000000, 4.000000, 4.000000, 4.000000, 4.000000, 4.000000, 4.000000, 4.000000, 4.000000, 4.000000, 4.000000
45.000000, 0.000000, 4215.897461, 4164.615234, 4182.051270, 4184.615234, 4213.846191, 4227.179199, 4224.102539, 4217.948730, 4210.769043, 4221.025391, 4181.538574, 4164.102539, 4151.281738, 4228.717773, 0.000000, 8047.000000, 8142.000000, 0.000000, 0.000000, 0.000000, -21258.000000, 560.512817, 4.000000, 4.000000, 4.000000, 4.000000, 4.000000, 4.000000, 4.000000, 4.000000, 4.000000, 4.000000, 4.000000, 4.000000, 4.000000, 4.000000, 4.000000, 4.000000
46.000000, 0.000000, 4214.871582, 4160.000000, 4183.076660, 4184.102539, 4203.076660, 4215.897461, 4215.384277, 4217.436035, 4228.205078, 4225.641113, 4180.512695, 4165.127930, 4161.025391, 4225.127930, 0.000000, 8047.000000, 8142.000000, 0.000000, 0.000000, 0.000000, -21258.000000, 568.205139, 4.000000, 4.000000, 4.000000, 4.000000, 4.000000, 4.000000, 4.000000, 4.000000, 4.000000, 4.000000, 4.000000, 4.000000, 4.000000, 4.000000, 4.000000, 4.000000
47.000000, 0.000000, 4222.051270, 4166.153809, 4191.794922, 4191.794922, 4201.025391, 4207.179199, 4204.102539, 4206.666504, 4230.256348, 4233.846191, 4188.717773, 4168.717773, 4173.333008, 4225.641113, 0.000000, 8052.000000, 8166.000000, 0.000000, 0.000000, 0.000000, -21258.000000, 576.410217, 4.000000, 4.000000, 4.000000, 4.000000, 4.000000, 4.000000, 4.000000, 4.000000, 4.000000, 4.000000, 4.000000, 4.000000, 4.000000, 4.000000, 4.000000, 4.000000
48.000000, 0.000000, 4220.512695, 4168.205078, 4190.256348, 4189.743652, 4201.538574, 4205.127930, 4200.512695, 4192.820313, 4213.846191, 4227.692383, 4190.256348, 4166.666504, 4168.717773, 4227.179199, 0.000000, 8052.000000, 8166.000000, 0.000000, 0.000000, 0.000000, -21258.000000, 584.102539, 4.000000, 4.000000, 4.000000, 4.000000, 4.000000, 4.000000, 4.000000, 4.000000, 4.000000, 4.000000, 4.000000, 4.000000, 4.000000, 4.000000, 4.000000, 4.000000
49.000000, 0.000000, 4220.000000, 4166.666504, 4188.205078, 4190.256348, 4198.974121, 4203.589844, 4202.051270, 4189.230469, 4209.743652, 4220.000000, 4190.256348, 4166.153809, 4173.333008, 4225.127930, 0.000000, 8075.000000, 8213.000000, 0.000000, 0.000000, 0.000000, -21258.000000, 591.794861, 4.000000, 4.000000, 4.000000, 4.000000, 4.000000, 4.000000, 4.000000, 4.000000, 4.000000, 4.000000, 4.000000, 4.000000, 4.000000, 4.000000, 4.000000, 4.000000
50.000000, 0.000000, 4221.538574, 4170.256348, 4195.384277, 4202.563965, 4200.000000, 4203.589844, 4202.563965, 4196.922852, 4217.436035, 4219.487305, 4187.692383, 4170.769043, 4169.743652, 4224.102539, 0.000000, 8075.000000, 8213.000000, 0.000000, 0.000000, 0.000000, -21258.000000, 600.000000, 4.000000, 4.000000, 4.000000, 4.000000, 4.000000, 4.000000, 4.000000, 4.000000, 4.000000, 4.000000, 4.000000, 4.000000, 4.000000, 4.000000, 4.000000, 4.000000
51.000000, 0.000000, 4215.384277, 4171.281738, 4191.794922, 4202.051270, 4203.076660, 4202.051270, 4201.025391, 4198.974121, 4215.384277, 4219.487305, 4180.512695, 4169.743652, 4144.615234, 4219.487305, 0.000000, 8088.000000, 8231.000000, 0.000000, 0.000000, 0.000000, -21258.000000, 608.205139, 4.000000, 4.000000, 4.000000, 4.000000, 4.000000, 4.000000, 4.000000, 4.000000, 4.000000, 4.000000, 4.000000, 4.000000, 4.000000, 4.000000, 4.000000, 4.000000
52.000000, 0.000000, 4205.641113, 4165.641113, 4189.230469, 4192.307617, 4201.538574, 4198.974121, 4201.025391, 4200.512695, 4216.410156, 4225.641113, 4189.743652, 4171.794922, 4148.717773, 4227.179199, 0.000000, 8088.000000, 8231.000000, 0.000000, 0.000000, 0.000000, -21258.000000, 615.897400, 4.000000, 4.000000, 4.000000, 4.000000, 4.000000, 4.000000, 4.000000, 4.000000, 4.000000, 4.000000, 4.000000, 4.000000, 4.000000, 4.000000, 4.000000, 4.000000
53.000000, 0.000000, 4209.743652, 4165.127930, 4198.974121, 4196.922852, 4199.487305, 4201.538574, 4200.512695, 4206.666504, 4230.256348, 4231.794922, 4203.076660, 4180.512695, 4183.589844, 4233.333008, 0.000000, 8112.000000, 8249.000000, 0.000000, 0.000000, 0.000000, -21258.000000, 623.589722, 4.000000, 4.000000, 4.000000, 4.000000, 4.000000, 4.000000, 4.000000, 4.000000, 4.000000, 4.000000, 4.000000, 4.000000, 4.000000, 4.000000, 4.000000, 4.000000
54.000000, 0.000000, 4217.436035, 4168.717773, 4204.615234, 4203.076660, 4200.000000, 4202.563965, 4197.436035, 4208.205078, 4233.846191, 4235.897461, 4204.615234, 4182.051270, 4196.922852, 4224.615234, 0.000000, 8112.000000, 8249.000000, 0.000000, 0.000000, 0.000000, -21258.000000, 631.794861, 4.000000, 4.000000, 4.000000, 4.000000, 4.000000, 4.000000, 4.000000, 4.000000, 4.000000, 4.000000, 4.000000, 4.000000, 4.000000, 4.000000, 4.000000, 4.000000
55.000000, 0.000000, 4213.333008, 4167.179199, 4206.666504, 4198.974121, 4201.538574, 4204.615234, 4203.589844, 4206.666504, 4226.153809, 4246.153809, 4209.743652, 4182.563965, 4198.974121, 4225.641113, 0.000000, 8119.000000, 8242.000000, 0.000000, 0.000000, 0.000000, -21258.000000, 639.487183, 4.000000, 4.000000, 4.000000, 4.000000, 4.000000, 4.000000, 4.000000, 4.000000, 4.000000, 4.000000, 4.000000, 4.000000, 4.000000, 4.000000, 4.000000, 4.000000
56.000000, 0.000000, 4216.922852, 4166.153809, 4213.333008, 4201.538574, 4204.615234, 4212.820313, 4210.769043, 4208.717773, 4226.666504, 4251.281738, 4222.051270, 4186.153809, 4215.897461, 4227.179199, 0.000000, 8119.000000, 8242.000000, 0.000000, 0.000000, 0.000000, -21258.000000, 647.692322, 4.000000, 4.000000, 4.000000, 4.000000, 4.000000, 4.000000, 4.000000, 4.000000, 4.000000, 4.000000, 4.000000, 4.000000, 4.000000, 4.000000, 4.000000, 4.000000
57.000000, 0.000000, 4221.025391, 4167.692383, 4214.358887, 4206.153809, 4212.307617, 4215.897461, 4206.666504, 4211.281738, 4229.743652, 4247.692383, 4226.666504, 4187.692383, 4225.127930, 4224.615234, 0.000000, 8126.000000, 8229.000000, 0.000000, 0.000000, 0.000000, -21258.000000, 655.384583, 4.000000, 4.000000, 4.000000, 4.000000, 4.000000, 4.000000, 4.000000, 4.000000, 4.000000, 4.000000, 4.000000, 4.000000, 4.000000, 4.000000, 4.000000, 4.000000
58.000000, 0.000000, 4217.948730, 4164.615234, 4210.769043, 4206.153809, 4216.410156, 4208.717773, 4204.615234, 4210.769043, 4228.717773, 4255.897461, 4228.205078, 4191.794922, 4230.256348, 4225.127930, 0.000000, 8126.000000, 8229.000000, 0.000000, 0.000000, 0.000000, -21258.000000, 663.076904, 4.000000, 4.000000, 4.000000, 4.000000, 4.000000, 4.000000, 4.000000, 4.000000, 4.000000, 4.000000, 4.000000, 4.000000, 4.000000, 4.000000, 4.000000, 4.000000
59.000000, 0.000000, 4212.820313, 4155.384277, 4208.205078, 4200.512695, 4212.820313, 4206.666504, 4208.717773, 4218.974121, 4239.487305, 4271.281738, 4235.897461, 4201.538574, 4243.589844, 4222.563965, 0.000000, 8131.000000, 8193.000000, 0.000000, 0.000000, 0.000000, -21258.000000, 671.282043, 4.000000, 4.000000, 4.000000, 4.000000, 4.000000, 4.000000, 4.000000, 4.000000, 4.000000, 4.000000, 4.000000, 4.000000, 4.000000, 4.000000, 4.000000, 4.000000
60.000000, 0.000000, 4201.538574, 4150.256348, 4204.102539, 4190.769043, 4208.205078, 4213.333008, 4211.281738, 4228.205078, 4250.769043, 4273.333008, 4241.025391, 4206.666504, 4248.717773, 4223.589844, 0.000000, 8131.000000, 8193.000000, 0.000000, 0.000000, 0.000000, -21258.000000, 678.974365, 4.000000, 4.000000, 4.000000, 4.000000, 4.000000, 4.000000, 4.000000, 4.000000, 4.000000, 4.000000, 4.000000, 4.000000, 4.000000, 4.000000, 4.000000, 4.000000
61.000000, 0.000000, 4196.410156, 4151.281738, 4202.051270, 4185.641113, 4204.102539, 4215.384277, 4212.307617, 4222.563965, 4242.563965, 4268.205078, 4240.000000, 4202.051270, 4245.641113, 4221.025391, 0.000000, 8130.000000, 8177.000000, 0.000000, 0.000000, 0.000000, -21258.000000, 687.179443, 4.000000, 4.000000, 4.000000, 4.000000, 4.000000, 4.000000, 4.000000, 4.000000, 4.000000, 4.000000, 4.000000, 4.000000, 4.000000, 4.000000, 4.000000, 4.000000
62.000000, 0.000000, 4195.384277, 4151.794922, 4203.076660, 4187.692383, 4202.563965, 4214.871582, 4218.461426, 4214.871582, 4233.846191, 4267.692383, 4237.436035, 4201.025391, 4241.538574, 4218.461426, 0.000000, 8130.000000, 8177.000000, 0.000000, 0.000000, 0.000000, -21258.000000, 694.871765, 4.000000, 4.000000, 4.000000, 4.000000, 4.000000, 4.000000, 4.000000, 4.000000, 4.000000, 4.000000, 4.000000, 4.000000, 4.000000, 4.000000, 4.000000, 4.000000
63.000000, 0.000000, 4189.230469, 4151.794922, 4202.563965, 4190.769043, 4205.127930, 4216.410156, 4221.025391, 4214.358887, 4230.256348, 4264.102539, 4233.846191, 4202.051270, 4235.384277, 4217.948730, 0.000000, 8138.000000, 8157.000000, 0.000000, 0.000000, 0.000000, -21258.000000, 703.076904, 4.000000, 4.000000, 4.000000, 4.000000, 4.000000, 4.000000, 4.000000, 4.000000, 4.000000, 4.000000, 4.000000, 4.000000, 4.000000, 4.000000, 4.000000, 4.000000
64.000000, 0.000000, 4183.589844, 4153.333008, 4200.000000, 4187.179199, 4208.205078, 4215.897461, 4212.820313, 4216.410156, 4228.717773, 4253.333008, 4232.307617, 4196.410156, 4230.256348, 4212.820313, 3359.000000, 8138.000000, 8157.000000, 0.000000, 0.000000, 0.000000, -21258.000000, 710.769226, 4.000000, 4.000000, 4.000000, 4.000000, 4.000000, 4.000000, 4.000000, 4.000000, 4.000000, 4.000000, 4.000000, 4.000000, 4.000000, 4.000000, 4.000000, 4.000000
65.000000, 0.000000, 4173.333008, 4154.358887, 4198.974121, 4186.666504, 4205.641113, 4214.358887, 4213.333008, 4213.846191, 4228.717773, 4255.897461, 4236.410156, 4194.358887, 4231.794922, 4212.307617, 3509.000000, 8140.000000, 8161.000000, 0.000000, 0.000000, 0.000000, -21258.000000, 718.461548, 4.000000, 4.000000, 4.000000, 4.000000, 4.000000, 4.000000, 4.000000, 4.000000, 4.000000, 4.000000, 4.000000, 4.000000, 4.000000, 4.000000, 4.000000, 4.000000
66.000000, 0.000000, 4168.717773, 4154.871582, 4202.051270, 4193.846191, 4204.102539, 4215.384277, 4223.589844, 4215.384277, 4226.153809, 4261.025391, 4240.000000, 4194.871582, 4228.717773, 4208.717773, 2610.000000, 8140.000000, 8161.000000, 0.000000, 0.000000, 0.000000, -21258.000000, 726.666626, 4.000000, 4.000000, 4.000000, 4.000000, 4.000000, 4.000000, 4.000000, 4.000000, 4.000000, 4.000000, 4.000000, 4.000000, 4.000000, 4.000000, 4.000000, 4.000000
67.000000, 0.000000, 4167.692383, 4154.358887, 4204.615234, 4200.512695, 4209.743652, 4215.384277, 4224.615234, 4224.615234, 4225.127930, 4251.794922, 4233.333008, 4191.281738, 4218.461426, 4205.127930, 2138.000000, 8143.000000, 8158.000000, 0.000000, 0.000000, 0.000000, -21258.000000, 734.358948, 4.000000, 4.000000, 4.000000, 4.000000, 4.000000, 4.000000, 4.000000, 4.000000, 4.000000, 4.000000, 4.000000, 4.000000, 4.000000, 4.000000, 4.000000, 4.000000
68.000000, 0.000000, 4165.641113, 4152.307617, 4206.153809, 4200.512695, 4210.769043, 4215.897461, 4215.384277, 4231.281738, 4232.307617, 4247.692383, 4228.717773, 4192.820313, 4213.846191, 4205.127930, 3534.000000, 8143.000000, 8158.000000, 0.000000, 0.000000, 0.000000, -21258.000000, 742.051270, 4.000000, 4.000000, 4.000000, 4.000000, 4.000000, 4.000000, 4.000000, 4.000000, 4.000000, 4.000000, 4.000000, 4.000000, 4.000000, 4.000000, 4.000000, 4.000000
69.000000, 0.000000, 4167.692383, 4150.769043, 4211.794922, 4197.948730, 4205.127930, 4218.974121, 4222.563965, 4234.358887, 4231.794922, 4255.897461, 4233.333008, 4199.487305, 4217.436035, 4197.948730, 3544.000000, 8140.000000, 8138.000000, 0.000000, 0.000000, 0.000000, -21258.000000, 750.256409, 4.000000, 4.000000, 4.000000, 4.000000, 4.000000, 4.000000, 4.000000, 4.000000, 4.000000, 4.000000, 4.000000, 4.000000, 4.000000, 4.000000, 4.000000, 4.000000
70.000000, 0.000000, 4166.153809, 4152.820313, 4215.897461, 4200.000000, 4202.051270, 4221.025391, 4238.461426, 4235.897461, 4225.127930, 4256.410156, 4236.410156, 4202.563965, 4218.461426, 4197.436035, 2906.000000, 8140.000000, 8138.000000, 0.000000, 0.000000, 0.000000, -21258.000000, 757.948669, 4.000000, 4.000000, 4.000000, 4.000000, 4.000000, 4.000000, 4.000000, 4.000000, 4.000000, 4.000000, 4.000000, 4.000000, 4.000000, 4.000000, 4.000000, 4.000000
71.000000, 0.000000, 4159.487305, 4150.256348, 4209.230469, 4198.461426, 4206.153809, 4219.487305, 4232.820313, 4232.820313, 4226.666504, 4247.179199, 4229.743652, 4197.948730, 4212.307617, 4194.358887, 3312.000000, 8133.000000, 8132.000000, 0.000000, 0.000000, 0.000000, -21258.000000, 766.153809, 4.000000, 4.000000, 4.000000, 4.000000, 4.000000, 4.000000, 4.000000, 4.000000, 4.000000, 4.000000, 4.000000, 4.000000, 4.000000, 4.000000, 4.000000, 4.000000
72.000000, 0.000000, 4145.641113, 4141.025391, 4201.538574, 4190.256348, 4200.512695, 4214.358887, 4216.410156, 4222.563965, 4225.127930, 4239.487305, 4222.051270, 4189.743652, 4206.666504, 4185.127930, 3316.000000, 8133.000000, 8132.000000, 0.000000, 0.000000, 0.000000, -21258.000000, 773.846130, 4.000000, 4.000000, 4.000000, 4.000000, 4.000000, 4.000000, 4.000000, 4.000000, 4.000000, 4.000000, 4.000000, 4.000000, 4.000000, 4.000000, 4.000000, 4.000000
73.000000, 0.000000, 4131.281738, 4134.871582, 4195.897461, 4183.076660, 4188.717773, 4213.333008, 4214.871582, 4217.436035, 4215.897461, 4231.794922, 4215.384277, 4179.487305, 4196.410156, 4183.076660, 3541.000000, 8101.000000, 8146.000000, 0.000000, 0.000000, 0.000000, -21258.000000, 782.051270, 4.000000, 4.000000, 4.000000, 4.000000, 4.000000, 4.000000, 4.000000, 4.000000, 4.000000, 4.000000, 4.000000, 4.000000, 4.000000, 4.000000, 4.000000, 4.000000
74.000000, 0.000000, 4131.794922, 4135.897461, 4188.717773, 4184.102539, 4187.179199, 4216.922852, 4218.974121, 4216.410156, 4208.717773, 4224.102539, 4207.179199, 4171.281738, 4184.102539, 4179.487305, 3541.000000, 8101.000000, 8146.000000, 0.000000, 0.000000, 0.000000, -21258.000000, 789.743591, 4.000000, 4.000000, 4.000000, 4.000000, 4.000000, 4.000000, 4.000000, 4.000000, 4.000000, 4.000000, 4.000000, 4.000000, 4.000000, 4.000000, 4.000000, 4.000000
75.000000, 0.000000, 4128.717773, 4135.897461, 4187.692383, 4185.127930, 4187.692383, 4209.743652, 4212.820313, 4204.615234, 4200.512695, 4213.333008, 4200.000000, 4170.769043, 4175.384277, 4181.025391, 671.000000, 8094.000000, 8159.000000, 0.000000, 0.000000, 0.000000, -21258.000000, 797.948669, 4.000000, 4.000000, 4.000000, 4.000000, 4.000000, 4.000000, 4.000000, 4.000000, 4.000000, 4.000000, 4.000000, 4.000000, 4.000000, 4.000000, 4.000000, 4.000000
76.000000, 0.000000, 4121.025391, 4128.717773, 4190.256348, 4180.000000, 4182.563965, 4198.974121, 4197.436035, 4195.384277, 4195.897461, 4206.666504, 4196.410156, 4168.717773, 4168.717773, 4178.974121, 3480.000000, 8094.000000, 8159.000000, 0.000000, 0.000000, 0.000000, -21258.000000, 806.153809, 4.000000, 4.000000, 4.000000, 4.000000, 4.000000, 4.000000, 4.000000, 4.000000, 4.000000, 4.000000, 4.000000, 4.000000, 4.000000, 4.000000, 4.000000, 4.000000
77.000000, 0.000000, 4118.974121, 4123.076660, 4187.692383, 4182.051270, 4183.589844, 4206.153809, 4196.410156, 4197.436035, 4205.127930, 4215.384277, 4198.974121, 4167.179199, 4169.743652, 4171.794922, 3413.000000, 8066.000000, 8165.000000, 0.000000, 0.000000, 0.000000, -21258.000000, 813.846130, 4.000000, 4.000000, 4.000000, 4.000000, 4.000000, 4.000000, 4.000000, 4.000000, 4.000000, 4.000000, 4.000000, 4.000000, 4.000000, 4.000000, 4.000000, 4.000000
78.000000, 0.000000, 4117.948730, 4129.230469, 4189.743652, 4186.666504, 4194.358887, 4215.384277, 4213.333008, 4200.000000, 4212.307617, 4222.051270, 4204.102539, 4174.358887, 4172.820313, 4175.384277, 3541.000000, 8066.000000, 8165.000000, 0.000000, 0.000000, 0.000000, -21258.000000, 822.051270, 4.000000, 4.000000, 4.000000, 4.000000, 4.000000, 4.000000, 4.000000, 4.000000, 4.000000, 4.000000, 4.000000, 4.000000, 4.000000, 4.000000, 4.000000, 4.000000
79.000000, 0.000000, 4120.512695, 4135.384277, 4201.025391, 4186.153809, 4198.974121, 4209.743652, 4215.897461, 4202.563965, 4214.358887, 4220.512695, 4205.127930, 4180.512695, 4171.281738, 4173.846191, 671.000000, 8049.000000, 8165.000000, 0.000000, 0.000000, 0.000000, -21258.000000, 829.743591, 4.000000, 4.000000, 4.000000, 4.000000, 4.000000, 4.000000, 4.000000, 4.000000, 4.000000, 4.000000, 4.000000, 4.000000, 4.000000, 4.000000, 4.000000, 4.000000
80.000000, 0.000000, 4123.589844, 4135.384277, 4202.563965, 4189.743652, 4196.410156, 4206.666504, 4205.127930, 4205.127930, 4218.461426, 4223.589844, 4206.666504, 4180.000000, 4176.922852, 4171.281738, 3480.000000, 8049.000000, 8165.000000, 0.000000, 0.000000, 0.000000, -21258.000000, 837.948669, 4.000000, 4.000000, 4.000000, 4.000000, 4.000000, 4.000000, 4.000000, 4.000000, 4.000000, 4.000000, 4.000000, 4.000000, 4.000000, 4.000000, 4.000000, 4.000000
81.000000, 0.000000, 4127.692383, 4140.000000, 4201.025391, 4200.512695, 4201.025391, 4213.846191, 4204.102539, 4202.051270, 4218.461426, 4229.743652, 4213.846191, 4180.512695, 4186.153809, 4170.769043, 3413.000000, 8030.000000, 8169.000000, 0.000000, 0.000000, 0.000000, -21258.000000, 845.640991, 4.000000, 4.000000, 4.000000, 4.000000, 4.000000, 4.000000, 4.000000, 4.000000, 4.000000, 4.000000, 4.000000, 4.000000, 4.000000, 4.000000, 4.000000, 4.000000
82.000000, 0.000000, 4127.179199, 4142.051270, 4204.102539, 4203.589844, 4204.102539, 4216.410156, 4206.666504, 4206.153809, 4221.538574, 4236.922852, 4218.974121, 4184.102539, 4180.512695, 4166.153809, 3541.000000, 8030.000000, 8169.000000, 0.000000, 0.000000, 0.000000, -21258.000000, 853.846130, 4.000000, 4.000000, 4.000000, 4.000000, 4.000000, 4.000000, 4.000000, 4.000000, 4.000000, 4.000000, 4.000000, 4.000000, 4.000000, 4.000000, 4.000000, 4.000000
83.000000, 0.000000, 4114.871582, 4134.358887, 4203.076660, 4196.922852, 4198.974121, 4210.256348, 4201.025391, 4215.897461, 4228.717773, 4240.512695, 4215.384277, 4183.076660, 4169.743652, 4170.769043, 671.000000, 7997.000000, 8189.000000, 0.000000, 0.000000, 0.000000, -21258.000000, 861.538452, 4.000000, 4.000000, 4.000000, 4.000000, 4.000000, 4.000000, 4.000000, 4.000000, 4.000000, 4.000000, 4.000000, 4.000000, 4.000000, 4.000000, 4.000000, 4.000000
84.000000, 0.000000, 4115.384277, 4140.000000, 4201.538574, 4200.000000, 4200.000000, 4206.153809, 4200.000000, 4211.794922, 4226.153809, 4238.461426, 4214.871582, 4177.948730, 4171.794922, 4170.256348, 3480.000000, 7997.000000, 8189.000000, 0.000000, 0.000000, 0.000000, -21258.000000, 869.743591, 4.000000, 4.000000, 4.000000, 4.000000, 4.000000, 4.000000, 4.000000, 4.000000, 4.000000, 4.000000, 4.000000, 4.000000, 4.000000, 4.000000, 4.000000, 4.000000
85.000000, 0.000000, 4121.025391, 4153.846191, 4198.461426, 4205.127930, 4200.000000, 4203.589844, 4203.589844, 4201.538574, 4217.436035, 4232.820313, 4212.820313, 4173.846191, 4172.820313, 4170.256348, 3413.000000, 7974.000000, 8201.000000, 0.000000, 0.000000, 0.000000, -21258.000000, 877.435852, 4.000000, 4.000000, 4.000000, 4.000000, 4.000000, 4.000000, 4.000000, 4.000000, 4.000000, 4.000000, 4.000000, 4.000000, 4.000000, 4.000000, 4.000000, 4.000000
86.000000, 0.000000, 4117.436035, 4151.794922, 4191.794922, 4200.000000, 4188.717773, 4201.538574, 4200.000000, 4201.025391, 4218.974121, 4232.307617, 4203.589844, 4170.256348, 4162.051270, 4178.974121, 3541.000000, 7974.000000, 8201.000000, 0.000000, 0.000000, 0.000000, -21258.000000, 885.640991, 4.000000, 4.000000, 4.000000, 4.000000, 4.000000, 4.000000, 4.000000, 4.000000, 4.000000, 4.000000, 4.000000, 4.000000, 4.000000, 4.000000, 4.000000, 4.000000
87.000000, 0.000000, 4116.410156, 4148.717773, 4188.205078, 4197.436035, 4186.153809, 4202.051270, 4201.025391, 4204.102539, 4224.102539, 4236.410156, 4201.538574, 4171.794922, 4156.410156, 4180.000000, 671.000000, 7943.000000, 8242.000000, 0.000000, 0.000000, 0.000000, -21258.000000, 893.333313, 4.000000, 4.000000, 4.000000, 4.000000, 4.000000, 4.000000, 4.000000, 4.000000, 4.000000, 4.000000, 4.000000, 4.000000, 4.000000, 4.000000, 4.000000, 4.000000
88.000000, 0.000000, 4118.461426, 4151.794922, 4187.692383, 4200.000000, 4190.769043, 4202.051270, 4205.127930, 4202.563965, 4220.512695, 4233.846191, 4203.076660, 4172.820313, 4158.461426, 4184.102539, 3480.000000, 7943.000000, 8242.000000, 0.000000, 0.000000, 0.000000, -21258.000000, 901.538452, 4.000000, 4.000000, 4.000000, 4.000000, 4.000000, 4.000000, 4.000000, 4.000000, 4.000000, 4.000000, 4.000000, 4.000000, 4.000000, 4.000000, 4.000000, 4.000000
89.000000, 0.000000, 4110.769043, 4144.102539, 4184.102539, 4198.461426, 4188.205078, 4200.000000, 4201.538574, 4202.051270, 4218.974121, 4228.717773, 4197.436035, 4169.230469, 4150.769043, 4181.538574, 3413.000000, 7927.000000, 8258.000000, 0.000000, 0.000000, 0.000000, -21258.000000, 909.230774, 4.000000, 4.000000, 4.000000, 4.000000, 4.000000, 4.000000, 4.000000, 4.000000, 4.000000, 4.000000, 4.000000, 4.000000, 4.000000, 4.000000, 4.000000, 4.000000
90.000000, 0.000000, 4095.384521, 4135.897461, 4178.461426, 4192.307617, 4187.692383, 4198.974121, 4199.487305, 4202.051270, 4218.974121, 4228.717773, 4192.820313, 4168.717773, 4145.127930, 4173.333008, 3541.000000, 7927.000000, 8258.000000, 0.000000, 0.000000, 0.000000, -21258.000000, 917.435852, 4.000000, 4.000000, 4.000000, 4.000000, 4.000000, 4.000000, 4.000000, 4.000000, 4.000000, 4.000000, 4.000000, 4.000000, 4.000000, 4.000000, 4.000000, 4.000000
91.000000, 0.000000, 4088.717773, 4137.436035, 4178.461426, 4190.256348, 4196.922852, 4201.538574, 4198.974121, 4200.000000, 4216.410156, 4232.820313, 4200.000000, 4169.743652, 4152.820313, 4166.666504, 671.000000, 7917.000000, 8282.000000, 0.000000, 0.000000, 0.000000, -21258.000000, 925.128174, 4.000000, 4.000000, 4.000000, 4.000000, 4.000000, 4.000000, 4.000000, 4.000000, 4.000000, 4.000000, 4.000000, 4.000000, 4.000000, 4.000000, 4.000000, 4.000000
92.000000, 0.000000, 4087.692139, 4135.384277, 4182.051270, 4194.358887, 4201.538574, 4202.563965, 4193.333008, 4201.538574, 4213.846191, 4231.281738, 4204.615234, 4166.666504, 4156.922852, 4157.436035, 3480.000000, 7917.000000, 8282.000000, 0.000000, 0.000000, 0.000000, -21258.000000, 933.333313, 4.000000, 4.000000, 4.000000, 4.000000, 4.000000, 4.000000, 4.000000, 4.000000, 4.000000, 4.000000, 4.000000, 4.000000, 4.000000, 4.000000, 4.000000, 4.000000
93.000000, 0.000000, 4086.666504, 4138.974121, 4183.589844, 4199.487305, 4195.897461, 4202.051270, 4193.333008, 4197.948730, 4209.230469, 4222.051270, 4199.487305, 4163.076660, 4151.794922, 4165.641113, 3413.000000, 7892.000000, 8318.000000, 0.000000, 0.000000, 0.000000, -21258.000000, 941.025635, 4.000000, 4.000000, 4.000000, 4.000000, 4.000000, 4.000000, 4.000000, 4.000000, 4.000000, 4.000000, 4.000000, 4.000000, 4.000000, 4.000000, 4.000000, 4.000000
94.000000, 0.000000, 4091.794678, 4149.743652, 4185.641113, 4201.538574, 4194.358887, 4201.538574, 4201.025391, 4189.743652, 4204.615234, 4216.410156, 4197.948730, 4164.102539, 4147.179199, 4175.384277, 3541.000000, 7892.000000, 8318.000000, 0.000000, 0.000000, 0.000000, -21258.000000, 949.230774, 4.000000, 4.000000, 4.000000, 4.000000, 4.000000, 4.000000, 4.000000, 4.000000, 4.000000, 4.000000, 4.000000, 4.000000, 4.000000, 4.000000, 4.000000, 4.000000
95.000000, 0.000000, 4097.948730, 4153.846191, 4192.820313, 4200.000000, 4198.974121, 4201.538574, 4202.563965, 4191.794922, 4205.127930, 4220.512695, 4198.461426, 4168.205078, 4147.692383, 4183.076660, 671.000000, 7881.000000, 8333.000000, 0.000000, 0.000000, 0.000000, -21258.000000, 956.923035, 4.000000, 4.000000, 4.000000, 4.000000, 4.000000, 4.000000, 4.000000, 4.000000, 4.000000, 4.000000, 4.000000, 4.000000, 4.000000, 4.000000, 4.000000, 4.000000
96.000000, 0.000000, 4100.512695, 4151.281738, 4197.436035, 4198.974121, 4198.461426, 4201.025391, 4198.974121, 4197.948730, 4202.051270, 4222.563965, 4201.538574, 4175.897461, 4149.743652, 4196.922852, 3480.000000, 7881.000000, 8333.000000, 0.000000, 0.000000, 0.000000, -21258.000000, 964.615356, 4.000000, 4.000000, 4.000000, 4.000000, 4.000000, 4.000000, 4.000000, 4.000000, 4.000000, 4.000000, 4.000000, 4.000000, 4.000000, 4.000000, 4.000000, 4.000000
97.000000, 0.000000, 4107.692383, 4153.333008, 4200.512695, 4201.538574, 4197.948730, 4199.487305, 4198.461426, 4197.436035, 4201.538574, 4220.000000, 4214.358887, 4186.666504, 4155.897461, 4201.025391, 3413.000000, 7881.000000, 8356.000000, 0.000000, 0.000000, 0.000000, -21258.000000, 972.820496, 4.000000, 4.000000, 4.000000, 4.000000, 4.000000, 4.000000, 4.000000, 4.000000, 4.000000, 4.000000, 4.000000, 4.000000, 4.000000, 4.000000, 4.000000, 4.000000
98.000000, 0.000000, 4111.281738, 4162.051270, 4206.153809, 4205.641113, 4201.538574, 4198.461426, 4201.025391, 4197.948730, 4207.179199, 4225.127930, 4218.461426, 4190.769043, 4156.922852, 4207.179199, 3541.000000, 7881.000000, 8356.000000, 0.000000, 0.000000, 0.000000, -21258.000000, 980.512817, 4.000000, 4.000000, 4.000000, 4.000000, 4.000000, 4.000000, 4.000000, 4.000000, 4.000000, 4.000000, 4.000000, 4.000000, 4.000000, 4.000000, 4.000000, 4.000000
99.000000, 0.000000, 4109.230469, 4163.076660, 4207.692383, 4203.589844, 4196.410156, 4198.974121, 4203.589844, 4203.589844, 4206.153809, 4227.179199, 4202.563965, 4184.102539, 4148.717773, 4205.641113, 671.000000, 7877.000000, 8367.000000, 0.000000, 0.000000, 0.000000, -21258.000000, 988.717896, 4.000000, 4.000000, 4.000000, 4.000000, 4.000000, 4.000000, 4.000000, 4.000000, 4.000000, 4.000000, 4.000000, 4.000000, 4.000000, 4.000000, 4.000000, 4.000000
100.000000, 0.000000, 4112.307617, 4163.076660, 4204.615234, 4201.025391, 4190.769043, 4198.461426, 4204.102539, 4205.641113, 4204.102539, 4224.102539, 4200.000000, 4186.153809, 4148.717773, 4205.127930, 3480.000000, 7877.000000, 8367.000000, 0.000000, 0.000000, 0.000000, -21258.000000, 996.410217, 4.000000, 4.000000, 4.000000, 4.000000, 4.000000, 4.000000, 4.000000, 4.000000, 4.000000, 4.000000, 4.000000, 4.000000, 4.000000, 4.000000, 4.000000, 4.000000
101.000000, 0.000000, 4113.846191, 4168.717773, 4203.589844, 4204.102539, 4193.846191, 4199.487305, 4202.563965, 4202.051270, 4206.153809, 4223.076660, 4209.230469, 4193.846191, 4150.769043, 4215.897461, 3413.000000, 7890.000000, 8383.000000, 0.000000, 0.000000, 0.000000, -21257.000000, 4.102564, 4.000000, 4.000000, 4.000000, 4.000000, 4.000000, 4.000000, 4.000000, 4.000000, 4.000000, 4.000000, 4.000000, 4.000000, 4.000000, 4.000000, 4.000000, 4.000000
102.000000, 0.000000, 4109.743652, 4166.153809, 4204.102539, 4202.051270, 4192.820313, 4199.487305, 4206.666504, 4199.487305, 4203.076660, 4223.076660, 4205.127930, 4190.769043, 4143.589844, 4215.897461, 3541.000000, 7890.000000, 8383.000000, 0.000000, 0.000000, 0.000000, -21257.000000, 12.307692, 4.000000, 4.000000, 4.000000, 4.000000, 4.000000, 4.000000, 4.000000, 4.000000, 4.000000, 4.000000, 4.000000, 4.000000, 4.000000, 4.000000, 4.000000, 4.000000
103.000000, 0.000000, 4106.153809, 4159.487305, 4203.076660, 4197.436035, 4187.692383, 4191.794922, 4206.666504, 4201.538574, 4200.512695, 4219.487305, 4198.974121, 4185.641113, 4137.948730, 4216.410156, 671.000000, 7901.000000, 8384.000000, 0.000000, 0.000000, 0.000000, -21257.000000, 20.512819, 4.000000, 4.000000, 4.000000, 4.000000, 4.000000, 4.000000, 4.000000, 4.000000, 4.000000, 4.000000, 4.000000, 4.000000, 4.000000, 4.000000, 4.000000, 4.000000
104.000000, 0.000000, 4107.692383, 4162.563965, 4201.025391, 4199.487305, 4187.692383, 4182.563965, 4195.897461, 4197.436035, 4197.948730, 4216.922852, 4200.512695, 4185.127930, 4140.000000, 4217.436035, 3480.000000, 7901.000000, 8384.000000, 0.000000, 0.000000, 0.000000, -21257.000000, 28.205128, 4.000000, 4.000000, 4.000000, 4.000000, 4.000000, 4.000000, 4.000000, 4.000000, 4.000000, 4.000000, 4.000000, 4.000000, 4.000000, 4.000000, 4.000000, 4.000000
105.000000, 0.000000, 4107.692383, 4170.256348, 4196.410156, 4198.974121, 4186.153809, 4183.076660, 4196.922852, 4186.666504, 4191.281738, 4215.897461, 4198.974121, 4183.076660, 4141.025391, 4217.948730, 3413.000000, 7919.000000, 8384.000000, 0.000000, 0.000000, 0.000000, -21257.000000, 35.897434, 4.000000, 4.000000, 4.000000, 4.000000, 4.000000, 4.000000, 4.000000, 4.000000, 4.000000, 4.000000, 4.000000, 4.000000, 4.000000, 4.000000, 4.000000, 4.000000
106.000000, 0.000000, 4107.179199, 4168.717773, 4195.897461, 4196.410156, 4181.538574, 4191.794922, 4210.256348, 4188.717773, 4192.307617, 4214.358887, 4198.974121, 4181.025391, 4137.948730, 4223.076660, 3541.000000, 7919.000000, 8384.000000, 0.000000, 0.000000, 0.000000, -21257.000000, 44.102562, 4.000000, 4.000000, 4.000000, 4.000000, 4.000000, 4.000000, 4.000000, 4.000000, 4.000000, 4.000000, 4.000000, 4.000000, 4.000000, 4.000000, 4.000000, 4.000000
107.000000, 0.000000, 4115.897461, 4170.769043, 4202.051270, 4207.179199, 4186.666504, 4198.461426, 4209.743652, 4201.025391, 4203.589844, 4219.487305, 4203.076660, 4184.102539, 4140.512695, 4221.538574, 671.000000, 7961.000000, 8382.000000, 0.000000, 0.000000, 0.000000, -21257.000000, 51.794872, 4.000000, 4.000000, 4.000000, 4.000000, 4.000000, 4.000000, 4.000000, 4.000000, 4.000000, 4.000000, 4.000000, 4.000000, 4.000000, 4.000000, 4.000000, 4.000000
108.000000, 0.000000, 4120.000000, 4180.512695, 4205.641113, 4215.384277, 4198.974121, 4200.000000, 4203.076660, 4205.127930, 4208.717773, 4222.563965, 4203.589844, 4187.179199, 4149.230469, 4226.153809, 3480.000000, 7961.000000, 8382.000000, 0.000000, 0.000000, 0.000000, -21257.000000, 60.000000, 4.000000, 4.000000, 4.000000, 4.000000, 4.000000, 4.000000, 4.000000, 4.000000, 4.000000, 4.000000, 4.000000, 4.000000, 4.000000, 4.000000, 4.000000, 4.000000
109.000000, 0.000000, 4120.000000, 4185.127930, 4201.538574, 4206.153809, 4200.512695, 4198.974121, 4206.153809, 4197.436035, 4197.948730, 4217.948730, 4201.025391, 4185.127930, 4148.717773, 4225.641113, 3413.000000, 7986.000000, 8388.000000, 0.000000, 0.000000, 0.000000, -21257.000000, 67.692307, 4.000000, 4.000000, 4.000000, 4.000000, 4.000000, 4.000000, 4.000000, 4.000000, 4.000000, 4.000000, 4.000000, 4.000000, 4.000000, 4.000000, 4.000000, 4.000000
110.000000, 0.000000, 4121.538574, 4183.076660, 4198.461426, 4202.051270, 4190.769043, 4197.436035, 4205.127930, 4191.281738, 4185.641113, 4213.846191, 4200.512695, 4181.025391, 4138.461426, 4222.051270, 3541.000000, 7986.000000, 8388.000000, 0.000000, 0.000000, 0.000000, -21257.000000, 75.897430, 4.000000, 4.000000, 4.000000, 4.000000, 4.000000, 4.000000, 4.000000, 4.000000, 4.000000, 4.000000, 4.000000, 4.000000, 4.000000, 4.000000, 4.000000, 4.000000
111.000000, 0.000000, 4120.512695, 4183.589844, 4207.179199, 4213.846191, 4187.692383, 4198.461426, 4202.563965, 4191.794922, 4187.692383, 4215.384277, 4203.076660, 4189.743652, 4141.538574, 4228.717773, 671.000000, 8038.000000, 8400.000000, 0.000000, 0.000000, 0.000000, -21257.000000, 83.589745, 4.000000, 4.000000, 4.000000, 4.000000, 4.000000, 4.000000, 4.000000, 4.000000, 4.000000, 4.000000, 4.000000, 4.000000, 4.000000, 4.000000, 4.000000, 4.000000
112.000000, 0.000000, 4124.615234, 4187.179199, 4215.384277, 4216.922852, 4196.410156, 4197.948730, 4207.179199, 4191.281738, 4195.897461, 4218.461426, 4204.615234, 4197.436035, 4149.743652, 4223.589844, 3480.000000, 8038.000000, 8400.000000, 0.000000, 0.000000, 0.000000, -21257.000000, 91.282051, 4.000000, 4.000000, 4.000000, 4.000000, 4.000000, 4.000000, 4.000000, 4.000000, 4.000000, 4.000000, 4.000000, 4.000000, 4.000000, 4.000000, 4.000000, 4.000000
113.000000, 0.000000, 4123.589844, 4184.615234, 4207.179199, 4205.127930, 4198.461426, 4192.307617, 4206.153809, 4188.205078, 4190.769043, 4215.384277, 4199.487305, 4182.051270, 4139.487305, 4219.487305, 3413.000000, 8070.000000, 8382.000000, 0.000000, 0.000000, 0.000000, -21257.000000, 99.487175, 4.000000, 4.000000, 4.000000, 4.000000, 4.000000, 4.000000, 4.000000, 4.000000, 4.000000, 4.000000, 4.000000, 4.000000, 4.000000, 4.000000, 4.000000, 4.000000
114.000000, 0.000000, 4120.512695, 4180.000000, 4198.461426, 4201.025391, 4194.871582, 4187.692383, 4197.948730, 4192.820313, 4184.102539, 4211.281738, 4195.897461, 4169.743652, 4130.256348, 4223.589844, 3541.000000, 8070.000000, 8382.000000, 0.000000, 0.000000, 0.000000, -21257.000000, 107.692307, 4.000000, 4.000000, 4.000000, 4.000000, 4.000000, 4.000000, 4.000000, 4.000000, 4.000000, 4.000000, 4.000000, 4.000000, 4.000000, 4.000000, 4.000000, 4.000000
115.000000, 0.000000, 4132.307617, 4184.615234, 4206.666504, 4209.230469, 4198.461426, 4187.179199, 4192.307617, 4202.051270, 4192.307617, 4215.384277, 4201.025391, 4178.974121, 4138.974121, 4225.641113, 671.000000, 8095.000000, 8365.000000, 0.000000, 0.000000, 0.000000, -21257.000000, 115.384613, 4.000000, 4.000000, 4.000000, 4.000000, 4.000000, 4.000000, 4.000000, 4.000000, 4.000000, 4.000000, 4.000000, 4.000000, 4.000000, 4.000000, 4.000000, 4.000000
116.000000, 0.000000, 4142.563965, 4194.358887, 4217.436035, 4214.358887, 4202.051270, 4189.743652, 4195.384277, 4203.589844, 4202.051270, 4222.051270, 4206.666504, 4190.769043, 4144.615234, 4231.794922, 3480.000000, 8095.000000, 8365.000000, 0.000000, 0.000000, 0.000000, -21257.000000, 123.076920, 4.000000, 4.000000, 4.000000, 4.000000, 4.000000, 4.000000, 4.000000, 4.000000, 4.000000, 4.000000, 4.000000, 4.000000, 4.000000, 4.000000, 4.000000, 4.000000
117.000000, 0.000000, 4147.692383, 4201.025391, 4216.410156, 4215.897461, 4202.563965, 4196.410156, 4200.512695, 4206.153809, 4205.641113, 4218.974121, 4204.102539, 4189.230469, 4142.051270, 4231.794922, 3413.000000, 8158.000000, 8318.000000, 0.000000, 0.000000, 0.000000, -21257.000000, 131.282043, 4.000000, 4.000000, 4.000000, 4.000000, 4.000000, 4.000000, 4.000000, 4.000000, 4.000000, 4.000000, 4.000000, 4.000000, 4.000000, 4.000000, 4.000000, 4.000000
118.000000, 0.000000, 4148.205078, 4202.051270, 4211.794922, 4216.922852, 4202.563965, 4200.000000, 4195.384277, 4202.051270, 4196.410156, 4213.333008, 4200.000000, 4185.127930, 4141.538574, 4230.256348, 3541.000000, 8158.000000, 8318.000000, 0.000000, 0.000000, 0.000000, -21257.000000, 138.974350, 4.000000, 4.000000, 4.000000, 4.000000, 4.000000, 4.000000, 4.000000, 4.000000, 4.000000, 4.000000, 4.000000, 4.000000, 4.000000, 4.000000, 4.000000, 4.000000
119.000000, 0.000000, 4146.153809, 4201.025391, 4210.769043, 4214.871582, 4200.512695, 4193.333008, 4189.743652, 4186.666504, 4183.589844, 4213.846191, 4195.897461, 4183.589844, 4138.461426, 4230.256348, 671.000000, 8189.000000, 8283.000000, 0.000000, 0.000000, 0.000000, -21257.000000, 147.179489, 4.000000, 4.000000, 4.000000, 4.000000, 4.000000, 4.000000, 4.000000, 4.000000, 4.000000, 4.000000, 4.000000, 4.000000, 4.000000, 4.000000, 4.000000, 4.000000
120.000000, 0.000000, 4143.589844, 4200.512695, 4212.820313, 4211.281738, 4198.461426, 4188.205078, 4196.410156, 4180.000000, 4185.641113, 4212.820313, 4192.307617, 4184.102539, 4135.384277, 4228.205078, 3480.000000, 8189.000000, 8283.000000, 0.000000, 0.000000, 0.000000, -21257.000000, 154.871796, 4.000000, 4.000000, 4.000000, 4.000000, 4.000000, 4.000000, 4.000000, 4.000000, 4.000000, 4.000000, 4.000000, 4.000000, 4.000000, 4.000000, 4.000000, 4.000000
121.000000, 0.000000, 4135.897461, 4197.436035, 4212.307617, 4208.717773, 4195.384277, 4188.717773, 4204.615234, 4183.589844, 4182.051270, 4206.666504, 4190.769043, 4184.102539, 4136.410156, 4227.179199, 3413.000000, 8253.000000, 8227.000000, 0.000000, 0.000000, 0.000000, -21257.000000, 163.076920, 4.000000, 4.000000, 4.000000, 4.000000, 4.000000, 4.000000, 4.000000, 4.000000, 4.000000, 4.000000, 4.000000, 4.000000, 4.000000, 4.000000, 4.000000, 4.000000
122.000000, 0.000000, 4138.974121, 4198.461426, 4212.820313, 4209.230469, 4190.769043, 4188.205078, 4198.974121, 4182.563965, 4168.205078, 4201.025391, 4192.307617, 4185.127930, 4139.487305, 4222.051270, 3541.000000, 8253.000000, 8227.000000, 0.000000, 0.000000, 0.000000, -21257.000000, 170.769226, 4.000000, 4.000000, 4.000000, 4.000000, 4.000000, 4.000000, 4.000000, 4.000000, 4.000000, 4.000000, 4.000000, 4.000000, 4.000000, 4.000000, 4.000000, 4.000000
123.000000, 0.000000, 4141.025391, 4202.051270, 4211.281738, 4207.692383, 4187.692383, 4191.794922, 4198.461426, 4182.563965, 4173.333008, 4199.487305, 4188.205078, 4185.641113, 4126.153809, 4226.153809, 671.000000, 8268.000000, 8197.000000, 0.000000, 0.000000, 0.000000, -21257.000000, 178.974350, 4.000000, 4.000000, 4.000000, 4.000000, 4.000000, 4.000000, 4.000000, 4.000000, 4.000000, 4.000000, 4.000000, 4.000000, 4.000000, 4.000000, 4.000000, 4.000000
124.000000, 0.000000, 4131.281738, 4196.410156, 4208.205078, 4203.589844, 4193.333008, 4199.487305, 4203.589844, 4193.333008, 4193.846191, 4205.641113, 4182.051270, 4182.051270, 4112.307617, 4232.307617, 3480.000000, 8268.000000, 8197.000000, 0.000000, 0.000000, 0.000000, -21257.000000, 186.666656, 4.000000, 4.000000, 4.000000, 4.000000, 4.000000, 4.000000, 4.000000, 4.000000, 4.000000, 4.000000, 4.000000, 4.000000, 4.000000, 4.000000, 4.000000, 4.000000
125.000000, 0.000000, 4131.794922, 4192.307617, 4210.256348, 4205.641113, 4201.025391, 4203.076660, 4198.461426, 4202.563965, 4200.512695, 4214.871582, 4190.769043, 4184.102539, 4126.666504, 4227.179199, 3413.000000, 8280.000000, 8148.000000, 0.000000, 0.000000, 0.000000, -21257.000000, 194.871796, 4.000000, 4.000000, 4.000000, 4.000000, 4.000000, 4.000000, 4.000000, 4.000000, 4.000000, 4.000000, 4.000000, 4.000000, 4.000000, 4.000000, 4.000000, 4.000000
126.000000, 0.000000, 4136.922852, 4196.410156, 4213.333008, 4211.281738, 4196.922852, 4199.487305, 4194.358887, 4198.461426, 4193.846191, 4213.333008, 4202.563965, 4189.230469, 4147.179199, 4225.127930, 3541.000000, 8280.000000, 8148.000000, 0.000000, 0.000000, 0.000000, -21257.000000, 202.564102, 4.000000, 4.000000, 4.000000, 4.000000, 4.000000, 4.000000, 4.000000, 4.000000, 4.000000, 4.000000, 4.000000, 4.000000, 4.000000, 4.000000, 4.000000, 4.000000
127.000000, 0.000000, 4137.948730, 4200.000000, 4211.281738, 4213.846191, 4192.820313, 4196.922852, 4196.410156, 4187.179199, 4190.769043, 4212.307617, 4203.076660, 4184.102539, 4150.256348, 4220.512695, 54.000000, 8286.000000, 8120.000000, 0.000000, 0.000000, 0.000000, -21257.000000, 210.256409, 4.000000, 4.000000, 4.000000, 4.000000, 4.000000, 4.000000, 4.000000, 4.000000, 4.000000, 4.000000, 4.000000, 4.000000, 4.000000, 4.000000, 4.000000, 4.000000
0.000000, 0.000000, 4137.948730, 4200.512695, 4211.281738, 4213.846191, 4199.487305, 4199.487305, 4200.512695, 4185.127930, 4187.692383, 4225.641113, 4200.512695, 4182.563965, 4152.307617, 4225.641113, 3357.000000, 8286.000000, 8120.000000, 0.000000, 0.000000, 0.000000, -21257.000000, 217.948715, 4.000000, 4.000000, 4.000000, 4.000000, 4.000000, 4.000000, 4.000000, 4.000000, 4.000000, 4.000000, 4.000000, 4.000000, 4.000000, 4.000000, 4.000000, 4.000000
1.000000, 0.000000, 4137.436035, 4198.974121, 4213.846191, 4212.307617, 4199.487305, 4198.461426, 4200.512695, 4188.205078, 4187.179199, 4232.307617, 4201.538574, 4192.307617, 4162.051270, 4235.384277, 3509.000000, 8281.000000, 8098.000000, 0.000000, 0.000000, 0.000000, -21257.000000, 226.153839, 4.000000, 4.000000, 4.000000, 4.000000, 4.000000, 4.000000, 4.000000, 4.000000, 4.000000, 4.000000, 4.000000, 4.000000, 4.000000, 4.000000, 4.000000, 4.000000
2.000000, 0.000000, 4138.461426, 4198.461426, 4213.333008, 4209.743652, 4192.307617, 4194.358887, 4195.384277, 4186.153809, 4194.358887, 4226.153809, 4207.179199, 4196.922852, 4167.692383, 4227.179199, 2588.000000, 8281.000000, 8098.000000, 0.000000, 0.000000, 0.000000, -21257.000000, 233.846146, 4.000000, 4.000000, 4.000000, 4.000000, 4.000000, 4.000000, 4.000000, 4.000000, 4.000000, 4.000000, 4.000000, 4.000000, 4.000000, 4.000000, 4.000000, 4.000000
3.000000, 0.000000, 4138.461426, 4200.000000, 4215.384277, 4213.333008, 4196.922852, 4196.922852, 4195.384277, 4191.281738, 4203.076660, 4229.743652, 4215.897461, 4199.487305, 4171.281738, 4221.025391, 2138.000000, 8274.000000, 8060.000000, 0.000000, 0.000000, 0.000000, -21257.000000, 242.051270, 4.000000, 4.000000, 4.000000, 4.000000, 4.000000, 4.000000, 4.000000, 4.000000, 4.000000, 4.000000, 4.000000, 4.000000, 4.000000, 4.000000, 4.000000, 4.000000
4.000000, 0.000000, 4137.948730, 4196.410156, 4218.974121, 4215.384277, 4201.025391, 4198.974121, 4197.436035, 4203.076660, 4204.615234, 4232.820313, 4220.512695, 4202.563965, 4170.256348, 4214.871582, 3534.000000, 8274.000000, 8060.000000, 0.000000, 0.000000, 0.000000, -21257.000000, 249.743576, 4.000000, 4.000000, 4.000000, 4.000000, 4.000000, 4.000000, 4.000000, 4.000000, 4.000000, 4.000000, 4.000000, 4.000000, 4.000000, 4.000000, 4.000000, 4.000000
5.000000, 0.000000, 4133.846191, 4190.256348, 4214.358887, 4204.615234, 4192.820313, 4198.461426, 4202.051270, 4200.000000, 4201.538574, 4219.487305, 4213.846191, 4198.461426, 4161.538574, 4213.333008, 3538.000000, 8262.000000, 8047.000000, 0.000000, 0.000000, 0.000000, -21257.000000, 257.948700, 4.000000, 4.000000, 4.000000, 4.000000, 4.000000, 4.000000, 4.000000, 4.000000, 4.000000, 4.000000, 4.000000, 4.000000, 4.000000, 4.000000, 4.000000, 4.000000
6.000000, 0.000000, 4136.410156, 4197.436035, 4214.871582, 4202.051270, 4194.871582, 4202.051270, 4208.205078, 4189.230469, 4201.538574, 4217.948730, 4212.307617, 4200.000000, 4161.538574, 4220.000000, 3089.000000, 8262.000000, 8047.000000, 0.000000, 0.000000, 0.000000, -21257.000000, 265.641022, 4.000000, 4.000000, 4.000000, 4.000000, 4.000000, 4.000000, 4.000000, 4.000000, 4.000000, 4.000000, 4.000000, 4.000000, 4.000000, 4.000000, 4.000000, 4.000000
7.000000, 0.000000, 4142.563965, 4201.538574, 4221.025391, 4208.205078, 4203.076660, 4204.102539, 4207.692383, 4198.974121, 4204.102539, 4237.436035, 4217.948730, 4203.589844, 4168.717773, 4213.846191, 3474.000000, 8244.000000, 8028.000000, 0.000000, 0.000000, 0.000000, -21257.000000, 273.333313, 4.000000, 4.000000, 4.000000, 4.000000, 4.000000, 4.000000, 4.000000, 4.000000, 4.000000, 4.000000, 4.000000, 4.000000, 4.000000, 4.000000, 4.000000, 4.000000
8.000000, 0.000000, 4137.948730, 4189.743652, 4215.384277, 4205.641113, 4201.025391, 4206.153809, 4208.717773, 4213.333008, 4209.743652, 4240.512695, 4217.436035, 4197.948730, 4170.256348, 4214.871582, 3483.000000, 8244.000000, 8028.000000, 0.000000, 0.000000, 0.000000, -21257.000000, 281.025635, 4.000000, 4.000000, 4.000000, 4.000000, 4.000000, 4.000000, 4.000000, 4.000000, 4.000000, 4.000000, 4.000000, 4.000000, 4.000000, 4.000000, 4.000000, 4.000000
9.000000, 0.000000, 4135.384277, 4183.076660, 4207.692383, 4199.487305, 4196.410156, 4215.897461, 4217.948730, 4208.717773, 4214.358887, 4228.717773, 4211.281738, 4192.307617, 4164.615234, 4218.461426, 3539.000000, 8237.000000, 8029.000000, 0.000000, 0.000000, 0.000000, -21257.000000, 289.230774, 4.000000, 4.000000, 4.000000, 4.000000, 4.000000, 4.000000, 4.000000, 4.000000, 4.000000, 4.000000, 4.000000, 4.000000, 4.000000, 4.000000, 4.000000, 4.000000
10.000000, 0.000000, 4142.051270, 4195.384277, 4215.897461, 4201.538574, 4202.563965, 4216.922852, 4218.461426, 4205.641113, 4215.384277, 4236.922852, 4213.846191, 4196.410156, 4168.717773, 4216.410156, 3544.000000, 8237.000000, 8029.000000, 0.000000, 0.000000, 0.000000, -21257.000000, 296.923065, 4.000000, 4.000000, 4.000000, 4.000000, 4.000000, 4.000000, 4.000000, 4.000000, 4.000000, 4.000000, 4.000000, 4.000000, 4.000000, 4.000000, 4.000000, 4.000000
11.000000, 0.000000, 4146.666504, 4201.025391, 4217.948730, 4207.179199, 4204.102539, 4209.230469, 4208.717773, 4211.281738, 4214.871582, 4248.717773, 4222.051270, 4198.461426, 4176.922852, 4218.974121, 664.000000, 8228.000000, 8034.000000, 0.000000, 0.000000, 0.000000, -21257.000000, 305.128204, 4.000000, 4.000000, 4.000000, 4.000000, 4.000000, 4.000000, 4.000000, 4.000000, 4.000000, 4.000000, 4.000000, 4.000000, 4.000000, 4.000000, 4.000000, 4.000000
12.000000, 0.000000, 4142.051270, 4187.692383, 4203.076660, 4199.487305, 4191.281738, 4209.230469, 4211.281738, 4207.692383, 4205.641113, 4230.769043, 4215.384277, 4188.205078, 4167.692383, 4210.769043, 3480.000000, 8228.000000, 8034.000000, 0.000000, 0.000000, 0.000000, -21257.000000, 312.820496, 4.000000, 4.000000, 4.000000, 4.000000, 4.000000, 4.000000, 4.000000, 4.000000, 4.000000, 4.000000, 4.000000, 4.000000, 4.000000, 4.000000, 4.000000, 4.000000
13.000000, 0.000000, 4128.205078, 4174.871582, 4194.871582, 4185.127930, 4181.538574, 4205.641113, 4218.974121, 4200.000000, 4186.666504, 4204.102539, 4196.410156, 4178.974121, 4144.615234, 4207.692383, 3410.000000, 8223.000000, 8044.000000, 0.000000, 0.000000, 0.000000, -21257.000000, 320.512817, 4.000000, 4.000000, 4.000000, 4.000000, 4.000000, 4.000000, 4.000000, 4.000000, 4.000000, 4.000000, 4.000000, 4.000000, 4.000000, 4.000000, 4.000000, 4.000000
14.000000, 0.000000, 4127.179199, 4171.794922, 4198.974121, 4180.000000, 4184.102539, 4198.974121, 4216.410156, 4207.179199, 4184.615234, 4202.051270, 4187.692383, 4177.948730, 4134.358887, 4211.794922, 3544.000000, 8223.000000, 8044.000000, 0.000000, 0.000000, 0.000000, -21257.000000, 328.717926, 4.000000, 4.000000, 4.000000, 4.000000, 4.000000, 4.000000, 4.000000, 4.000000, 4.000000, 4.000000, 4.000000, 4.000000, 4.000000, 4.000000, 4.000000, 4.000000
15.000000, 0.000000, 4137.948730, 4170.256348, 4206.666504, 4184.102539, 4185.641113, 4207.179199, 4218.974121, 4231.281738, 4211.794922, 4222.051270, 4201.025391, 4185.641113, 4147.692383, 4210.256348, 664.000000, 8227.000000, 8060.000000, 0.000000, 0.000000, 0.000000, -21257.000000, 336.410248, 4.000000, 4.000000, 4.000000, 4.000000, 4.000000, 4.000000, 4.000000, 4.000000, 4.000000, 4.000000, 4.000000, 4.000000, 4.000000, 4.000000, 4.000000, 4.000000
16.000000, 0.000000, 4142.051270, 4174.358887, 4212.307617, 4189.230469, 4184.615234, 4215.384277, 4226.153809, 4246.153809, 4231.794922, 4236.922852, 4217.948730, 4198.461426, 4160.512695, 4214.358887, 0.000000, 8227.000000, 8060.000000, 0.000000, 0.000000, 0.000000, -21257.000000, 344.102570, 4.000000, 4.000000, 4.000000, 4.000000, 4.000000, 4.000000, 4.000000, 4.000000, 4.000000, 4.000000, 4.000000, 4.000000, 4.000000, 4.000000, 4.000000, 4.000000
17.000000, 0.000000, 4146.153809, 4183.076660, 4208.717773, 4191.281738, 4185.641113, 4208.205078, 4220.000000, 4237.436035, 4225.641113, 4232.307617, 4215.384277, 4197.948730, 4157.436035, 4214.358887, 0.000000, 8242.000000, 8076.000000, 0.000000, 0.000000, 0.000000, -21257.000000, 352.307678, 4.000000, 4.000000, 4.000000, 4.000000, 4.000000, 4.000000, 4.000000, 4.000000, 4.000000, 4.000000, 4.000000, 4.000000, 4.000000, 4.000000, 4.000000, 4.000000
18.000000, 0.000000, 4153.333008, 4184.102539, 4200.512695, 4193.846191, 4185.127930, 4200.000000, 4210.769043, 4220.512695, 4212.307617, 4223.076660, 4205.641113, 4190.256348, 4155.384277, 4215.897461, 0.000000, 8242.000000, 8076.000000, 0.000000, 0.000000, 0.000000, -21257.000000, 360.000000, 4.000000, 4.000000, 4.000000, 4.000000, 4.000000, 4.000000, 4.000000, 4.000000, 4.000000, 4.000000, 4.000000, 4.000000, 4.000000, 4.000000, 4.000000, 4.000000
19.000000, 0.000000, 4158.461426, 4184.102539, 4200.512695, 4197.948730, 4185.127930, 4198.461426, 4206.666504, 4209.743652, 4205.641113, 4226.153809, 4205.641113, 4191.281738, 4158.974121, 4220.000000, 0.000000, 8249.000000, 8075.000000, 0.000000, 0.000000, 0.000000, -21257.000000, 368.205109, 4.000000, 4.000000, 4.000000, 4.000000, 4.000000, 4.000000, 4.000000, 4.000000, 4.000000, 4.000000, 4.000000, 4.000000, 4.000000, 4.000000, 4.000000, 4.000000
20.000000, 0.000000, 4160.000000, 4184.615234, 4205.641113, 4200.000000, 4189.230469, 4198.974121, 4204.615234, 4203.076660, 4209.743652, 4232.820313, 4213.333008, 4195.897461, 4164.615234, 4218.974121, 0.000000, 8249.000000, 8075.000000, 0.000000, 0.000000, 0.000000, -21257.000000, 375.897430, 4.000000, 4.000000, 4.000000, 4.000000, 4.000000, 4.000000, 4.000000, 4.000000, 4.000000, 4.000000, 4.000000, 4.000000, 4.000000, 4.000000, 4.000000, 4.000000
21.000000, 0.000000, 4155.897461, 4183.076660, 4203.589844, 4200.000000, 4193.846191, 4203.076660, 4211.281738, 4205.127930, 4217.436035, 4233.333008, 4216.410156, 4194.871582, 4168.205078, 4222.563965, 0.000000, 8260.000000, 8075.000000, 0.000000, 0.000000, 0.000000, -21257.000000, 383.589722, 4.000000, 4.000000, 4.000000, 4.000000, 4.000000, 4.000000, 4.000000, 4.000000, 4.000000, 4.000000, 4.000000, 4.000000, 4.000000, 4.000000, 4.000000, 4.000000
22.000000, 0.000000, 4157.948730, 4182.051270, 4200.512695, 4201.538574, 4197.436035, 4205.641113, 4218.974121, 4214.358887, 4217.436035, 4233.333008, 4213.333008, 4196.410156, 4168.717773, 4220.512695, 0.000000, 8260.000000, 8075.000000, 0.000000, 0.000000, 0.000000, -21257.000000, 391.794861, 4.000000, 4.000000, 4.000000, 4.000000, 4.000000, 4.000000, 4.000000, 4.000000, 4.000000, 4.000000, 4.000000, 4.000000, 4.000000, 4.000000, 4.000000, 4.000000
23.000000, 0.000000, 4163.076660, 4184.615234, 4205.641113, 4202.051270, 4197.948730, 4204.615234, 4217.436035, 4216.922852, 4217.436035, 4237.436035, 4216.922852, 4204.615234, 4169.743652, 4222.051270, 0.000000, 8279.000000, 8072.000000, 0.000000, 0.000000, 0.000000, -21257.000000, 399.487183, 4.000000, 4.000000, 4.000000, 4.000000, 4.000000, 4.000000, 4.000000, 4.000000, 4.000000, 4.000000, 4.000000, 4.000000, 4.000000, 4.000000, 4.000000, 4.000000
24.000000, 0.000000, 4166.153809, 4186.153809, 4212.307617, 4201.025391, 4198.974121, 4203.076660, 4214.358887, 4209.230469, 4216.410156, 4237.948730, 4216.922852, 4206.153809, 4171.281738, 4219.487305, 0.000000, 8279.000000, 8072.000000, 0.000000, 0.000000, 0.000000, -21257.000000, 407.692291, 4.000000, 4.000000, 4.000000, 4.000000, 4.000000, 4.000000, 4.000000, 4.000000, 4.000000, 4.000000, 4.000000, 4.000000, 4.000000, 4.000000, 4.000000, 4.000000
25.000000, 0.000000, 4171.281738, 4184.615234, 4212.307617, 4202.563965, 4200.000000, 4201.538574, 4210.769043, 4201.538574, 4203.076660, 4230.256348, 4207.692383, 4198.461426, 4168.717773, 4213.846191, 0.000000, 8285.000000, 8066.000000, 0.000000, 0.000000, 0.000000, -21257.000000, 415.384613, 4.000000, 4.000000, 4.000000, 4.000000, 4.000000, 4.000000, 4.000000, 4.000000, 4.000000, 4.000000, 4.000000, 4.000000, 4.000000, 4.000000, 4.000000, 4.000000
26.000000, 0.000000, 4172.820313, 4182.563965, 4210.256348, 4203.076660, 4192.820313, 4202.563965, 4206.666504, 4197.948730, 4192.820313, 4228.205078, 4203.076660, 4191.281738, 4165.641113, 4220.000000, 0.000000, 8285.000000, 8066.000000, 0.000000, 0.000000, 0.000000, -21257.000000, 423.076904, 4.000000, 4.000000, 4.000000, 4.000000, 4.000000, 4.000000, 4.000000, 4.000000, 4.000000, 4.000000, 4.000000, 4.000000, 4.000000, 4.000000, 4.000000, 4.000000
27.000000, 0.000000, 4174.871582, 4182.051270, 4212.307617, 4203.076660, 4188.717773, 4204.102539, 4212.307617, 4198.974121, 4197.436035, 4226.153809, 4208.717773, 4193.846191, 4165.641113, 4215.897461, 0.000000, 8283.000000, 8048.000000, 0.000000, 0.000000, 0.000000, -21257.000000, 431.282043, 4.000000, 4.000000, 4.000000, 4.000000, 4.000000, 4.000000, 4.000000, 4.000000, 4.000000, 4.000000, 4.000000, 4.000000, 4.000000, 4.000000, 4.000000, 4.000000
28.000000, 0.000000, 4178.974121, 4186.666504, 4215.384277, 4203.076660, 4197.948730, 4205.641113, 4219.487305, 4198.974121, 4200.512695, 4219.487305, 4217.948730, 4204.615234, 4173.846191, 4211.281738, 0.000000, 8283.000000, 8048.000000, 0.000000, 0.000000, 0.000000, -21257.000000, 438.974335, 4.000000, 4.000000, 4.000000, 4.000000, 4.000000, 4.000000, 4.000000, 4.000000, 4.000000, 4.000000, 4.000000, 4.000000, 4.000000, 4.000000, 4.000000, 4.000000
29.000000, 0.000000, 4178.974121, 4188.205078, 4213.333008, 4201.025391, 4198.461426, 4208.205078, 4216.410156, 4197.948730, 4200.000000, 4217.436035, 4213.846191, 4202.563965, 4170.769043, 4213.846191, 0.000000, 8280.000000, 8051.000000, 0.000000, 0.000000, 0.000000, -21257.000000, 446.666656, 4.000000, 4.000000, 4.000000, 4.000000, 4.000000, 4.000000, 4.000000, 4.000000, 4.000000, 4.000000, 4.000000, 4.000000, 4.000000, 4.000000, 4.000000, 4.000000
30.000000, 0.000000, 4171.281738, 4178.974121, 4205.641113, 4200.000000, 4188.205078, 4208.205078, 4213.846191, 4193.846191, 4197.948730, 4218.461426, 4194.358887, 4185.641113, 4146.666504, 4207.179199, 0.000000, 8280.000000, 8051.000000, 0.000000, 0.000000, 0.000000, -21257.000000, 454.358978, 4.000000, 4.000000, 4.000000, 4.000000, 4.000000, 4.000000, 4.000000, 4.000000, 4.000000, 4.000000, 4.000000, 4.000000, 4.000000, 4.000000, 4.000000, 4.000000
31.000000, 0.000000, 4164.102539, 4175.384277, 4204.615234, 4198.461426, 4184.615234, 4202.051270, 4210.256348, 4187.179199, 4188.717773, 4213.846191, 4189.230469, 4179.487305, 4142.563965, 4208.205078, 0.000000, 8257.000000, 8071.000000, 0.000000, 0.000000, 0.000000, -21257.000000, 462.564087, 4.000000, 4.000000, 4.000000, 4.000000, 4.000000, 4.000000, 4.000000, 4.000000, 4.000000, 4.000000, 4.000000, 4.000000, 4.000000, 4.000000, 4.000000, 4.000000
32.000000, 0.000000, 4172.820313, 4179.487305, 4207.179199, 4193.333008, 4187.179199, 4197.436035, 4201.025391, 4185.127930, 4182.051270, 4212.820313, 4203.589844, 4182.563965, 4166.666504, 4210.256348, 0.000000, 8257.000000, 8071.000000, 0.000000, 0.000000, 0.000000, -21257.000000, 470.256409, 4.000000, 4.000000, 4.000000, 4.000000, 4.000000, 4.000000, 4.000000, 4.000000, 4.000000, 4.000000, 4.000000, 4.000000, 4.000000, 4.000000, 4.000000, 4.000000
33.000000, 0.000000, 4179.487305, 4176.922852, 4202.051270, 4188.205078, 4184.615234, 4196.410156, 4202.563965, 4187.179199, 4185.127930, 4218.974121, 4211.794922, 4184.615234, 4180.512695, 4208.205078, 0.000000, 8248.000000, 8086.000000, 0.000000, 0.000000, 0.000000, -21257.000000, 478.461517, 4.000000, 4.000000, 4.000000, 4.000000, 4.000000, 4.000000, 4.000000, 4.000000, 4.000000, 4.000000, 4.000000, 4.000000, 4.000000, 4.000000, 4.000000, 4.000000
34.000000, 0.000000, 4170.256348, 4168.205078, 4200.000000, 4182.563965, 4177.948730, 4191.794922, 4205.127930, 4185.641113, 4186.666504, 4212.820313, 4205.127930, 4183.589844, 4172.820313, 4207.692383, 0.000000, 8248.000000, 8086.000000, 0.000000, 0.000000, 0.000000, -21257.000000, 486.153839, 4.000000, 4.000000, 4.000000, 4.000000, 4.000000, 4.000000, 4.000000, 4.000000, 4.000000, 4.000000, 4.000000, 4.000000, 4.000000, 4.000000, 4.000000, 4.000000
35.000000, 0.000000, 4171.794922, 4163.076660, 4199.487305, 4176.410156, 4170.769043, 4187.692383, 4195.384277, 4184.102539, 4183.589844, 4206.666504, 4204.102539, 4180.000000, 4172.307617, 4202.051270, 0.000000, 8235.000000, 8107.000000, 0.000000, 0.000000, 0.000000, -21257.000000, 493.846130, 4.000000, 4.000000, 4.000000, 4.000000, 4.000000, 4.000000, 4.000000, 4.000000, 4.000000, 4.000000, 4.000000, 4.000000, 4.000000, 4.000000, 4.000000, 4.000000
36.000000, 0.000000, 4180.000000, 4159.487305, 4190.256348, 4172.307617, 4166.666504, 4185.127930, 4190.769043, 4184.615234, 4185.127930, 4214.358887, 4210.769043, 4180.512695, 4182.563965, 4207.179199, 0.000000, 8235.000000, 8107.000000, 0.000000, 0.000000, 0.000000, -21257.000000, 501.538452, 4.000000, 4.000000, 4.000000, 4.000000, 4.000000, 4.000000, 4.000000, 4.000000, 4.000000, 4.000000, 4.000000, 4.000000, 4.000000, 4.000000, 4.000000, 4.000000
37.000000, 0.000000, 4176.922852, 4155.897461, 4184.615234, 4172.307617, 4171.281738, 4182.563965, 4196.922852, 4183.589844, 4187.179199, 4217.948730, 4213.333008, 4181.025391, 4181.025391, 4206.666504, 0.000000, 8216.000000, 8146.000000, 0.000000, 0.000000, 0.000000, -21257.000000, 509.743591, 4.000000, 4.000000, 4.000000, 4.000000, 4.000000, 4.000000, 4.000000, 4.000000, 4.000000, 4.000000, 4.000000, 4.000000, 4.000000, 4.000000, 4.000000, 4.000000
38.000000, 0.000000, 4173.333008, 4155.384277, 4188.717773, 4174.358887, 4179.487305, 4189.743652, 4202.563965, 4187.692383, 4187.179199, 4213.846191, 4213.333008, 4175.897461, 4173.333008, 4201.538574, 0.000000, 8216.000000, 8146.000000, 0.000000, 0.000000, 0.000000, -21257.000000, 517.435913, 4.000000, 4.000000, 4.000000, 4.000000, 4.000000, 4.000000, 4.000000, 4.000000, 4.000000, 4.000000, 4.000000, 4.000000, 4.000000, 4.000000, 4.000000, 4.000000
39.000000, 0.000000, 4176.922852, 4154.358887, 4187.179199, 4171.281738, 4178.974121, 4198.974121, 4198.974121, 4195.897461, 4191.281738, 4215.897461, 4213.846191, 4174.871582, 4174.871582, 4205.641113, 0.000000, 8206.000000, 8169.000000, 0.000000, 0.000000, 0.000000, -21257.000000, 525.640991, 4.000000, 4.000000, 4.000000, 4.000000, 4.000000, 4.000000, 4.000000, 4.000000, 4.000000, 4.000000, 4.000000, 4.000000, 4.000000, 4.000000, 4.000000, 4.000000
40.000000, 0.000000, 4180.512695, 4153.846191, 4186.153809, 4172.307617, 4175.384277, 4196.410156, 4197.436035, 4202.563965, 4201.538574, 4221.025391, 4215.897461, 4178.974121, 4180.512695, 4200.000000, 0.000000, 8206.000000, 8169.000000, 0.000000, 0.000000, 0.000000, -21257.000000, 533.333313, 4.000000, 4.000000, 4.000000, 4.000000, 4.000000, 4.000000, 4.000000, 4.000000, 4.000000, 4.000000, 4.000000, 4.000000, 4.000000, 4.000000, 4.000000, 4.000000
41.000000, 0.000000, 4177.436035, 4155.897461, 4192.307617, 4181.538574, 4176.410156, 4195.384277, 4208.717773, 4207.692383, 4211.794922, 4218.974121, 4213.846191, 4181.025391, 4179.487305, 4203.589844, 0.000000, 8210.000000, 8201.000000, 0.000000, 0.000000, 0.000000, -21257.000000, 541.538452, 4.000000, 4.000000, 4.000000, 4.000000, 4.000000, 4.000000, 4.000000, 4.000000, 4.000000, 4.000000, 4.000000, 4.000000, 4.000000, 4.000000, 4.000000, 4.000000
42.000000, 0.000000, 4178.461426, 4157.948730, 4197.948730, 4188.205078, 4182.563965, 4208.205078, 4218.461426, 4212.820313, 4214.358887, 4220.000000, 4213.846191, 4183.589844, 4178.974121, 4209.230469, 0.000000, 8210.000000, 8201.000000, 0.000000, 0.000000, 0.000000, -21257.000000, 549.230774, 4.000000, 4.000000, 4.000000, 4.000000, 4.000000, 4.000000, 4.000000, 4.000000, 4.000000, 4.000000, 4.000000, 4.000000, 4.000000, 4.000000, 4.000000, 4.000000
43.000000, 0.000000, 4185.127930, 4161.538574, 4200.000000, 4188.717773, 4193.846191, 4214.871582, 4218.461426, 4220.000000, 4211.794922, 4229.743652, 4221.538574, 4191.281738, 4188.205078, 4204.615234, 0.000000, 8213.000000, 8215.000000, 0.000000, 0.000000, 0.000000, -21257.000000, 556.923035, 4.000000, 4.000000, 4.000000, 4.000000, 4.000000, 4.000000, 4.000000, 4.000000, 4.000000, 4.000000, 4.000000, 4.000000, 4.000000, 4.000000, 4.000000, 4.000000
44.000000, 0.000000, 4182.051270, 4160.512695, 4200.512695, 4188.205078, 4196.410156, 4207.179199, 4217.948730, 4214.871582, 4202.051270, 4227.692383, 4221.538574, 4195.897461, 4185.641113, 4206.153809, 0.000000, 8213.000000, 8215.000000, 0.000000, 0.000000, 0.000000, -21257.000000, 564.615356, 4.000000, 4.000000, 4.000000, 4.000000, 4.000000, 4.000000, 4.000000, 4.000000, 4.000000, 4.000000, 4.000000, 4.000000, 4.000000, 4.000000, 4.000000, 4.000000
45.000000, 0.000000, 4178.461426, 4156.922852, 4198.461426, 4187.179199, 4188.717773, 4203.076660, 4216.410156, 4199.487305, 4193.333008, 4213.846191, 4212.307617, 4191.794922, 4175.384277, 4203.589844, 0.000000, 8212.000000, 8233.000000, 0.000000, 0.000000, 0.000000, -21257.000000, 572.820496, 4.000000, 4.000000, 4.000000, 4.000000, 4.000000, 4.000000, 4.000000, 4.000000, 4.000000, 4.000000, 4.000000, 4.000000, 4.000000, 4.000000, 4.000000, 4.000000
46.000000, 0.000000, 4181.538574, 4162.051270, 4201.025391, 4188.205078, 4188.205078, 4202.563965, 4207.692383, 4201.538574, 4196.410156, 4210.769043, 4210.769043, 4188.717773, 4177.436035, 4206.666504, 0.000000, 8212.000000, 8233.000000, 0.000000, 0.000000, 0.000000, -21257.000000, 581.025635, 4.000000, 4.000000, 4.000000, 4.000000, 4.000000, 4.000000, 4.000000, 4.000000, 4.000000, 4.000000, 4.000000, 4.000000, 4.000000, 4.000000, 4.000000, 4.000000
47.000000, 0.000000, 4180.512695, 4164.615234, 4197.948730, 4190.256348, 4191.794922, 4201.538574, 4205.641113, 4213.846191, 4201.025391, 4219.487305, 4216.922852, 4188.717773, 4180.000000, 4205.641113, 0.000000, 8218.000000, 8254.000000, 0.000000, 0.000000, 0.000000, -21257.000000, 588.717957, 4.000000, 4.000000, 4.000000, 4.000000, 4.000000, 4.000000, 4.000000, 4.000000, 4.000000, 4.000000, 4.000000, 4.000000, 4.000000, 4.000000, 4.000000, 4.000000
48.000000, 0.000000, 4175.384277, 4157.436035, 4190.256348, 4186.666504, 4187.179199, 4209.743652, 4213.846191, 4215.897461, 4203.076660, 4221.025391, 4218.974121, 4189.743652, 4177.436035, 4200.000000, 0.000000, 8218.000000, 8254.000000, 0.000000, 0.000000, 0.000000, -21257.000000, 596.410217, 4.000000, 4.000000, 4.000000, 4.000000, 4.000000, 4.000000, 4.000000, 4.000000, 4.000000, 4.000000, 4.000000, 4.000000, 4.000000, 4.000000, 4.000000, 4.000000
49.000000, 0.000000, 4169.743652, 4152.820313, 4191.794922, 4186.153809, 4187.179199, 4218.461426, 4218.461426, 4213.333008, 4202.563965, 4215.897461, 4217.436035, 4188.205078, 4175.897461, 4208.205078, 0.000000, 8221.000000, 8268.000000, 0.000000, 0.000000, 0.000000, -21257.000000, 604.615356, 4.000000, 4.000000, 4.000000, 4.000000, 4.000000, 4.000000, 4.000000, 4.000000, 4.000000, 4.000000, 4.000000, 4.000000, 4.000000, 4.000000, 4.000000, 4.000000
50.000000, 0.000000, 4167.692383, 4153.333008, 4191.794922, 4189.230469, 4190.769043, 4209.743652, 4216.922852, 4213.846191, 4201.538574, 4212.820313, 4213.846191, 4184.615234, 4174.358887, 4206.666504, 0.000000, 8221.000000, 8268.000000, 0.000000, 0.000000, 0.000000, -21257.000000, 612.307678, 4.000000, 4.000000, 4.000000, 4.000000, 4.000000, 4.000000, 4.000000, 4.000000, 4.000000, 4.000000, 4.000000, 4.000000, 4.000000, 4.000000, 4.000000, 4.000000
51.000000, 0.000000, 4168.717773, 4155.384277, 4184.102539, 4186.153809, 4184.102539, 4201.538574, 4214.358887, 4214.358887, 4207.179199, 4219.487305, 4209.230469, 4184.615234, 4175.384277, 4205.641113, 0.000000, 8228.000000, 8290.000000, 0.000000, 0.000000, 0.000000, -21257.000000, 620.512817, 4.000000, 4.000000, 4.000000, 4.000000, 4.000000, 4.000000, 4.000000, 4.000000, 4.000000, 4.000000, 4.000000, 4.000000, 4.000000, 4.000000, 4.000000, 4.000000
52.000000, 0.000000, 4171.794922, 4162.051270, 4187.179199, 4184.102539, 4183.076660, 4212.820313, 4223.589844, 4217.436035, 4215.897461, 4230.256348, 4210.256348, 4186.153809, 4178.974121, 4211.281738, 0.000000, 8228.000000, 8290.000000, 0.000000, 0.000000, 0.000000, -21257.000000, 628.205139, 4.000000, 4.000000, 4.000000, 4.000000, 4.000000, 4.000000, 4.000000, 4.000000, 4.000000, 4.000000, 4.000000, 4.000000, 4.000000, 4.000000, 4.000000, 4.000000
53.000000, 0.000000, 4176.410156, 4167.692383, 4198.974121, 4191.281738, 4192.307617, 4220.512695, 4232.307617, 4220.000000, 4217.436035, 4233.333008, 4215.897461, 4188.717773, 4178.461426, 4211.281738, 0.000000, 8232.000000, 8292.000000, 0.000000, 0.000000, 0.000000, -21257.000000, 635.897400, 4.000000, 4.000000, 4.000000, 4.000000, 4.000000, 4.000000, 4.000000, 4.000000, 4.000000, 4.000000, 4.000000, 4.000000, 4.000000, 4.000000, 4.000000, 4.000000
54.000000, 0.000000, 4175.897461, 4169.230469, 4199.487305, 4197.948730, 4191.794922, 4211.281738, 4223.076660, 4217.436035, 4213.846191, 4229.743652, 4215.897461, 4187.179199, 4177.436035, 4212.307617, 0.000000, 8232.000000, 8292.000000, 0.000000, 0.000000, 0.000000, -21257.000000, 643.589722, 4.000000, 4.000000, 4.000000, 4.000000, 4.000000, 4.000000, 4.000000, 4.000000, 4.000000, 4.000000, 4.000000, 4.000000, 4.000000, 4.000000, 4.000000, 4.000000
55.000000, 0.000000, 4177.436035, 4171.281738, 4196.410156, 4198.974121, 4184.615234, 4207.692383, 4210.769043, 4216.410156, 4213.333008, 4232.307617, 4214.871582, 4181.025391, 4183.076660, 4208.205078, 0.000000, 8230.000000, 8280.000000, 0.000000, 0.000000, 0.000000, -21257.000000, 651.794861, 4.000000, 4.000000, 4.000000, 4.000000, 4.000000, 4.000000, 4.000000, 4.000000, 4.000000, 4.000000, 4.000000, 4.000000, 4.000000, 4.000000, 4.000000, 4.000000
56.000000, 0.000000, 4177.948730, 4172.307617, 4200.000000, 4198.461426, 4189.743652, 4215.897461, 4219.487305, 4216.922852, 4215.897461, 4233.846191, 4215.384277, 4184.102539, 4187.692383, 4211.794922, 0.000000, 8230.000000, 8280.000000, 0.000000, 0.000000, 0.000000, -21257.000000, 659.487183, 4.000000, 4.000000, 4.000000, 4.000000, 4.000000, 4.000000, 4.000000, 4.000000, 4.000000, 4.000000, 4.000000, 4.000000, 4.000000, 4.000000, 4.000000, 4.000000
57.000000, 0.000000, 4178.974121, 4175.384277, 4207.692383, 4201.538574, 4202.051270, 4216.922852, 4227.692383, 4218.974121, 4225.127930, 4231.281738, 4221.025391, 4196.922852, 4187.692383, 4219.487305, 0.000000, 8240.000000, 8267.000000, 0.000000, 0.000000, 0.000000, -21257.000000, 667.692322, 4.000000, 4.000000, 4.000000, 4.000000, 4.000000, 4.000000, 4.000000, 4.000000, 4.000000, 4.000000, 4.000000, 4.000000, 4.000000, 4.000000, 4.000000, 4.000000
58.000000, 0.000000, 4186.153809, 4184.102539, 4215.384277, 4208.717773, 4205.127930, 4211.281738, 4217.436035, 4227.692383, 4237.436035, 4241.025391, 4232.307617, 4203.076660, 4191.281738, 4218.461426, 0.000000, 8240.000000, 8267.000000, 0.000000, 0.000000, 0.000000, -21257.000000, 675.384583, 4.000000, 4.000000, 4.000000, 4.000000, 4.000000, 4.000000, 4.000000, 4.000000, 4.000000, 4.000000, 4.000000, 4.000000, 4.000000, 4.000000, 4.000000, 4.000000
59.000000, 0.000000, 4181.538574, 4187.179199, 4216.410156, 4210.769043, 4200.512695, 4215.384277, 4216.922852, 4231.281738, 4239.487305, 4249.230469, 4232.820313, 4203.076660, 4191.281738, 4222.563965, 0.000000, 8236.000000, 8251.000000, 0.000000, 0.000000, 0.000000, -21257.000000, 683.589722, 4.000000, 4.000000, 4.000000, 4.000000, 4.000000, 4.000000, 4.000000, 4.000000, 4.000000, 4.000000, 4.000000, 4.000000, 4.000000, 4.000000, 4.000000, 4.000000
60.000000, 0.000000, 4175.384277, 4177.948730, 4216.410156, 4211.281738, 4203.589844, 4220.000000, 4224.615234, 4223.076660, 4235.384277, 4240.000000, 4225.641113, 4207.179199, 4190.769043, 4221.025391, 0.000000, 8236.000000, 8251.000000, 0.000000, 0.000000, 0.000000, -21257.000000, 691.282043, 4.000000, 4.000000, 4.000000, 4.000000, 4.000000, 4.000000, 4.000000, 4.000000, 4.000000, 4.000000, 4.000000, 4.000000, 4.000000, 4.000000, 4.000000, 4.000000
61.000000, 0.000000, 4174.871582, 4177.436035, 4221.025391, 4213.333008, 4202.563965, 4216.410156, 4223.589844, 4218.461426, 4236.922852, 4233.333008, 4230.256348, 4208.717773, 4191.794922, 4218.461426, 0.000000, 8239.000000, 8237.000000, 0.000000, 0.000000, 0.000000, -21257.000000, 698.974365, 4.000000, 4.000000, 4.000000, 4.000000, 4.000000, 4.000000, 4.000000, 4.000000, 4.000000, 4.000000, 4.000000, 4.000000, 4.000000, 4.000000, 4.000000, 4.000000
62.000000, 0.000000, 4166.666504, 4181.538574, 4215.384277, 4208.205078, 4187.179199, 4215.897461, 4217.948730, 4215.897461, 4231.281738, 4234.871582, 4231.794922, 4201.538574, 4188.205078, 4215.897461, 0.000000, 8239.000000, 8237.000000, 0.000000, 0.000000, 0.000000, -21257.000000, 707.179443, 4.000000, 4.000000, 4.000000, 4.000000, 4.000000, 4.000000, 4.000000, 4.000000, 4.000000, 4.000000, 4.000000, 4.000000, 4.000000, 4.000000, 4.000000, 4.000000
63.000000, 0.000000, 4162.563965, 4178.461426, 4202.563965, 4202.563965, 4188.205078, 4213.333008, 4212.820313, 4207.692383, 4216.410156, 4232.307617, 4222.051270, 4195.384277, 4184.102539, 4214.871582, 0.000000, 8230.000000, 8223.000000, 0.000000, 0.000000, 0.000000, -21257.000000, 714.871765, 4.000000, 4.000000, 4.000000, 4.000000, 4.000000, 4.000000, 4.000000, 4.000000, 4.000000, 4.000000, 4.000000, 4.000000, 4.000000, 4.000000, 4.000000, 4.000000
64.000000, 0.000000, 4162.051270, 4177.436035, 4198.974121, 4200.000000, 4198.974121, 4205.127930, 4210.256348, 4204.102539, 4212.820313, 4228.717773, 4220.000000, 4197.948730, 4184.102539, 4222.051270, 3357.000000, 8230.000000, 8223.000000, 0.000000, 0.000000, 0.000000, -21257.000000, 722.564087, 4.000000, 4.000000, 4.000000, 4.000000, 4.000000, 4.000000, 4.000000, 4.000000, 4.000000, 4.000000, 4.000000, 4.000000, 4.000000, 4.000000, 4.000000, 4.000000
65.000000, 0.000000, 4160.000000, 4179.487305, 4203.076660, 4194.358887, 4193.846191, 4202.563965, 4216.410156, 4206.153809, 4219.487305, 4227.179199, 4224.102539, 4199.487305, 4183.076660, 4216.922852, 3509.000000, 8217.000000, 8204.000000, 0.000000, 0.000000, 0.000000, -21257.000000, 730.769226, 4.000000, 4.000000, 4.000000, 4.000000, 4.000000, 4.000000, 4.000000, 4.000000, 4.000000, 4.000000, 4.000000, 4.000000, 4.000000, 4.000000, 4.000000, 4.000000
66.000000, 0.000000, 4158.461426, 4177.948730, 4202.563965, 4191.281738, 4188.717773, 4204.615234, 4219.487305, 4203.076660, 4214.871582, 4225.127930, 4218.974121, 4195.897461, 4176.922852, 4215.384277, 2579.000000, 8217.000000, 8204.000000, 0.000000, 0.000000, 0.000000, -21257.000000, 738.461548, 4.000000, 4.000000, 4.000000, 4.000000, 4.000000, 4.000000, 4.000000, 4.000000, 4.000000, 4.000000, 4.000000, 4.000000, 4.000000, 4.000000, 4.000000, 4.000000
67.000000, 0.000000, 4160.000000, 4181.538574, 4198.461426, 4197.948730, 4196.922852, 4198.974121, 4203.589844, 4197.436035, 4210.769043, 4229.230469, 4214.871582, 4194.358887, 4179.487305, 4218.974121, 2140.000000, 8209.000000, 8191.000000, 0.000000, 0.000000, 0.000000, -21257.000000, 746.666626, 4.000000, 4.000000, 4.000000, 4.000000, 4.000000, 4.000000, 4.000000, 4.000000, 4.000000, 4.000000, 4.000000, 4.000000, 4.000000, 4.000000, 4.000000, 4.000000
68.000000, 0.000000, 4169.230469, 4191.794922, 4205.127930, 4202.563965, 4199.487305, 4196.410156, 4194.358887, 4201.025391, 4223.076660, 4234.871582, 4223.076660, 4197.948730, 4187.692383, 4216.410156, 3533.000000, 8209.000000, 8191.000000, 0.000000, 0.000000, 0.000000, -21257.000000, 754.358948, 4.000000, 4.000000, 4.000000, 4.000000, 4.000000, 4.000000, 4.000000, 4.000000, 4.000000, 4.000000, 4.000000, 4.000000, 4.000000, 4.000000, 4.000000, 4.000000
69.000000, 0.000000, 4170.256348, 4191.281738, 4217.436035, 4202.051270, 4198.461426, 4208.205078, 4213.333008, 4211.794922, 4235.897461, 4235.897461, 4229.230469, 4207.692383, 4185.127930, 4218.974121, 3543.000000, 8206.000000, 8179.000000, 0.000000, 0.000000, 0.000000, -21257.000000, 762.564087, 4.000000, 4.000000, 4.000000, 4.000000, 4.000000, 4.000000, 4.000000, 4.000000, 4.000000, 4.000000, 4.000000, 4.000000, 4.000000, 4.000000, 4.000000, 4.000000
70.000000, 0.000000, 4169.230469, 4186.666504, 4218.974121, 4205.641113, 4201.538574, 4215.897461, 4224.615234, 4215.897461, 4232.820313, 4236.922852, 4230.256348, 4210.256348, 4187.179199, 4216.410156, 3127.000000, 8206.000000, 8179.000000, 0.000000, 0.000000, 0.000000, -21257.000000, 770.256409, 4.000000, 4.000000, 4.000000, 4.000000, 4.000000, 4.000000, 4.000000, 4.000000, 4.000000, 4.000000, 4.000000, 4.000000, 4.000000, 4.000000, 4.000000, 4.000000
71.000000, 0.000000, 4173.846191, 4191.281738, 4208.717773, 4206.666504, 4201.538574, 4206.153809, 4208.717773, 4208.205078, 4222.563965, 4237.948730, 4233.846191, 4201.025391, 4201.538574, 4215.897461, 3508.000000, 8187.000000, 8150.000000, 0.000000, 0.000000, 0.000000, -21257.000000, 777.948669, 4.000000, 4.000000, 4.000000, 4.000000, 4.000000, 4.000000, 4.000000, 4.000000, 4.000000, 4.000000, 4.000000, 4.000000, 4.000000, 4.000000, 4.000000, 4.000000
72.000000, 0.000000, 4168.205078, 4190.256348, 4202.051270, 4203.589844, 4201.538574, 4199.487305, 4202.563965, 4204.615234, 4218.974121, 4234.358887, 4230.769043, 4197.436035, 4206.666504, 4215.897461, 3514.000000, 8187.000000, 8150.000000, 0.000000, 0.000000, 0.000000, -21257.000000, 785.640991, 4.000000, 4.000000, 4.000000, 4.000000, 4.000000, 4.000000, 4.000000, 4.000000, 4.000000, 4.000000, 4.000000, 4.000000, 4.000000, 4.000000, 4.000000, 4.000000
73.000000, 0.000000, 4164.615234, 4185.641113, 4201.538574, 4201.025391, 4196.410156, 4205.641113, 4216.410156, 4209.743652, 4222.563965, 4230.769043, 4220.512695, 4196.922852, 4194.871582, 4207.692383, 3539.000000, 8178.000000, 8129.000000, 0.000000, 0.000000, 0.000000, -21257.000000, 793.846130, 4.000000, 4.000000, 4.000000, 4.000000, 4.000000, 4.000000, 4.000000, 4.000000, 4.000000, 4.000000, 4.000000, 4.000000, 4.000000, 4.000000, 4.000000, 4.000000
74.000000, 0.000000, 4169.230469, 4186.153809, 4200.000000, 4197.948730, 4191.281738, 4203.589844, 4211.281738, 4206.153809, 4224.102539, 4231.281738, 4216.922852, 4193.333008, 4188.205078, 4210.769043, 3544.000000, 8178.000000, 8129.000000, 0.000000, 0.000000, 0.000000, -21257.000000, 801.538452, 4.000000, 4.000000, 4.000000, 4.000000, 4.000000, 4.000000, 4.000000, 4.000000, 4.000000, 4.000000, 4.000000, 4.000000, 4.000000, 4.000000, 4.000000, 4.000000
75.000000, 0.000000, 4175.384277, 4188.205078, 4200.000000, 4203.076660, 4198.461426, 4195.384277, 4194.871582, 4198.461426, 4219.487305, 4233.333008, 4222.563965, 4195.897461, 4192.307617, 4211.794922, 664.000000, 8162.000000, 8097.000000, 0.000000, 0.000000, 0.000000, -21257.000000, 809.743591, 4.000000, 4.000000, 4.000000, 4.000000, 4.000000, 4.000000, 4.000000, 4.000000, 4.000000, 4.000000, 4.000000, 4.000000, 4.000000, 4.000000, 4.000000, 4.000000
76.000000, 0.000000, 4174.358887, 4188.205078, 4201.025391, 4209.230469, 4202.051270, 4197.436035, 4203.076660, 4201.025391, 4217.948730, 4234.358887, 4222.051270, 4199.487305, 4196.410156, 4208.205078, 3480.000000, 8162.000000, 8097.000000, 0.000000, 0.000000, 0.000000, -21257.000000, 817.435852, 4.000000, 4.000000, 4.000000, 4.000000, 4.000000, 4.000000, 4.000000, 4.000000, 4.000000, 4.000000, 4.000000, 4.000000, 4.000000, 4.000000, 4.000000, 4.000000
77.000000, 0.000000, 4169.230469, 4185.641113, 4197.436035, 4204.615234, 4196.922852, 4202.563965, 4218.974121, 4212.820313, 4222.051270, 4232.820313, 4216.922852, 4193.333008, 4192.820313, 4213.333008, 3411.000000, 8156.000000, 8080.000000, 0.000000, 0.000000, 0.000000, -21257.000000, 825.128174, 4.000000, 4.000000, 4.000000, 4.000000, 4.000000, 4.000000, 4.000000, 4.000000, 4.000000, 4.000000, 4.000000, 4.000000, 4.000000, 4.000000, 4.000000, 4.000000
78.000000, 0.000000, 4177.436035, 4185.641113, 4198.974121, 4201.538574, 4198.974121, 4204.615234, 4220.000000, 4214.871582, 4223.589844, 4234.358887, 4216.410156, 4193.846191, 4188.205078, 4214.871582, 3544.000000, 8156.000000, 8080.000000, 0.000000, 0.000000, 0.000000, -21257.000000, 832.820496, 4.000000, 4.000000, 4.000000, 4.000000, 4.000000, 4.000000, 4.000000, 4.000000, 4.000000, 4.000000, 4.000000, 4.000000, 4.000000, 4.000000, 4.000000, 4.000000
79.000000, 0.000000, 4185.641113, 4193.846191, 4207.692383, 4206.666504, 4202.563965, 4202.563965, 4217.436035, 4205.127930, 4220.000000, 4236.922852, 4217.436035, 4204.102539, 4193.846191, 4214.871582, 664.000000, 8155.000000, 8070.000000, 0.000000, 0.000000, 0.000000, -21257.000000, 841.025635, 4.000000, 4.000000, 4.000000, 4.000000, 4.000000, 4.000000, 4.000000, 4.000000, 4.000000, 4.000000, 4.000000, 4.000000, 4.000000, 4.000000, 4.000000, 4.000000
80.000000, 0.000000, 4188.717773, 4198.461426, 4213.333008, 4210.256348, 4199.487305, 4200.512695, 4213.333008, 4202.563965, 4215.897461, 4233.846191, 4215.384277, 4202.563965, 4196.410156, 4214.871582, 3480.000000, 8155.000000, 8070.000000, 0.000000, 0.000000, 0.000000, -21257.000000, 848.717957, 4.000000, 4.000000, 4.000000, 4.000000, 4.000000, 4.000000, 4.000000, 4.000000, 4.000000, 4.000000, 4.000000, 4.000000, 4.000000, 4.000000, 4.000000, 4.000000
81.000000, 0.000000, 4195.384277, 4196.922852, 4214.358887, 4212.307617, 4200.000000, 4208.205078, 4213.333008, 4211.794922, 4218.461426, 4231.281738, 4216.922852, 4196.922852, 4190.256348, 4216.410156, 3411.000000, 8145.000000, 8043.000000, 0.000000, 0.000000, 0.000000, -21257.000000, 856.923035, 4.000000, 4.000000, 4.000000, 4.000000, 4.000000, 4.000000, 4.000000, 4.000000, 4.000000, 4.000000, 4.000000, 4.000000, 4.000000, 4.000000, 4.000000, 4.000000
82.000000, 0.000000, 4201.025391, 4197.436035, 4216.410156, 4216.922852, 4203.589844, 4213.846191, 4226.666504, 4217.948730, 4224.615234, 4231.794922, 4222.563965, 4204.102539, 4193.333008, 4222.051270, 3544.000000, 8145.000000, 8043.000000, 0.000000, 0.000000, 0.000000, -21257.000000, 864.615356, 4.000000, 4.000000, 4.000000, 4.000000, 4.000000, 4.000000, 4.000000, 4.000000, 4.000000, 4.000000, 4.000000, 4.000000, 4.000000, 4.000000, 4.000000, 4.000000
83.000000, 0.000000, 4207.692383, 4202.563965, 4218.461426, 4217.948730, 4202.563965, 4207.179199, 4225.641113, 4217.948730, 4230.256348, 4231.794922, 4220.512695, 4210.769043, 4201.025391, 4220.000000, 664.000000, 8140.000000, 8034.000000, 0.000000, 0.000000, 0.000000, -21257.000000, 872.307678, 4.000000, 4.000000, 4.000000, 4.000000, 4.000000, 4.000000, 4.000000, 4.000000, 4.000000, 4.000000, 4.000000, 4.000000, 4.000000, 4.000000, 4.000000, 4.000000
84.000000, 0.000000, 4213.333008, 4205.127930, 4218.461426, 4215.897461, 4200.512695, 4201.538574, 4206.666504, 4218.461426, 4231.281738, 4235.897461, 4218.974121, 4208.717773, 4198.974121, 4225.127930, 3480.000000, 8140.000000, 8034.000000, 0.000000, 0.000000, 0.000000, -21257.000000, 880.512817, 4.000000, 4.000000, 4.000000, 4.000000, 4.000000, 4.000000, 4.000000, 4.000000, 4.000000, 4.000000, 4.000000, 4.000000, 4.000000, 4.000000, 4.000000, 4.000000
85.000000, 0.000000, 4219.487305, 4203.589844, 4222.051270, 4216.410156, 4200.000000, 4201.025391, 4204.102539, 4217.436035, 4230.256348, 4242.051270, 4221.538574, 4209.230469, 4194.871582, 4229.743652, 3411.000000, 8127.000000, 8020.000000, 0.000000, 0.000000, 0.000000, -21257.000000, 888.205078, 4.000000, 4.000000, 4.000000, 4.000000, 4.000000, 4.000000, 4.000000, 4.000000, 4.000000, 4.000000, 4.000000, 4.000000, 4.000000, 4.000000, 4.000000, 4.000000
86.000000, 0.000000, 4226.666504, 4203.589844, 4226.153809, 4217.436035, 4202.051270, 4201.025391, 4215.384277, 4216.410156, 4231.281738, 4247.692383, 4220.000000, 4213.333008, 4201.538574, 4221.538574, 3544.000000, 8127.000000, 8020.000000, 0.000000, 0.000000, 0.000000, -21257.000000, 895.897400, 4.000000, 4.000000, 4.000000, 4.000000, 4.000000, 4.000000, 4.000000, 4.000000, 4.000000, 4.000000, 4.000000, 4.000000, 4.000000, 4.000000, 4.000000, 4.000000
87.000000, 0.000000, 4224.615234, 4204.102539, 4222.563965, 4218.461426, 4203.076660, 4204.102539, 4225.641113, 4218.461426, 4232.307617, 4249.743652, 4223.076660, 4215.897461, 4203.589844, 4223.076660, 664.000000, 8132.000000, 8011.000000, 0.000000, 0.000000, 0.000000, -21257.000000, 904.102539, 4.000000, 4.000000, 4.000000, 4.000000, 4.000000, 4.000000, 4.000000, 4.000000, 4.000000, 4.000000, 4.000000, 4.000000, 4.000000, 4.000000, 4.000000, 4.000000
88.000000, 0.000000, 4223.076660, 4203.076660, 4217.436035, 4216.922852, 4200.000000, 4207.179199, 4226.666504, 4218.974121, 4229.230469, 4243.076660, 4229.230469, 4211.281738, 4198.461426, 4224.102539, 3480.000000, 8132.000000, 8011.000000, 0.000000, 0.000000, 0.000000, -21257.000000, 911.794861, 4.000000, 4.000000, 4.000000, 4.000000, 4.000000, 4.000000, 4.000000, 4.000000, 4.000000, 4.000000, 4.000000, 4.000000, 4.000000, 4.000000, 4.000000, 4.000000
89.000000, 0.000000, 4221.538574, 4201.025391, 4214.871582, 4214.358887, 4198.461426, 4209.230469, 4221.538574, 4218.974121, 4228.717773, 4240.000000, 4224.615234, 4206.153809, 4197.436035, 4218.974121, 3411.000000, 8132.000000, 7993.000000, 0.000000, 0.000000, 0.000000, -21257.000000, 920.000000, 4.000000, 4.000000, 4.000000, 4.000000, 4.000000, 4.000000, 4.000000, 4.000000, 4.000000, 4.000000, 4.000000, 4.000000, 4.000000, 4.000000, 4.000000, 4.000000
90.000000, 0.000000, 4216.410156, 4202.563965, 4208.717773, 4215.897461, 4203.589844, 4215.384277, 4220.512695, 4222.051270, 4234.358887, 4243.076660, 4214.358887, 4203.076660, 4194.871582, 4213.333008, 3544.000000, 8132.000000, 7993.000000, 0.000000, 0.000000, 0.000000, -21257.000000, 927.692261, 4.000000, 4.000000, 4.000000, 4.000000, 4.000000, 4.000000, 4.000000, 4.000000, 4.000000, 4.000000, 4.000000, 4.000000, 4.000000, 4.000000, 4.000000, 4.000000
91.000000, 0.000000, 4214.358887, 4197.948730, 4201.538574, 4214.871582, 4206.666504, 4220.512695, 4226.153809, 4222.051270, 4232.307617, 4238.974121, 4213.333008, 4195.897461, 4187.179199, 4205.127930, 664.000000, 8136.000000, 7991.000000, 0.000000, 0.000000, 0.000000, -21257.000000, 935.384583, 4.000000, 4.000000, 4.000000, 4.000000, 4.000000, 4.000000, 4.000000, 4.000000, 4.000000, 4.000000, 4.000000, 4.000000, 4.000000, 4.000000, 4.000000, 4.000000
92.000000, 0.000000, 4209.743652, 4190.256348, 4197.436035, 4206.666504, 4201.025391, 4216.922852, 4228.205078, 4217.436035, 4217.436035, 4230.769043, 4210.769043, 4188.205078, 4182.563965, 4205.641113, 3480.000000, 8136.000000, 7991.000000, 0.000000, 0.000000, 0.000000, -21257.000000, 943.076904, 4.000000, 4.000000, 4.000000, 4.000000, 4.000000, 4.000000, 4.000000, 4.000000, 4.000000, 4.000000, 4.000000, 4.000000, 4.000000, 4.000000, 4.000000, 4.000000
93.000000, 0.000000, 4210.256348, 4190.769043, 4198.974121, 4202.051270, 4198.974121, 4205.641113, 4216.410156, 4210.256348, 4212.307617, 4226.153809, 4203.589844, 4178.461426, 4183.076660, 4204.102539, 3411.000000, 8139.000000, 7988.000000, 0.000000, 0.000000, 0.000000, -21257.000000, 951.282043, 4.000000, 4.000000, 4.000000, 4.000000, 4.000000, 4.000000, 4.000000, 4.000000, 4.000000, 4.000000, 4.000000, 4.000000, 4.000000, 4.000000, 4.000000, 4.000000
94.000000, 0.000000, 4212.307617, 4190.769043, 4198.461426, 4205.641113, 4202.563965, 4205.127930, 4204.615234, 4204.102539, 4220.000000, 4221.025391, 4201.538574, 4173.846191, 4179.487305, 4201.538574, 3544.000000, 8139.000000, 7988.000000, 0.000000, 0.000000, 0.000000, -21257.000000, 959.487183, 4.000000, 4.000000, 4.000000, 4.000000, 4.000000, 4.000000, 4.000000, 4.000000, 4.000000, 4.000000, 4.000000, 4.000000, 4.000000, 4.000000, 4.000000, 4.000000
95.000000, 0.000000, 4209.743652, 4190.769043, 4189.230469, 4205.127930, 4201.025391, 4212.307617, 4208.205078, 4198.974121, 4215.384277, 4217.436035, 4197.948730, 4175.897461, 4171.281738, 4204.102539, 664.000000, 8140.000000, 7992.000000, 0.000000, 0.000000, 0.000000, -21257.000000, 967.179443, 4.000000, 4.000000, 4.000000, 4.000000, 4.000000, 4.000000, 4.000000, 4.000000, 4.000000, 4.000000, 4.000000, 4.000000, 4.000000, 4.000000, 4.000000, 4.000000
96.000000, 0.000000, 4207.692383, 4197.436035, 4183.589844, 4203.076660, 4200.000000, 4207.692383, 4213.333008, 4198.974121, 4202.051270, 4218.974121, 4195.897461, 4176.410156, 4168.717773, 4200.000000, 3480.000000, 8140.000000, 7992.000000, 0.000000, 0.000000, 0.000000, -21257.000000, 974.871765, 4.000000, 4.000000, 4.000000, 4.000000, 4.000000, 4.000000, 4.000000, 4.000000, 4.000000, 4.000000, 4.000000, 4.000000, 4.000000, 4.000000, 4.000000, 4.000000
97.000000, 0.000000, 4207.692383, 4201.538574, 4192.820313, 4206.153809, 4203.076660, 4196.410156, 4203.076660, 4201.025391, 4205.127930, 4218.974121, 4199.487305, 4178.974121, 4169.230469, 4204.102539, 3411.000000, 8138.000000, 7995.000000, 0.000000, 0.000000, 0.000000, -21257.000000, 983.076904, 4.000000, 4.000000, 4.000000, 4.000000, 4.000000, 4.000000, 4.000000, 4.000000, 4.000000, 4.000000, 4.000000, 4.000000, 4.000000, 4.000000, 4.000000, 4.000000
98.000000, 0.000000, 4213.846191, 4195.897461, 4203.076660, 4207.692383, 4201.538574, 4198.461426, 4198.461426, 4196.922852, 4211.281738, 4218.974121, 4200.512695, 4183.589844, 4170.256348, 4206.153809, 3544.000000, 8138.000000, 7995.000000, 0.000000, 0.000000, 0.000000, -21257.000000, 990.769226, 4.000000, 4.000000, 4.000000, 4.000000, 4.000000, 4.000000, 4.000000, 4.000000, 4.000000, 4.000000, 4.000000, 4.000000, 4.000000, 4.000000, 4.000000, 4.000000
99.000000, 0.000000, 4217.948730, 4194.358887, 4201.538574, 4203.076660, 4196.410156, 4201.538574, 4211.794922, 4202.563965, 4214.358887, 4220.512695, 4203.076660, 4190.256348, 4174.358887, 4201.538574, 664.000000, 8127.000000, 8012.000000, 0.000000, 0.000000, 0.000000, -21257.000000, 998.974304, 4.000000, 4.000000, 4.000000, 4.000000, 4.000000, 4.000000, 4.000000, 4.000000, 4.000000, 4.000000, 4.000000, 4.000000, 4.000000, 4.000000, 4.000000, 4.000000
100.000000, 0.000000, 4215.897461, 4196.410156, 4200.512695, 4201.538574, 4196.922852, 4198.974121, 4219.487305, 4210.256348, 4212.307617, 4221.538574, 4206.153809, 4195.897461, 4178.461426, 4205.127930, 3480.000000, 8127.000000, 8012.000000, 0.000000, 0.000000, 0.000000, -21256.000000, 6.666667, 4.000000, 4.000000, 4.000000, 4.000000, 4.000000, 4.000000, 4.000000, 4.000000, 4.000000, 4.000000, 4.000000, 4.000000, 4.000000, 4.000000, 4.000000, 4.000000
101.000000, 0.000000, 4222.563965, 4199.487305, 4210.256348, 4207.692383, 4200.000000, 4201.538574, 4211.794922, 4207.179199, 4206.153809, 4227.179199, 4206.666504, 4195.897461, 4182.051270, 4204.102539, 3411.000000, 8124.000000, 8031.000000, 0.000000, 0.000000, 0.000000, -21256.000000, 14.358974, 4.000000, 4.000000, 4.000000, 4.000000, 4.000000, 4.000000, 4.000000, 4.000000, 4.000000, 4.000000, 4.000000, 4.000000, 4.000000, 4.000000, 4.000000, 4.000000
102.000000, 0.000000, 4230.769043, 4203.589844, 4217.948730, 4217.436035, 4203.076660, 4203.076660, 4202.563965, 4207.179199, 4209.230469, 4233.846191, 4211.794922, 4196.922852, 4188.717773, 4207.179199, 3544.000000, 8124.000000, 8031.000000, 0.000000, 0.000000, 0.000000, -21256.000000, 22.051281, 4.000000, 4.000000, 4.000000, 4.000000, 4.000000, 4.000000, 4.000000, 4.000000, 4.000000, 4.000000, 4.000000, 4.000000, 4.000000, 4.000000, 4.000000, 4.000000
103.000000, 0.000000, 4230.256348, 4203.589844, 4210.769043, 4214.358887, 4204.615234, 4200.512695, 4201.025391, 4212.307617, 4215.384277, 4233.846191, 4214.358887, 4198.974121, 4187.692383, 4207.692383, 664.000000, 8130.000000, 8050.000000, 0.000000, 0.000000, 0.000000, -21256.000000, 30.256409, 4.000000, 4.000000, 4.000000, 4.000000, 4.000000, 4.000000, 4.000000, 4.000000, 4.000000, 4.000000, 4.000000, 4.000000, 4.000000, 4.000000, 4.000000, 4.000000
104.000000, 0.000000, 4224.102539, 4200.512695, 4204.102539, 4203.076660, 4200.000000, 4202.051270, 4205.127930, 4208.205078, 4207.179199, 4227.692383, 4204.102539, 4195.384277, 4179.487305, 4204.615234, 3480.000000, 8130.000000, 8050.000000, 0.000000, 0.000000, 0.000000, -21256.000000, 37.948715, 4.000000, 4.000000, 4.000000, 4.000000, 4.000000, 4.000000, 4.000000, 4.000000, 4.000000, 4.000000, 4.000000, 4.000000, 4.000000, 4.000000, 4.000000, 4.000000
105.000000, 0.000000, 4221.025391, 4197.948730, 4207.179199, 4203.589844, 4194.358887, 4197.436035, 4202.051270, 4193.333008, 4195.384277, 4217.948730, 4197.948730, 4190.769043, 4175.384277, 4210.256348, 3411.000000, 8131.000000, 8074.000000, 0.000000, 0.000000, 0.000000, -21256.000000, 46.153847, 4.000000, 4.000000, 4.000000, 4.000000, 4.000000, 4.000000, 4.000000, 4.000000, 4.000000, 4.000000, 4.000000, 4.000000, 4.000000, 4.000000, 4.000000, 4.000000
106.000000, 0.000000, 4225.641113, 4200.000000, 4207.692383, 4212.820313, 4195.384277, 4190.769043, 4195.897461, 4186.666504, 4194.871582, 4217.436035, 4203.076660, 4190.769043, 4175.897461, 4205.127930, 3544.000000, 8131.000000, 8074.000000, 0.000000, 0.000000, 0.000000, -21256.000000, 53.846153, 4.000000, 4.000000, 4.000000, 4.000000, 4.000000, 4.000000, 4.000000, 4.000000, 4.000000, 4.000000, 4.000000, 4.000000, 4.000000, 4.000000, 4.000000, 4.000000
107.000000, 0.000000, 4223.076660, 4203.076660, 4202.563965, 4213.333008, 4197.948730, 4194.358887, 4202.051270, 4193.333008, 4194.871582, 4227.692383, 4203.076660, 4191.281738, 4180.000000, 4203.589844, 664.000000, 8134.000000, 8085.000000, 0.000000, 0.000000, 0.000000, -21256.000000, 62.051281, 4.000000, 4.000000, 4.000000, 4.000000, 4.000000, 4.000000, 4.000000, 4.000000, 4.000000, 4.000000, 4.000000, 4.000000, 4.000000, 4.000000, 4.000000, 4.000000
108.000000, 0.000000, 4220.000000, 4203.076660, 4202.563965, 4208.205078, 4197.948730, 4194.871582, 4204.102539, 4196.410156, 4191.281738, 4230.769043, 4203.076660, 4193.846191, 4186.666504, 4208.717773, 3480.000000, 8134.000000, 8085.000000, 0.000000, 0.000000, 0.000000, -21256.000000, 69.743591, 4.000000, 4.000000, 4.000000, 4.000000, 4.000000, 4.000000, 4.000000, 4.000000, 4.000000, 4.000000, 4.000000, 4.000000, 4.000000, 4.000000, 4.000000, 4.000000
109.000000, 0.000000, 4225.641113, 4204.102539, 4205.127930, 4211.281738, 4198.974121, 4188.717773, 4193.846191, 4190.769043, 4195.897461, 4230.256348, 4212.307617, 4200.512695, 4191.281738, 4208.205078, 3411.000000, 8121.000000, 8094.000000, 0.000000, 0.000000, 0.000000, -21256.000000, 77.435898, 4.000000, 4.000000, 4.000000, 4.000000, 4.000000, 4.000000, 4.000000, 4.000000, 4.000000, 4.000000, 4.000000, 4.000000, 4.000000, 4.000000, 4.000000, 4.000000
110.000000, 0.000000, 4220.512695, 4202.051270, 4201.538574, 4213.333008, 4196.922852, 4194.358887, 4191.281738, 4187.692383, 4201.538574, 4232.307617, 4214.871582, 4198.974121, 4188.717773, 4206.666504, 3544.000000, 8121.000000, 8094.000000, 0.000000, 0.000000, 0.000000, -21256.000000, 85.128204, 4.000000, 4.000000, 4.000000, 4.000000, 4.000000, 4.000000, 4.000000, 4.000000, 4.000000, 4.000000, 4.000000, 4.000000, 4.000000, 4.000000, 4.000000, 4.000000
111.000000, 0.000000, 4215.384277, 4201.538574, 4198.461426, 4207.179199, 4196.922852, 4201.538574, 4199.487305, 4198.461426, 4200.000000, 4226.666504, 4205.127930, 4192.820313, 4183.076660, 4202.051270, 664.000000, 8116.000000, 8099.000000, 0.000000, 0.000000, 0.000000, -21256.000000, 93.333328, 4.000000, 4.000000, 4.000000, 4.000000, 4.000000, 4.000000, 4.000000, 4.000000, 4.000000, 4.000000, 4.000000, 4.000000, 4.000000, 4.000000, 4.000000, 4.000000
112.000000, 0.000000, 4211.281738, 4200.512695, 4198.461426, 4203.589844, 4204.102539, 4201.538574, 4206.153809, 4212.820313, 4197.948730, 4217.948730, 4194.358887, 4192.307617, 4173.333008, 4204.102539, 3480.000000, 8116.000000, 8099.000000, 0.000000, 0.000000, 0.000000, -21256.000000, 101.025635, 4.000000, 4.000000, 4.000000, 4.000000, 4.000000, 4.000000, 4.000000, 4.000000, 4.000000, 4.000000, 4.000000, 4.000000, 4.000000, 4.000000, 4.000000, 4.000000
113.000000, 0.000000, 4192.820313, 4184.102539, 4193.333008, 4196.410156, 4201.538574, 4205.127930, 4211.281738, 4218.974121, 4197.948730, 4214.871582, 4185.127930, 4186.666504, 4152.307617, 4198.974121, 3411.000000, 8104.000000, 8108.000000, 0.000000, 0.000000, 0.000000, -21256.000000, 108.717949, 4.000000, 4.000000, 4.000000, 4.000000, 4.000000, 4.000000, 4.000000, 4.000000, 4.000000, 4.000000, 4.000000, 4.000000, 4.000000, 4.000000, 4.000000, 4.000000
114.000000, 0.000000, 4183.589844, 4171.281738, 4190.769043, 4186.153809, 4188.717773, 4207.179199, 4217.436035, 4218.461426, 4199.487305, 4211.281738, 4180.000000, 4182.051270, 4146.666504, 4192.307617, 3544.000000, 8104.000000, 8108.000000, 0.000000, 0.000000, 0.000000, -21256.000000, 116.923073, 4.000000, 4.000000, 4.000000, 4.000000, 4.000000, 4.000000, 4.000000, 4.000000, 4.000000, 4.000000, 4.000000, 4.000000, 4.000000, 4.000000, 4.000000, 4.000000
115.000000, 0.000000, 4194.358887, 4185.127930, 4196.410156, 4195.384277, 4192.307617, 4202.051270, 4218.974121, 4220.512695, 4207.692383, 4217.948730, 4193.333008, 4191.281738, 4170.769043, 4197.436035, 664.000000, 8099.000000, 8111.000000, 0.000000, 0.000000, 0.000000, -21256.000000, 124.615379, 4.000000, 4.000000, 4.000000, 4.000000, 4.000000, 4.000000, 4.000000, 4.000000, 4.000000, 4.000000, 4.000000, 4.000000, 4.000000, 4.000000, 4.000000, 4.000000
116.000000, 0.000000, 4209.743652, 4202.563965, 4203.076660, 4214.358887, 4201.025391, 4203.589844, 4212.820313, 4215.897461, 4210.256348, 4231.794922, 4212.307617, 4200.000000, 4191.281738, 4191.281738, 3480.000000, 8099.000000, 8111.000000, 0.000000, 0.000000, 0.000000, -21256.000000, 132.307693, 4.000000, 4.000000, 4.000000, 4.000000, 4.000000, 4.000000, 4.000000, 4.000000, 4.000000, 4.000000, 4.000000, 4.000000, 4.000000, 4.000000, 4.000000, 4.000000
117.000000, 0.000000, 4212.820313, 4203.076660, 4208.717773, 4218.461426, 4196.410156, 4205.641113, 4205.641113, 4196.922852, 4192.820313, 4227.692383, 4216.922852, 4202.563965, 4194.358887, 4188.717773, 3411.000000, 8095.000000, 8111.000000, 0.000000, 0.000000, 0.000000, -21256.000000, 140.512817, 4.000000, 4.000000, 4.000000, 4.000000, 4.000000, 4.000000, 4.000000, 4.000000, 4.000000, 4.000000, 4.000000, 4.000000, 4.000000, 4.000000, 4.000000, 4.000000
118.000000, 0.000000, 4208.205078, 4195.897461, 4214.358887, 4216.410156, 4196.922852, 4196.922852, 4198.974121, 4190.256348, 4182.563965, 4214.358887, 4214.871582, 4202.051270, 4198.974121, 4184.615234, 3544.000000, 8095.000000, 8111.000000, 0.000000, 0.000000, 0.000000, -21256.000000, 148.205124, 4.000000, 4.000000, 4.000000, 4.000000, 4.000000, 4.000000, 4.000000, 4.000000, 4.000000, 4.000000, 4.000000, 4.000000, 4.000000, 4.000000, 4.000000, 4.000000
119.000000, 0.000000, 4210.256348, 4195.384277, 4215.384277, 4213.846191, 4199.487305, 4188.717773, 4196.922852, 4200.512695, 4192.307617, 4216.922852, 4213.846191, 4198.461426, 4198.974121, 4177.436035, 664.000000, 8090.000000, 8123.000000, 0.000000, 0.000000, 0.000000, -21256.000000, 155.897430, 4.000000, 4.000000, 4.000000, 4.000000, 4.000000, 4.000000, 4.000000, 4.000000, 4.000000, 4.000000, 4.000000, 4.000000, 4.000000, 4.000000, 4.000000, 4.000000
120.000000, 0.000000, 4212.820313, 4197.948730, 4212.820313, 4206.666504, 4189.743652, 4191.794922, 4199.487305, 4207.179199, 4196.922852, 4228.717773, 4212.820313, 4198.974121, 4187.692383, 4191.281738, 3480.000000, 8090.000000, 8123.000000, 0.000000, 0.000000, 0.000000, -21256.000000, 163.589737, 4.000000, 4.000000, 4.000000, 4.000000, 4.000000, 4.000000, 4.000000, 4.000000, 4.000000, 4.000000, 4.000000, 4.000000, 4.000000, 4.000000, 4.000000, 4.000000
121.000000, 0.000000, 4214.358887, 4193.846191, 4215.897461, 4202.051270, 4183.589844, 4192.820313, 4203.076660, 4212.307617, 4197.436035, 4226.666504, 4208.717773, 4204.102539, 4184.615234, 4202.051270, 3411.000000, 8086.000000, 8122.000000, 0.000000, 0.000000, 0.000000, -21256.000000, 171.794861, 4.000000, 4.000000, 4.000000, 4.000000, 4.000000, 4.000000, 4.000000, 4.000000, 4.000000, 4.000000, 4.000000, 4.000000, 4.000000, 4.000000, 4.000000, 4.000000
122.000000, 0.000000, 4207.692383, 4185.127930, 4215.384277, 4199.487305, 4187.179199, 4187.179199, 4205.127930, 4221.025391, 4205.127930, 4220.512695, 4209.230469, 4204.102539, 4186.666504, 4198.974121, 3544.000000, 8086.000000, 8122.000000, 0.000000, 0.000000, 0.000000, -21256.000000, 179.487183, 4.000000, 4.000000, 4.000000, 4.000000, 4.000000, 4.000000, 4.000000, 4.000000, 4.000000, 4.000000, 4.000000, 4.000000, 4.000000, 4.000000, 4.000000, 4.000000
123.000000, 0.000000, 4194.871582, 4183.589844, 4205.641113, 4198.974121, 4184.102539, 4192.307617, 4205.127930, 4217.436035, 4201.025391, 4225.127930, 4210.256348, 4198.974121, 4184.615234, 4193.333008, 664.000000, 8090.000000, 8138.000000, 0.000000, 0.000000, 0.000000, -21256.000000, 187.692307, 4.000000, 4.000000, 4.000000, 4.000000, 4.000000, 4.000000, 4.000000, 4.000000, 4.000000, 4.000000, 4.000000, 4.000000, 4.000000, 4.000000, 4.000000, 4.000000
124.000000, 0.000000, 4195.897461, 4188.205078, 4201.538574, 4199.487305, 4184.615234, 4201.538574, 4203.076660, 4204.102539, 4186.666504, 4226.153809, 4208.205078, 4198.461426, 4187.179199, 4188.717773, 3480.000000, 8090.000000, 8138.000000, 0.000000, 0.000000, 0.000000, -21256.000000, 195.384613, 4.000000, 4.000000, 4.000000, 4.000000, 4.000000, 4.000000, 4.000000, 4.000000, 4.000000, 4.000000, 4.000000, 4.000000, 4.000000, 4.000000, 4.000000, 4.000000
125.000000, 0.000000, 4196.410156, 4186.666504, 4207.692383, 4198.974121, 4196.922852, 4198.974121, 4202.051270, 4205.641113, 4188.717773, 4225.127930, 4212.307617, 4207.692383, 4189.743652, 4194.358887, 3411.000000, 8098.000000, 8150.000000, 0.000000, 0.000000, 0.000000, -21256.000000, 203.076920, 4.000000, 4.000000, 4.000000, 4.000000, 4.000000, 4.000000, 4.000000, 4.000000, 4.000000, 4.000000, 4.000000, 4.000000, 4.000000, 4.000000, 4.000000, 4.000000
126.000000, 0.000000, 4194.871582, 4186.666504, 4210.256348, 4203.076660, 4202.563965, 4196.922852, 4205.127930, 4219.487305, 4205.127930, 4229.743652, 4215.384277, 4212.307617, 4188.205078, 4194.871582, 3544.000000, 8098.000000, 8150.000000, 0.000000, 0.000000, 0.000000, -21256.000000, 211.282043, 4.000000, 4.000000, 4.000000, 4.000000, 4.000000, 4.000000, 4.000000, 4.000000, 4.000000, 4.000000, 4.000000, 4.000000, 4.000000, 4.000000, 4.000000, 4.000000
127.000000, 0.000000, 4193.333008, 4195.384277, 4203.589844, 4207.692383, 4198.974121, 4201.025391, 4208.717773, 4217.948730, 4203.589844, 4228.205078, 4208.717773, 4202.563965, 4186.666504, 4191.794922, 54.000000, 8113.000000, 8161.000000, 0.000000, 0.000000, 0.000000, -21256.000000, 218.974350, 4.000000, 4.000000, 4.000000, 4.000000, 4.000000, 4.000000, 4.000000, 4.000000, 4.000000, 4.000000, 4.000000, 4.000000, 4.000000, 4.000000, 4.000000, 4.000000
0.000000, 0.000000, 4187.179199, 4195.897461, 4200.000000, 4205.641113, 4197.948730, 4198.974121, 4202.051270, 4215.897461, 4197.948730, 4222.563965, 4202.051270, 4196.410156, 4188.205078, 4191.794922, 3359.000000, 8113.000000, 8161.000000, 0.000000, 0.000000, 0.000000, -21256.000000, 226.666656, 4.000000, 4.000000, 4.000000, 4.000000, 4.000000, 4.000000, 4.000000, 4.000000, 4.000000, 4.000000, 4.000000, 4.000000, 4.000000, 4.000000, 4.000000, 4.000000
1.000000, 0.000000, 4180.512695, 4186.666504, 4200.000000, 4202.563965, 4201.025391, 4200.000000, 4207.179199, 4227.692383, 4208.717773, 4220.512695, 4202.051270, 4195.897461, 4183.076660, 4190.256348, 3513.000000, 8149.000000, 8143.000000, 0.000000, 0.000000, 0.000000, -21256.000000, 234.871796, 4.000000, 4.000000, 4.000000, 4.000000, 4.000000, 4.000000, 4.000000, 4.000000, 4.000000, 4.000000, 4.000000, 4.000000, 4.000000, 4.000000, 4.000000, 4.000000
2.000000, 0.000000, 4169.743652, 4181.025391, 4196.410156, 4198.461426, 4200.512695, 4207.179199, 4228.205078, 4234.358887, 4214.871582, 4220.000000, 4201.538574, 4192.820313, 4173.333008, 4192.820313, 2571.000000, 8149.000000, 8143.000000, 0.000000, 0.000000, 0.000000, -21256.000000, 242.564102, 4.000000, 4.000000, 4.000000, 4.000000, 4.000000, 4.000000, 4.000000, 4.000000, 4.000000, 4.000000, 4.000000, 4.000000, 4.000000, 4.000000, 4.000000, 4.000000
3.000000, 0.000000, 4166.153809, 4184.615234, 4200.000000, 4199.487305, 4198.461426, 4209.743652, 4230.769043, 4247.692383, 4220.000000, 4225.641113, 4202.563965, 4194.358887, 4176.410156, 4191.281738, 2140.000000, 8167.000000, 8117.000000, 0.000000, 0.000000, 0.000000, -21256.000000, 250.769226, 4.000000, 4.000000, 4.000000, 4.000000, 4.000000, 4.000000, 4.000000, 4.000000, 4.000000, 4.000000, 4.000000, 4.000000, 4.000000, 4.000000, 4.000000, 4.000000
4.000000, 0.000000, 4174.358887, 4190.769043, 4211.794922, 4210.769043, 4202.051270, 4209.230469, 4220.000000, 4249.743652, 4220.000000, 4234.358887, 4208.717773, 4202.563965, 4187.179199, 4193.333008, 3536.000000, 8167.000000, 8117.000000, 0.000000, 0.000000, 0.000000, -21256.000000, 258.461517, 4.000000, 4.000000, 4.000000, 4.000000, 4.000000, 4.000000, 4.000000, 4.000000, 4.000000, 4.000000, 4.000000, 4.000000, 4.000000, 4.000000, 4.000000, 4.000000
5.000000, 0.000000, 4174.358887, 4196.410156, 4215.897461, 4219.487305, 4211.281738, 4205.641113, 4212.307617, 4216.410156, 4206.153809, 4233.333008, 4213.846191, 4203.589844, 4192.307617, 4198.461426, 3541.000000, 8227.000000, 7965.000000, 0.000000, 0.000000, 0.000000, -21256.000000, 266.666656, 4.000000, 4.000000, 4.000000, 4.000000, 4.000000, 4.000000, 4.000000, 4.000000, 4.000000, 4.000000, 4.000000, 4.000000, 4.000000, 4.000000, 4.000000, 4.000000
6.000000, 0.000000, 4171.794922, 4201.025391, 4208.205078, 4218.974121, 4214.358887, 4203.076660, 4203.076660, 4195.384277, 4198.461426, 4229.230469, 4214.871582, 4194.871582, 4191.281738, 4190.769043, 3136.000000, 8227.000000, 7965.000000, 0.000000, 0.000000, 0.000000, -21256.000000, 274.358978, 4.000000, 4.000000, 4.000000, 4.000000, 4.000000, 4.000000, 4.000000, 4.000000, 4.000000, 4.000000, 4.000000, 4.000000, 4.000000, 4.000000, 4.000000, 4.000000
7.000000, 0.000000, 4165.127930, 4195.384277, 4201.538574, 4215.897461, 4204.615234, 4202.051270, 4198.461426, 4202.051270, 4201.538574, 4224.102539, 4207.179199, 4189.230469, 4187.179199, 4193.333008, 3513.000000, 8262.000000, 7874.000000, 0.000000, 0.000000, 0.000000, -21256.000000, 282.051270, 4.000000, 4.000000, 4.000000, 4.000000, 4.000000, 4.000000, 4.000000, 4.000000, 4.000000, 4.000000, 4.000000, 4.000000, 4.000000, 4.000000, 4.000000, 4.000000
8.000000, 0.000000, 4154.358887, 4188.205078, 4201.025391, 4211.794922, 4201.025391, 4200.000000, 4203.589844, 4198.974121, 4197.436035, 4214.871582, 4198.461426, 4187.692383, 4182.051270, 4195.384277, 3519.000000, 8262.000000, 7874.000000, 0.000000, 0.000000, 0.000000, -21256.000000, 290.256409, 4.000000, 4.000000, 4.000000, 4.000000, 4.000000, 4.000000, 4.000000, 4.000000, 4.000000, 4.000000, 4.000000, 4.000000, 4.000000, 4.000000, 4.000000, 4.000000
9.000000, 0.000000, 4148.717773, 4187.692383, 4202.563965, 4206.666504, 4204.615234, 4199.487305, 4205.641113, 4197.436035, 4191.794922, 4215.897461, 4199.487305, 4190.769043, 4184.102539, 4193.846191, 3538.000000, 8291.000000, 7808.000000, 0.000000, 0.000000, 0.000000, -21256.000000, 297.948700, 4.000000, 4.000000, 4.000000, 4.000000, 4.000000, 4.000000, 4.000000, 4.000000, 4.000000, 4.000000, 4.000000, 4.000000, 4.000000, 4.000000, 4.000000, 4.000000
10.000000, 0.000000, 4143.589844, 4186.666504, 4201.538574, 4205.641113, 4197.948730, 4197.948730, 4202.563965, 4204.615234, 4192.307617, 4215.897461, 4200.512695, 4193.333008, 4185.127930, 4198.461426, 3546.000000, 8291.000000, 7808.000000, 0.000000, 0.000000, 0.000000, -21256.000000, 305.641022, 4.000000, 4.000000, 4.000000, 4.000000, 4.000000, 4.000000, 4.000000, 4.000000, 4.000000, 4.000000, 4.000000, 4.000000, 4.000000, 4.000000, 4.000000, 4.000000
