title:winkLeft4, recorded:16.05.18 20.02.02, timestamp started:2018-05-12T20:28:52.032863+02:00            , sampling:128, subject:Noé, labels:COUNTER INTERPOLATED AF3 F7 F3 FC5 T7 P7 O1 O2 P8 T8 FC6 F4 F8 AF4 RAW_CQ GYROX GYROY MARKER MARKER_HARDWARE SYNC TIME_STAMP_s TIME_STAMP_ms CQ_AF3 CQ_F7 CQ_F3 CQ_FC5 CQ_T7 CQ_P7 CQ_O1 CQ_O2 CQ_P8 CQ_T8 CQ_FC6 CQ_F4 CQ_F8 CQ_AF4 CQ_CMS CQ_DRL, chan:40, samples:7130, units:emotiv
28.000000, 0.000000, 4178.974121, 4226.666504, 4186.153809, 4210.769043, 4205.641113, 4216.922852, 4204.615234, 4221.025391, 4217.436035, 4206.666504, 4198.974121, 4211.281738, 4200.512695, 4206.153809, 0.000000, 8227.000000, 8154.000000, 0.000000, 0.000000, 0.000000, 16310.000000, 589.230774, 4.000000, 4.000000, 4.000000, 4.000000, 4.000000, 4.000000, 4.000000, 4.000000, 4.000000, 4.000000, 4.000000, 4.000000, 4.000000, 4.000000, 4.000000, 4.000000
29.000000, 0.000000, 4172.820313, 4222.051270, 4177.436035, 4201.538574, 4202.051270, 4210.256348, 4196.922852, 4212.307617, 4212.307617, 4198.461426, 4190.256348, 4203.589844, 4197.948730, 4200.000000, 0.000000, 8226.000000, 8152.000000, 0.000000, 0.000000, 0.000000, 16310.000000, 596.923035, 4.000000, 4.000000, 4.000000, 4.000000, 4.000000, 4.000000, 4.000000, 4.000000, 4.000000, 4.000000, 4.000000, 4.000000, 4.000000, 4.000000, 4.000000, 4.000000
30.000000, 0.000000, 4169.230469, 4222.051270, 4176.410156, 4203.589844, 4198.974121, 4213.333008, 4201.025391, 4205.641113, 4209.230469, 4201.025391, 4190.256348, 4205.641113, 4198.974121, 4205.127930, 0.000000, 8226.000000, 8152.000000, 0.000000, 0.000000, 0.000000, 16310.000000, 604.615356, 4.000000, 4.000000, 4.000000, 4.000000, 4.000000, 4.000000, 4.000000, 4.000000, 4.000000, 4.000000, 4.000000, 4.000000, 4.000000, 4.000000, 4.000000, 4.000000
31.000000, 0.000000, 4168.717773, 4221.538574, 4182.051270, 4212.820313, 4196.922852, 4213.846191, 4206.666504, 4205.641113, 4206.153809, 4206.153809, 4194.871582, 4208.205078, 4201.025391, 4207.179199, 0.000000, 8221.000000, 8151.000000, 0.000000, 0.000000, 0.000000, 16310.000000, 612.307678, 4.000000, 4.000000, 4.000000, 4.000000, 4.000000, 4.000000, 4.000000, 4.000000, 4.000000, 4.000000, 4.000000, 4.000000, 4.000000, 4.000000, 4.000000, 4.000000
32.000000, 0.000000, 4174.358887, 4221.538574, 4186.666504, 4214.358887, 4206.666504, 4203.076660, 4202.563965, 4213.333008, 4207.179199, 4204.615234, 4195.384277, 4207.692383, 4198.974121, 4201.025391, 0.000000, 8221.000000, 8151.000000, 0.000000, 0.000000, 0.000000, 16310.000000, 620.512817, 4.000000, 4.000000, 4.000000, 4.000000, 4.000000, 4.000000, 4.000000, 4.000000, 4.000000, 4.000000, 4.000000, 4.000000, 4.000000, 4.000000, 4.000000, 4.000000
33.000000, 0.000000, 4178.461426, 4231.794922, 4193.333008, 4212.307617, 4217.436035, 4202.563965, 4196.410156, 4216.410156, 4215.384277, 4207.692383, 4198.461426, 4211.281738, 4200.512695, 4208.205078, 0.000000, 8223.000000, 8153.000000, 0.000000, 0.000000, 0.000000, 16310.000000, 628.205139, 4.000000, 4.000000, 4.000000, 4.000000, 4.000000, 4.000000, 4.000000, 4.000000, 4.000000, 4.000000, 4.000000, 4.000000, 4.000000, 4.000000, 4.000000, 4.000000
34.000000, 0.000000, 4178.461426, 4238.461426, 4197.436035, 4216.922852, 4216.922852, 4213.333008, 4196.410156, 4215.384277, 4223.076660, 4217.436035, 4204.102539, 4209.743652, 4205.641113, 4207.692383, 0.000000, 8223.000000, 8153.000000, 0.000000, 0.000000, 0.000000, 16310.000000, 635.897400, 4.000000, 4.000000, 4.000000, 4.000000, 4.000000, 4.000000, 4.000000, 4.000000, 4.000000, 4.000000, 4.000000, 4.000000, 4.000000, 4.000000, 4.000000, 4.000000
35.000000, 0.000000, 4174.871582, 4229.743652, 4194.358887, 4218.461426, 4216.410156, 4215.897461, 4206.666504, 4216.410156, 4218.974121, 4214.871582, 4200.512695, 4211.794922, 4200.512695, 4204.615234, 0.000000, 8218.000000, 8150.000000, 0.000000, 0.000000, 0.000000, 16310.000000, 643.589722, 4.000000, 4.000000, 4.000000, 4.000000, 4.000000, 4.000000, 4.000000, 4.000000, 4.000000, 4.000000, 4.000000, 4.000000, 4.000000, 4.000000, 4.000000, 4.000000
36.000000, 0.000000, 4174.358887, 4229.230469, 4189.230469, 4214.358887, 4212.307617, 4205.641113, 4204.615234, 4206.666504, 4205.641113, 4202.051270, 4189.743652, 4208.717773, 4192.820313, 4201.538574, 0.000000, 8218.000000, 8150.000000, 0.000000, 0.000000, 0.000000, 16310.000000, 651.282043, 4.000000, 4.000000, 4.000000, 4.000000, 4.000000, 4.000000, 4.000000, 4.000000, 4.000000, 4.000000, 4.000000, 4.000000, 4.000000, 4.000000, 4.000000, 4.000000
37.000000, 0.000000, 4178.461426, 4232.307617, 4191.794922, 4215.384277, 4198.461426, 4195.897461, 4187.179199, 4196.410156, 4200.000000, 4196.922852, 4184.615234, 4207.179199, 4194.871582, 4200.000000, 0.000000, 8219.000000, 8150.000000, 0.000000, 0.000000, 0.000000, 16310.000000, 659.487183, 4.000000, 4.000000, 4.000000, 4.000000, 4.000000, 4.000000, 4.000000, 4.000000, 4.000000, 4.000000, 4.000000, 4.000000, 4.000000, 4.000000, 4.000000, 4.000000
38.000000, 0.000000, 4177.948730, 4220.512695, 4200.512695, 4214.871582, 4198.461426, 4198.974121, 4185.127930, 4207.179199, 4211.281738, 4202.563965, 4192.307617, 4217.436035, 4198.974121, 4209.743652, 0.000000, 8219.000000, 8150.000000, 0.000000, 0.000000, 0.000000, 16310.000000, 667.179443, 4.000000, 4.000000, 4.000000, 4.000000, 4.000000, 4.000000, 4.000000, 4.000000, 4.000000, 4.000000, 4.000000, 4.000000, 4.000000, 4.000000, 4.000000, 4.000000
39.000000, 0.000000, 4182.051270, 4224.615234, 4200.000000, 4216.410156, 4217.436035, 4210.769043, 4200.000000, 4215.384277, 4220.000000, 4210.256348, 4203.589844, 4221.025391, 4204.615234, 4208.717773, 0.000000, 8217.000000, 8154.000000, 0.000000, 0.000000, 0.000000, 16310.000000, 674.871765, 4.000000, 4.000000, 4.000000, 4.000000, 4.000000, 4.000000, 4.000000, 4.000000, 4.000000, 4.000000, 4.000000, 4.000000, 4.000000, 4.000000, 4.000000, 4.000000
40.000000, 0.000000, 4190.256348, 4244.102539, 4195.384277, 4226.666504, 4222.051270, 4221.025391, 4207.179199, 4205.641113, 4212.307617, 4210.769043, 4202.563965, 4220.512695, 4208.205078, 4205.641113, 0.000000, 8217.000000, 8154.000000, 0.000000, 0.000000, 0.000000, 16310.000000, 682.564087, 4.000000, 4.000000, 4.000000, 4.000000, 4.000000, 4.000000, 4.000000, 4.000000, 4.000000, 4.000000, 4.000000, 4.000000, 4.000000, 4.000000, 4.000000, 4.000000
41.000000, 0.000000, 4183.589844, 4242.051270, 4193.333008, 4227.179199, 4209.743652, 4214.871582, 4200.512695, 4198.974121, 4203.589844, 4203.076660, 4190.256348, 4210.256348, 4195.897461, 4204.102539, 0.000000, 8212.000000, 8160.000000, 0.000000, 0.000000, 0.000000, 16310.000000, 690.256409, 4.000000, 4.000000, 4.000000, 4.000000, 4.000000, 4.000000, 4.000000, 4.000000, 4.000000, 4.000000, 4.000000, 4.000000, 4.000000, 4.000000, 4.000000, 4.000000
42.000000, 0.000000, 4173.333008, 4226.153809, 4188.717773, 4215.897461, 4204.102539, 4199.487305, 4194.358887, 4198.974121, 4202.051270, 4197.948730, 4184.102539, 4201.025391, 4185.127930, 4199.487305, 0.000000, 8212.000000, 8160.000000, 0.000000, 0.000000, 0.000000, 16310.000000, 697.948730, 4.000000, 4.000000, 4.000000, 4.000000, 4.000000, 4.000000, 4.000000, 4.000000, 4.000000, 4.000000, 4.000000, 4.000000, 4.000000, 4.000000, 4.000000, 4.000000
43.000000, 0.000000, 4174.871582, 4224.615234, 4185.641113, 4213.846191, 4202.051270, 4203.076660, 4197.436035, 4194.871582, 4194.358887, 4201.538574, 4187.179199, 4207.692383, 4197.436035, 4203.589844, 0.000000, 8215.000000, 8163.000000, 0.000000, 0.000000, 0.000000, 16310.000000, 706.153809, 4.000000, 4.000000, 4.000000, 4.000000, 4.000000, 4.000000, 4.000000, 4.000000, 4.000000, 4.000000, 4.000000, 4.000000, 4.000000, 4.000000, 4.000000, 4.000000
44.000000, 0.000000, 4178.461426, 4225.127930, 4181.538574, 4217.948730, 4203.589844, 4216.410156, 4204.615234, 4192.307617, 4191.794922, 4202.563965, 4187.179199, 4202.051270, 4203.076660, 4200.512695, 0.000000, 8215.000000, 8163.000000, 0.000000, 0.000000, 0.000000, 16310.000000, 713.846130, 4.000000, 4.000000, 4.000000, 4.000000, 4.000000, 4.000000, 4.000000, 4.000000, 4.000000, 4.000000, 4.000000, 4.000000, 4.000000, 4.000000, 4.000000, 4.000000
45.000000, 0.000000, 4173.846191, 4221.538574, 4180.000000, 4212.820313, 4211.281738, 4212.307617, 4201.025391, 4196.410156, 4197.948730, 4196.922852, 4183.589844, 4198.974121, 4189.743652, 4197.436035, 0.000000, 8209.000000, 8163.000000, 0.000000, 0.000000, 0.000000, 16310.000000, 721.538452, 4.000000, 4.000000, 4.000000, 4.000000, 4.000000, 4.000000, 4.000000, 4.000000, 4.000000, 4.000000, 4.000000, 4.000000, 4.000000, 4.000000, 4.000000, 4.000000
46.000000, 0.000000, 4164.102539, 4217.436035, 4178.461426, 4204.102539, 4206.153809, 4201.538574, 4186.666504, 4198.461426, 4200.000000, 4191.794922, 4181.538574, 4200.512695, 4187.179199, 4200.000000, 0.000000, 8209.000000, 8163.000000, 0.000000, 0.000000, 0.000000, 16310.000000, 729.230774, 4.000000, 4.000000, 4.000000, 4.000000, 4.000000, 4.000000, 4.000000, 4.000000, 4.000000, 4.000000, 4.000000, 4.000000, 4.000000, 4.000000, 4.000000, 4.000000
47.000000, 0.000000, 4163.589844, 4207.692383, 4174.358887, 4200.512695, 4198.974121, 4195.897461, 4180.512695, 4198.974121, 4196.410156, 4189.743652, 4181.538574, 4200.000000, 4196.410156, 4198.461426, 0.000000, 8210.000000, 8167.000000, 0.000000, 0.000000, 0.000000, 16310.000000, 736.923035, 4.000000, 4.000000, 4.000000, 4.000000, 4.000000, 4.000000, 4.000000, 4.000000, 4.000000, 4.000000, 4.000000, 4.000000, 4.000000, 4.000000, 4.000000, 4.000000
48.000000, 0.000000, 4168.717773, 4205.641113, 4176.410156, 4200.000000, 4200.000000, 4190.769043, 4185.127930, 4201.025391, 4191.281738, 4192.820313, 4185.127930, 4208.717773, 4202.051270, 4205.641113, 0.000000, 8210.000000, 8167.000000, 0.000000, 0.000000, 0.000000, 16310.000000, 745.128174, 4.000000, 4.000000, 4.000000, 4.000000, 4.000000, 4.000000, 4.000000, 4.000000, 4.000000, 4.000000, 4.000000, 4.000000, 4.000000, 4.000000, 4.000000, 4.000000
49.000000, 0.000000, 4169.743652, 4215.384277, 4182.563965, 4202.563965, 4189.743652, 4189.743652, 4186.666504, 4196.410156, 4189.743652, 4196.922852, 4187.692383, 4204.102539, 4201.025391, 4205.641113, 0.000000, 8208.000000, 8173.000000, 0.000000, 0.000000, 0.000000, 16310.000000, 752.820496, 4.000000, 4.000000, 4.000000, 4.000000, 4.000000, 4.000000, 4.000000, 4.000000, 4.000000, 4.000000, 4.000000, 4.000000, 4.000000, 4.000000, 4.000000, 4.000000
50.000000, 0.000000, 4170.256348, 4218.974121, 4187.692383, 4208.205078, 4185.641113, 4197.436035, 4186.666504, 4193.333008, 4193.846191, 4196.922852, 4188.717773, 4203.076660, 4198.974121, 4203.589844, 0.000000, 8208.000000, 8173.000000, 0.000000, 0.000000, 0.000000, 16310.000000, 760.512817, 4.000000, 4.000000, 4.000000, 4.000000, 4.000000, 4.000000, 4.000000, 4.000000, 4.000000, 4.000000, 4.000000, 4.000000, 4.000000, 4.000000, 4.000000, 4.000000
51.000000, 0.000000, 4173.333008, 4214.871582, 4191.281738, 4211.281738, 4203.589844, 4198.461426, 4190.256348, 4196.410156, 4201.025391, 4197.436035, 4193.846191, 4214.871582, 4200.512695, 4206.666504, 0.000000, 8202.000000, 8170.000000, 0.000000, 0.000000, 0.000000, 16310.000000, 768.205139, 4.000000, 4.000000, 4.000000, 4.000000, 4.000000, 4.000000, 4.000000, 4.000000, 4.000000, 4.000000, 4.000000, 4.000000, 4.000000, 4.000000, 4.000000, 4.000000
52.000000, 0.000000, 4176.922852, 4213.846191, 4193.846191, 4207.179199, 4208.717773, 4196.410156, 4193.846191, 4203.589844, 4203.076660, 4200.512695, 4193.846191, 4215.897461, 4201.025391, 4201.025391, 0.000000, 8202.000000, 8170.000000, 0.000000, 0.000000, 0.000000, 16310.000000, 775.897400, 4.000000, 4.000000, 4.000000, 4.000000, 4.000000, 4.000000, 4.000000, 4.000000, 4.000000, 4.000000, 4.000000, 4.000000, 4.000000, 4.000000, 4.000000, 4.000000
53.000000, 0.000000, 4176.922852, 4215.897461, 4196.410156, 4207.692383, 4202.563965, 4199.487305, 4195.897461, 4209.743652, 4203.076660, 4201.538574, 4187.179199, 4210.256348, 4200.000000, 4203.589844, 0.000000, 8207.000000, 8164.000000, 0.000000, 0.000000, 0.000000, 16310.000000, 784.102539, 4.000000, 4.000000, 4.000000, 4.000000, 4.000000, 4.000000, 4.000000, 4.000000, 4.000000, 4.000000, 4.000000, 4.000000, 4.000000, 4.000000, 4.000000, 4.000000
54.000000, 0.000000, 4178.461426, 4219.487305, 4194.871582, 4214.871582, 4201.538574, 4200.000000, 4197.436035, 4208.205078, 4201.025391, 4200.000000, 4188.717773, 4209.230469, 4200.512695, 4205.641113, 0.000000, 8207.000000, 8164.000000, 0.000000, 0.000000, 0.000000, 16310.000000, 791.794861, 4.000000, 4.000000, 4.000000, 4.000000, 4.000000, 4.000000, 4.000000, 4.000000, 4.000000, 4.000000, 4.000000, 4.000000, 4.000000, 4.000000, 4.000000, 4.000000
55.000000, 0.000000, 4183.589844, 4217.436035, 4193.846191, 4214.358887, 4193.846191, 4199.487305, 4200.512695, 4210.256348, 4203.589844, 4199.487305, 4197.948730, 4221.538574, 4200.512695, 4204.102539, 0.000000, 8212.000000, 8162.000000, 0.000000, 0.000000, 0.000000, 16310.000000, 799.487183, 4.000000, 4.000000, 4.000000, 4.000000, 4.000000, 4.000000, 4.000000, 4.000000, 4.000000, 4.000000, 4.000000, 4.000000, 4.000000, 4.000000, 4.000000, 4.000000
56.000000, 0.000000, 4184.102539, 4212.820313, 4196.922852, 4213.846191, 4196.922852, 4201.025391, 4200.000000, 4218.461426, 4212.307617, 4202.051270, 4202.051270, 4226.666504, 4206.153809, 4207.692383, 0.000000, 8212.000000, 8162.000000, 0.000000, 0.000000, 0.000000, 16310.000000, 807.179443, 4.000000, 4.000000, 4.000000, 4.000000, 4.000000, 4.000000, 4.000000, 4.000000, 4.000000, 4.000000, 4.000000, 4.000000, 4.000000, 4.000000, 4.000000, 4.000000
57.000000, 0.000000, 4183.076660, 4217.436035, 4197.948730, 4221.025391, 4212.307617, 4204.102539, 4194.871582, 4218.461426, 4209.743652, 4204.615234, 4203.076660, 4221.025391, 4213.333008, 4203.076660, 0.000000, 8212.000000, 8154.000000, 0.000000, 0.000000, 0.000000, 16310.000000, 815.384583, 4.000000, 4.000000, 4.000000, 4.000000, 4.000000, 4.000000, 4.000000, 4.000000, 4.000000, 4.000000, 4.000000, 4.000000, 4.000000, 4.000000, 4.000000, 4.000000
58.000000, 0.000000, 4180.512695, 4218.974121, 4195.897461, 4216.410156, 4204.615234, 4203.076660, 4195.384277, 4205.127930, 4198.461426, 4203.076660, 4202.563965, 4224.102539, 4209.743652, 4202.051270, 0.000000, 8212.000000, 8154.000000, 0.000000, 0.000000, 0.000000, 16310.000000, 823.076904, 4.000000, 4.000000, 4.000000, 4.000000, 4.000000, 4.000000, 4.000000, 4.000000, 4.000000, 4.000000, 4.000000, 4.000000, 4.000000, 4.000000, 4.000000, 4.000000
59.000000, 0.000000, 4176.410156, 4212.820313, 4193.333008, 4208.205078, 4197.436035, 4200.512695, 4195.897461, 4199.487305, 4197.948730, 4203.076660, 4200.000000, 4220.000000, 4198.461426, 4200.000000, 0.000000, 8219.000000, 8158.000000, 0.000000, 0.000000, 0.000000, 16310.000000, 830.769226, 4.000000, 4.000000, 4.000000, 4.000000, 4.000000, 4.000000, 4.000000, 4.000000, 4.000000, 4.000000, 4.000000, 4.000000, 4.000000, 4.000000, 4.000000, 4.000000
60.000000, 0.000000, 4178.974121, 4216.410156, 4190.769043, 4213.846191, 4205.641113, 4202.051270, 4193.846191, 4204.102539, 4202.563965, 4205.127930, 4201.025391, 4221.025391, 4199.487305, 4200.000000, 0.000000, 8219.000000, 8158.000000, 0.000000, 0.000000, 0.000000, 16310.000000, 838.461548, 4.000000, 4.000000, 4.000000, 4.000000, 4.000000, 4.000000, 4.000000, 4.000000, 4.000000, 4.000000, 4.000000, 4.000000, 4.000000, 4.000000, 4.000000, 4.000000
61.000000, 0.000000, 4172.820313, 4215.897461, 4183.589844, 4214.871582, 4201.025391, 4201.025391, 4194.871582, 4197.436035, 4195.897461, 4197.948730, 4195.897461, 4223.076660, 4203.589844, 4204.615234, 0.000000, 8226.000000, 8158.000000, 0.000000, 0.000000, 0.000000, 16310.000000, 846.153809, 4.000000, 4.000000, 4.000000, 4.000000, 4.000000, 4.000000, 4.000000, 4.000000, 4.000000, 4.000000, 4.000000, 4.000000, 4.000000, 4.000000, 4.000000, 4.000000
62.000000, 0.000000, 4165.127930, 4205.641113, 4179.487305, 4207.692383, 4200.000000, 4200.512695, 4202.051270, 4186.666504, 4190.256348, 4191.794922, 4192.307617, 4209.230469, 4200.512695, 4198.461426, 0.000000, 8226.000000, 8158.000000, 0.000000, 0.000000, 0.000000, 16310.000000, 854.358948, 4.000000, 4.000000, 4.000000, 4.000000, 4.000000, 4.000000, 4.000000, 4.000000, 4.000000, 4.000000, 4.000000, 4.000000, 4.000000, 4.000000, 4.000000, 4.000000
63.000000, 0.000000, 4173.333008, 4203.589844, 4190.256348, 4212.820313, 4219.487305, 4211.281738, 4203.076660, 4186.666504, 4193.846191, 4197.948730, 4197.436035, 4211.281738, 4202.051270, 4201.538574, 0.000000, 8232.000000, 8162.000000, 0.000000, 0.000000, 0.000000, 16310.000000, 862.051270, 4.000000, 4.000000, 4.000000, 4.000000, 4.000000, 4.000000, 4.000000, 4.000000, 4.000000, 4.000000, 4.000000, 4.000000, 4.000000, 4.000000, 4.000000, 4.000000
64.000000, 0.000000, 4171.281738, 4203.589844, 4189.230469, 4215.384277, 4218.461426, 4222.051270, 4199.487305, 4188.205078, 4192.820313, 4198.461426, 4192.307617, 4210.769043, 4198.974121, 4201.538574, 3303.000000, 8232.000000, 8162.000000, 0.000000, 0.000000, 0.000000, 16310.000000, 869.743591, 4.000000, 4.000000, 4.000000, 4.000000, 4.000000, 4.000000, 4.000000, 4.000000, 4.000000, 4.000000, 4.000000, 4.000000, 4.000000, 4.000000, 4.000000, 4.000000
65.000000, 0.000000, 4160.512695, 4198.461426, 4174.358887, 4203.076660, 4197.948730, 4212.307617, 4202.563965, 4185.127930, 4184.615234, 4190.769043, 4182.051270, 4200.512695, 4187.179199, 4193.846191, 3535.000000, 8235.000000, 8167.000000, 0.000000, 0.000000, 0.000000, 16310.000000, 877.435852, 4.000000, 4.000000, 4.000000, 4.000000, 4.000000, 4.000000, 4.000000, 4.000000, 4.000000, 4.000000, 4.000000, 4.000000, 4.000000, 4.000000, 4.000000, 4.000000
66.000000, 0.000000, 4162.563965, 4200.000000, 4178.461426, 4199.487305, 4197.948730, 4198.461426, 4203.589844, 4186.153809, 4183.589844, 4189.230469, 4186.153809, 4204.102539, 4190.769043, 4198.974121, 2788.000000, 8235.000000, 8167.000000, 0.000000, 0.000000, 0.000000, 16310.000000, 885.128174, 4.000000, 4.000000, 4.000000, 4.000000, 4.000000, 4.000000, 4.000000, 4.000000, 4.000000, 4.000000, 4.000000, 4.000000, 4.000000, 4.000000, 4.000000, 4.000000
67.000000, 0.000000, 4166.666504, 4201.538574, 4186.153809, 4203.589844, 4200.512695, 4197.948730, 4194.871582, 4186.666504, 4188.717773, 4196.922852, 4190.769043, 4208.205078, 4200.512695, 4201.025391, 3552.000000, 8237.000000, 8164.000000, 0.000000, 0.000000, 0.000000, 16310.000000, 892.820496, 4.000000, 4.000000, 4.000000, 4.000000, 4.000000, 4.000000, 4.000000, 4.000000, 4.000000, 4.000000, 4.000000, 4.000000, 4.000000, 4.000000, 4.000000, 4.000000
68.000000, 0.000000, 4167.692383, 4199.487305, 4185.127930, 4202.563965, 4193.846191, 4202.051270, 4186.666504, 4183.076660, 4187.692383, 4196.410156, 4190.256348, 4211.281738, 4200.000000, 4202.563965, 3534.000000, 8237.000000, 8164.000000, 0.000000, 0.000000, 0.000000, 16310.000000, 901.025635, 4.000000, 4.000000, 4.000000, 4.000000, 4.000000, 4.000000, 4.000000, 4.000000, 4.000000, 4.000000, 4.000000, 4.000000, 4.000000, 4.000000, 4.000000, 4.000000
69.000000, 0.000000, 4174.871582, 4202.051270, 4186.153809, 4200.000000, 4197.436035, 4196.410156, 4185.127930, 4184.102539, 4183.076660, 4190.256348, 4193.846191, 4212.307617, 4197.436035, 4202.563965, 3537.000000, 8242.000000, 8169.000000, 0.000000, 0.000000, 0.000000, 16310.000000, 908.717957, 4.000000, 4.000000, 4.000000, 4.000000, 4.000000, 4.000000, 4.000000, 4.000000, 4.000000, 4.000000, 4.000000, 4.000000, 4.000000, 4.000000, 4.000000, 4.000000
70.000000, 0.000000, 4177.948730, 4203.589844, 4189.743652, 4199.487305, 4203.076660, 4189.230469, 4186.153809, 4185.127930, 4184.102539, 4192.307617, 4196.922852, 4219.487305, 4198.974121, 4202.563965, 3476.000000, 8242.000000, 8169.000000, 0.000000, 0.000000, 0.000000, 16310.000000, 916.410217, 4.000000, 4.000000, 4.000000, 4.000000, 4.000000, 4.000000, 4.000000, 4.000000, 4.000000, 4.000000, 4.000000, 4.000000, 4.000000, 4.000000, 4.000000, 4.000000
71.000000, 0.000000, 4172.820313, 4202.051270, 4194.358887, 4205.641113, 4198.461426, 4196.922852, 4190.256348, 4185.127930, 4190.769043, 4198.974121, 4198.974121, 4229.743652, 4200.000000, 4211.281738, 3210.000000, 8233.000000, 8176.000000, 0.000000, 0.000000, 0.000000, 16310.000000, 924.102539, 4.000000, 4.000000, 4.000000, 4.000000, 4.000000, 4.000000, 4.000000, 4.000000, 4.000000, 4.000000, 4.000000, 4.000000, 4.000000, 4.000000, 4.000000, 4.000000
72.000000, 0.000000, 4179.487305, 4204.102539, 4194.871582, 4214.358887, 4205.127930, 4208.717773, 4195.897461, 4189.743652, 4201.025391, 4204.615234, 4204.615234, 4223.076660, 4202.563965, 4206.666504, 3542.000000, 8233.000000, 8176.000000, 0.000000, 0.000000, 0.000000, 16310.000000, 931.794861, 4.000000, 4.000000, 4.000000, 4.000000, 4.000000, 4.000000, 4.000000, 4.000000, 4.000000, 4.000000, 4.000000, 4.000000, 4.000000, 4.000000, 4.000000, 4.000000
73.000000, 0.000000, 4186.153809, 4206.153809, 4189.743652, 4211.281738, 4212.820313, 4206.153809, 4201.538574, 4195.897461, 4204.615234, 4206.666504, 4202.563965, 4219.487305, 4201.538574, 4201.538574, 3537.000000, 8226.000000, 8174.000000, 0.000000, 0.000000, 0.000000, 16310.000000, 939.487183, 4.000000, 4.000000, 4.000000, 4.000000, 4.000000, 4.000000, 4.000000, 4.000000, 4.000000, 4.000000, 4.000000, 4.000000, 4.000000, 4.000000, 4.000000, 4.000000
74.000000, 0.000000, 4179.487305, 4215.384277, 4188.205078, 4206.153809, 4203.589844, 4198.974121, 4198.461426, 4200.000000, 4205.641113, 4207.692383, 4199.487305, 4216.922852, 4200.000000, 4205.641113, 3192.000000, 8226.000000, 8174.000000, 0.000000, 0.000000, 0.000000, 16310.000000, 947.692261, 4.000000, 4.000000, 4.000000, 4.000000, 4.000000, 4.000000, 4.000000, 4.000000, 4.000000, 4.000000, 4.000000, 4.000000, 4.000000, 4.000000, 4.000000, 4.000000
75.000000, 0.000000, 4182.563965, 4229.230469, 4192.820313, 4214.358887, 4208.205078, 4205.641113, 4188.205078, 4204.102539, 4212.307617, 4211.794922, 4205.127930, 4216.922852, 4204.102539, 4205.641113, 2109.000000, 8223.000000, 8179.000000, 0.000000, 0.000000, 0.000000, 16310.000000, 955.384583, 4.000000, 4.000000, 4.000000, 4.000000, 4.000000, 4.000000, 4.000000, 4.000000, 4.000000, 4.000000, 4.000000, 4.000000, 4.000000, 4.000000, 4.000000, 4.000000
76.000000, 0.000000, 4182.563965, 4221.538574, 4189.230469, 4215.897461, 4222.051270, 4212.820313, 4187.692383, 4203.076660, 4205.127930, 4205.127930, 4202.051270, 4221.025391, 4199.487305, 4205.641113, 3479.000000, 8223.000000, 8179.000000, 0.000000, 0.000000, 0.000000, 16310.000000, 963.076904, 4.000000, 4.000000, 4.000000, 4.000000, 4.000000, 4.000000, 4.000000, 4.000000, 4.000000, 4.000000, 4.000000, 4.000000, 4.000000, 4.000000, 4.000000, 4.000000
77.000000, 0.000000, 4173.333008, 4206.153809, 4178.461426, 4206.666504, 4218.461426, 4214.358887, 4200.512695, 4196.410156, 4189.230469, 4185.641113, 4189.230469, 4210.769043, 4186.153809, 4197.436035, 2369.000000, 8222.000000, 8172.000000, 0.000000, 0.000000, 0.000000, 16310.000000, 970.769226, 4.000000, 4.000000, 4.000000, 4.000000, 4.000000, 4.000000, 4.000000, 4.000000, 4.000000, 4.000000, 4.000000, 4.000000, 4.000000, 4.000000, 4.000000, 4.000000
78.000000, 0.000000, 4166.153809, 4201.538574, 4176.922852, 4201.538574, 4213.333008, 4219.487305, 4206.666504, 4202.563965, 4197.948730, 4181.538574, 4187.692383, 4207.179199, 4182.051270, 4197.436035, 3192.000000, 8222.000000, 8172.000000, 0.000000, 0.000000, 0.000000, 16310.000000, 978.974365, 4.000000, 4.000000, 4.000000, 4.000000, 4.000000, 4.000000, 4.000000, 4.000000, 4.000000, 4.000000, 4.000000, 4.000000, 4.000000, 4.000000, 4.000000, 4.000000
79.000000, 0.000000, 4163.076660, 4191.794922, 4177.948730, 4197.436035, 4212.820313, 4217.436035, 4201.538574, 4209.743652, 4213.333008, 4201.025391, 4196.410156, 4210.769043, 4189.230469, 4202.051270, 2109.000000, 8212.000000, 8173.000000, 0.000000, 0.000000, 0.000000, 16310.000000, 986.666626, 4.000000, 4.000000, 4.000000, 4.000000, 4.000000, 4.000000, 4.000000, 4.000000, 4.000000, 4.000000, 4.000000, 4.000000, 4.000000, 4.000000, 4.000000, 4.000000
80.000000, 0.000000, 4166.666504, 4187.179199, 4177.948730, 4191.794922, 4200.000000, 4210.256348, 4200.512695, 4206.666504, 4210.256348, 4212.307617, 4198.461426, 4213.333008, 4195.897461, 4198.974121, 3479.000000, 8212.000000, 8173.000000, 0.000000, 0.000000, 0.000000, 16310.000000, 994.358948, 4.000000, 4.000000, 4.000000, 4.000000, 4.000000, 4.000000, 4.000000, 4.000000, 4.000000, 4.000000, 4.000000, 4.000000, 4.000000, 4.000000, 4.000000, 4.000000
81.000000, 0.000000, 4173.846191, 4201.538574, 4189.230469, 4198.461426, 4192.820313, 4209.743652, 4202.563965, 4210.256348, 4208.717773, 4210.256348, 4198.974121, 4224.102539, 4199.487305, 4209.230469, 2369.000000, 8209.000000, 8173.000000, 0.000000, 0.000000, 0.000000, 16311.000000, 2.051282, 4.000000, 4.000000, 4.000000, 4.000000, 4.000000, 4.000000, 4.000000, 4.000000, 4.000000, 4.000000, 4.000000, 4.000000, 4.000000, 4.000000, 4.000000, 4.000000
82.000000, 0.000000, 4184.615234, 4218.974121, 4204.102539, 4215.384277, 4210.769043, 4214.358887, 4202.051270, 4222.051270, 4223.589844, 4217.436035, 4210.769043, 4226.666504, 4209.230469, 4213.333008, 3192.000000, 8209.000000, 8173.000000, 0.000000, 0.000000, 0.000000, 16311.000000, 9.743589, 4.000000, 4.000000, 4.000000, 4.000000, 4.000000, 4.000000, 4.000000, 4.000000, 4.000000, 4.000000, 4.000000, 4.000000, 4.000000, 4.000000, 4.000000, 4.000000
83.000000, 0.000000, 4194.871582, 4225.127930, 4208.205078, 4221.538574, 4221.538574, 4211.281738, 4195.384277, 4222.563965, 4228.205078, 4228.205078, 4220.512695, 4230.769043, 4217.436035, 4208.717773, 2109.000000, 8205.000000, 8173.000000, 0.000000, 0.000000, 0.000000, 16311.000000, 17.435898, 4.000000, 4.000000, 4.000000, 4.000000, 4.000000, 4.000000, 4.000000, 4.000000, 4.000000, 4.000000, 4.000000, 4.000000, 4.000000, 4.000000, 4.000000, 4.000000
84.000000, 0.000000, 4194.871582, 4228.717773, 4205.127930, 4216.922852, 4212.820313, 4199.487305, 4188.205078, 4212.820313, 4220.000000, 4226.153809, 4216.922852, 4234.871582, 4210.256348, 4207.692383, 3479.000000, 8205.000000, 8173.000000, 0.000000, 0.000000, 0.000000, 16311.000000, 25.641026, 4.000000, 4.000000, 4.000000, 4.000000, 4.000000, 4.000000, 4.000000, 4.000000, 4.000000, 4.000000, 4.000000, 4.000000, 4.000000, 4.000000, 4.000000, 4.000000
85.000000, 0.000000, 4191.281738, 4228.205078, 4204.102539, 4216.922852, 4210.769043, 4200.000000, 4193.846191, 4214.358887, 4218.974121, 4220.000000, 4214.358887, 4230.256348, 4200.512695, 4203.589844, 2369.000000, 8205.000000, 8171.000000, 0.000000, 0.000000, 0.000000, 16311.000000, 33.333332, 4.000000, 4.000000, 4.000000, 4.000000, 4.000000, 4.000000, 4.000000, 4.000000, 4.000000, 4.000000, 4.000000, 4.000000, 4.000000, 4.000000, 4.000000, 4.000000
86.000000, 0.000000, 4192.820313, 4218.974121, 4209.230469, 4219.487305, 4214.871582, 4209.743652, 4208.205078, 4221.025391, 4220.512695, 4220.512695, 4216.410156, 4233.846191, 4203.076660, 4206.666504, 3192.000000, 8205.000000, 8171.000000, 0.000000, 0.000000, 0.000000, 16311.000000, 41.025639, 4.000000, 4.000000, 4.000000, 4.000000, 4.000000, 4.000000, 4.000000, 4.000000, 4.000000, 4.000000, 4.000000, 4.000000, 4.000000, 4.000000, 4.000000, 4.000000
87.000000, 0.000000, 4191.281738, 4215.897461, 4208.717773, 4213.846191, 4204.102539, 4208.717773, 4206.153809, 4213.846191, 4220.000000, 4222.563965, 4216.410156, 4229.230469, 4204.615234, 4205.641113, 2109.000000, 8207.000000, 8170.000000, 0.000000, 0.000000, 0.000000, 16311.000000, 48.717949, 4.000000, 4.000000, 4.000000, 4.000000, 4.000000, 4.000000, 4.000000, 4.000000, 4.000000, 4.000000, 4.000000, 4.000000, 4.000000, 4.000000, 4.000000, 4.000000
88.000000, 0.000000, 4188.717773, 4213.846191, 4203.589844, 4208.205078, 4193.333008, 4206.153809, 4198.461426, 4207.179199, 4218.974121, 4220.512695, 4216.922852, 4227.179199, 4202.051270, 4203.589844, 3479.000000, 8207.000000, 8170.000000, 0.000000, 0.000000, 0.000000, 16311.000000, 56.410255, 4.000000, 4.000000, 4.000000, 4.000000, 4.000000, 4.000000, 4.000000, 4.000000, 4.000000, 4.000000, 4.000000, 4.000000, 4.000000, 4.000000, 4.000000, 4.000000
89.000000, 0.000000, 4185.127930, 4205.641113, 4200.512695, 4207.692383, 4199.487305, 4212.307617, 4210.769043, 4209.230469, 4217.948730, 4213.846191, 4214.358887, 4230.256348, 4203.076660, 4206.153809, 2369.000000, 8208.000000, 8166.000000, 0.000000, 0.000000, 0.000000, 16311.000000, 64.615379, 4.000000, 4.000000, 4.000000, 4.000000, 4.000000, 4.000000, 4.000000, 4.000000, 4.000000, 4.000000, 4.000000, 4.000000, 4.000000, 4.000000, 4.000000, 4.000000
90.000000, 0.000000, 4176.410156, 4202.051270, 4195.384277, 4203.589844, 4205.127930, 4213.333008, 4218.974121, 4209.743652, 4214.871582, 4210.256348, 4203.589844, 4222.051270, 4197.436035, 4198.461426, 3192.000000, 8208.000000, 8166.000000, 0.000000, 0.000000, 0.000000, 16311.000000, 72.307693, 4.000000, 4.000000, 4.000000, 4.000000, 4.000000, 4.000000, 4.000000, 4.000000, 4.000000, 4.000000, 4.000000, 4.000000, 4.000000, 4.000000, 4.000000, 4.000000
91.000000, 0.000000, 4170.256348, 4203.076660, 4193.846191, 4200.000000, 4204.102539, 4211.281738, 4209.743652, 4213.333008, 4216.922852, 4212.820313, 4198.974121, 4220.000000, 4194.358887, 4200.512695, 2109.000000, 8213.000000, 8168.000000, 0.000000, 0.000000, 0.000000, 16311.000000, 80.000000, 4.000000, 4.000000, 4.000000, 4.000000, 4.000000, 4.000000, 4.000000, 4.000000, 4.000000, 4.000000, 4.000000, 4.000000, 4.000000, 4.000000, 4.000000, 4.000000
92.000000, 0.000000, 4168.717773, 4200.512695, 4192.307617, 4201.025391, 4195.384277, 4208.717773, 4201.538574, 4218.461426, 4216.410156, 4211.281738, 4201.538574, 4218.461426, 4202.051270, 4201.538574, 3479.000000, 8213.000000, 8168.000000, 0.000000, 0.000000, 0.000000, 16311.000000, 87.692307, 4.000000, 4.000000, 4.000000, 4.000000, 4.000000, 4.000000, 4.000000, 4.000000, 4.000000, 4.000000, 4.000000, 4.000000, 4.000000, 4.000000, 4.000000, 4.000000
93.000000, 0.000000, 4167.692383, 4199.487305, 4185.641113, 4200.512695, 4185.641113, 4201.538574, 4196.922852, 4208.205078, 4208.717773, 4205.127930, 4197.948730, 4216.410156, 4200.512695, 4197.948730, 2369.000000, 8214.000000, 8175.000000, 0.000000, 0.000000, 0.000000, 16311.000000, 95.384613, 4.000000, 4.000000, 4.000000, 4.000000, 4.000000, 4.000000, 4.000000, 4.000000, 4.000000, 4.000000, 4.000000, 4.000000, 4.000000, 4.000000, 4.000000, 4.000000
94.000000, 0.000000, 4164.615234, 4203.076660, 4186.153809, 4197.948730, 4197.436035, 4207.692383, 4197.436035, 4203.076660, 4211.281738, 4210.256348, 4197.436035, 4217.436035, 4194.358887, 4203.589844, 3192.000000, 8214.000000, 8175.000000, 0.000000, 0.000000, 0.000000, 16311.000000, 103.076920, 4.000000, 4.000000, 4.000000, 4.000000, 4.000000, 4.000000, 4.000000, 4.000000, 4.000000, 4.000000, 4.000000, 4.000000, 4.000000, 4.000000, 4.000000, 4.000000
95.000000, 0.000000, 4171.794922, 4201.025391, 4190.769043, 4200.000000, 4219.487305, 4220.512695, 4205.641113, 4215.384277, 4219.487305, 4220.000000, 4205.127930, 4214.358887, 4196.410156, 4203.589844, 2109.000000, 8218.000000, 8180.000000, 0.000000, 0.000000, 0.000000, 16311.000000, 111.282051, 4.000000, 4.000000, 4.000000, 4.000000, 4.000000, 4.000000, 4.000000, 4.000000, 4.000000, 4.000000, 4.000000, 4.000000, 4.000000, 4.000000, 4.000000, 4.000000
96.000000, 0.000000, 4178.461426, 4198.974121, 4194.358887, 4200.512695, 4215.897461, 4215.384277, 4205.641113, 4220.000000, 4214.358887, 4215.897461, 4204.615234, 4219.487305, 4192.820313, 4205.127930, 3479.000000, 8218.000000, 8180.000000, 0.000000, 0.000000, 0.000000, 16311.000000, 118.974358, 4.000000, 4.000000, 4.000000, 4.000000, 4.000000, 4.000000, 4.000000, 4.000000, 4.000000, 4.000000, 4.000000, 4.000000, 4.000000, 4.000000, 4.000000, 4.000000
97.000000, 0.000000, 4174.358887, 4198.974121, 4195.384277, 4197.948730, 4201.025391, 4214.871582, 4196.922852, 4217.948730, 4212.307617, 4216.410156, 4199.487305, 4218.974121, 4180.512695, 4203.589844, 2369.000000, 8215.000000, 8187.000000, 0.000000, 0.000000, 0.000000, 16311.000000, 126.666664, 4.000000, 4.000000, 4.000000, 4.000000, 4.000000, 4.000000, 4.000000, 4.000000, 4.000000, 4.000000, 4.000000, 4.000000, 4.000000, 4.000000, 4.000000, 4.000000
98.000000, 0.000000, 4173.333008, 4192.820313, 4198.461426, 4196.410156, 4199.487305, 4215.897461, 4198.974121, 4218.974121, 4217.436035, 4216.410156, 4199.487305, 4218.974121, 4170.256348, 4197.948730, 3192.000000, 8215.000000, 8187.000000, 0.000000, 0.000000, 0.000000, 16311.000000, 134.358978, 4.000000, 4.000000, 4.000000, 4.000000, 4.000000, 4.000000, 4.000000, 4.000000, 4.000000, 4.000000, 4.000000, 4.000000, 4.000000, 4.000000, 4.000000, 4.000000
99.000000, 0.000000, 4174.871582, 4187.692383, 4207.179199, 4196.922852, 4205.641113, 4201.538574, 4208.717773, 4217.948730, 4211.281738, 4204.102539, 4197.436035, 4225.127930, 4167.179199, 4202.563965, 2109.000000, 8216.000000, 8192.000000, 0.000000, 0.000000, 0.000000, 16311.000000, 142.564102, 4.000000, 4.000000, 4.000000, 4.000000, 4.000000, 4.000000, 4.000000, 4.000000, 4.000000, 4.000000, 4.000000, 4.000000, 4.000000, 4.000000, 4.000000, 4.000000
100.000000, 0.000000, 4181.025391, 4195.384277, 4212.820313, 4200.512695, 4200.512695, 4201.025391, 4218.461426, 4219.487305, 4210.769043, 4210.256348, 4203.076660, 4228.717773, 4177.436035, 4205.127930, 3479.000000, 8216.000000, 8192.000000, 0.000000, 0.000000, 0.000000, 16311.000000, 150.256409, 4.000000, 4.000000, 4.000000, 4.000000, 4.000000, 4.000000, 4.000000, 4.000000, 4.000000, 4.000000, 4.000000, 4.000000, 4.000000, 4.000000, 4.000000, 4.000000
101.000000, 0.000000, 4191.794922, 4201.025391, 4215.897461, 4206.666504, 4184.102539, 4214.358887, 4216.410156, 4222.051270, 4218.974121, 4227.692383, 4218.974121, 4242.051270, 4195.384277, 4209.743652, 2369.000000, 8214.000000, 8194.000000, 0.000000, 0.000000, 0.000000, 16311.000000, 157.948715, 4.000000, 4.000000, 4.000000, 4.000000, 4.000000, 4.000000, 4.000000, 4.000000, 4.000000, 4.000000, 4.000000, 4.000000, 4.000000, 4.000000, 4.000000, 4.000000
102.000000, 0.000000, 4198.974121, 4203.076660, 4216.410156, 4215.897461, 4192.820313, 4211.281738, 4202.051270, 4218.461426, 4220.000000, 4224.615234, 4220.000000, 4240.000000, 4196.410156, 4207.692383, 3192.000000, 8214.000000, 8194.000000, 0.000000, 0.000000, 0.000000, 16311.000000, 165.641022, 4.000000, 4.000000, 4.000000, 4.000000, 4.000000, 4.000000, 4.000000, 4.000000, 4.000000, 4.000000, 4.000000, 4.000000, 4.000000, 4.000000, 4.000000, 4.000000
103.000000, 0.000000, 4200.512695, 4210.256348, 4214.871582, 4220.000000, 4218.461426, 4199.487305, 4197.436035, 4217.948730, 4217.436035, 4215.897461, 4206.666504, 4225.127930, 4184.102539, 4197.948730, 2109.000000, 8204.000000, 8189.000000, 0.000000, 0.000000, 0.000000, 16311.000000, 173.333328, 4.000000, 4.000000, 4.000000, 4.000000, 4.000000, 4.000000, 4.000000, 4.000000, 4.000000, 4.000000, 4.000000, 4.000000, 4.000000, 4.000000, 4.000000, 4.000000
104.000000, 0.000000, 4195.384277, 4208.717773, 4214.358887, 4211.281738, 4210.769043, 4201.538574, 4204.102539, 4217.948730, 4211.281738, 4214.358887, 4200.512695, 4227.179199, 4182.051270, 4198.974121, 3479.000000, 8204.000000, 8189.000000, 0.000000, 0.000000, 0.000000, 16311.000000, 181.025635, 4.000000, 4.000000, 4.000000, 4.000000, 4.000000, 4.000000, 4.000000, 4.000000, 4.000000, 4.000000, 4.000000, 4.000000, 4.000000, 4.000000, 4.000000, 4.000000
105.000000, 0.000000, 4194.358887, 4201.538574, 4214.358887, 4205.127930, 4196.410156, 4207.179199, 4207.179199, 4211.794922, 4204.615234, 4206.153809, 4205.127930, 4230.256348, 4188.205078, 4199.487305, 2369.000000, 8196.000000, 8189.000000, 0.000000, 0.000000, 0.000000, 16311.000000, 189.230759, 4.000000, 4.000000, 4.000000, 4.000000, 4.000000, 4.000000, 4.000000, 4.000000, 4.000000, 4.000000, 4.000000, 4.000000, 4.000000, 4.000000, 4.000000, 4.000000
106.000000, 0.000000, 4196.410156, 4196.410156, 4212.307617, 4204.615234, 4205.641113, 4206.153809, 4207.179199, 4212.820313, 4203.589844, 4200.000000, 4203.589844, 4228.717773, 4184.102539, 4200.000000, 3192.000000, 8196.000000, 8189.000000, 0.000000, 0.000000, 0.000000, 16311.000000, 196.923065, 4.000000, 4.000000, 4.000000, 4.000000, 4.000000, 4.000000, 4.000000, 4.000000, 4.000000, 4.000000, 4.000000, 4.000000, 4.000000, 4.000000, 4.000000, 4.000000
107.000000, 0.000000, 4185.127930, 4187.179199, 4205.641113, 4193.846191, 4194.871582, 4201.538574, 4205.127930, 4214.358887, 4196.922852, 4200.000000, 4192.307617, 4216.922852, 4174.358887, 4196.410156, 2109.000000, 8196.000000, 8193.000000, 0.000000, 0.000000, 0.000000, 16311.000000, 204.615387, 4.000000, 4.000000, 4.000000, 4.000000, 4.000000, 4.000000, 4.000000, 4.000000, 4.000000, 4.000000, 4.000000, 4.000000, 4.000000, 4.000000, 4.000000, 4.000000
108.000000, 0.000000, 4176.922852, 4182.563965, 4201.025391, 4184.102539, 4170.769043, 4197.436035, 4198.974121, 4203.589844, 4190.256348, 4189.743652, 4183.589844, 4208.205078, 4171.281738, 4190.256348, 3479.000000, 8196.000000, 8193.000000, 0.000000, 0.000000, 0.000000, 16311.000000, 212.307693, 4.000000, 4.000000, 4.000000, 4.000000, 4.000000, 4.000000, 4.000000, 4.000000, 4.000000, 4.000000, 4.000000, 4.000000, 4.000000, 4.000000, 4.000000, 4.000000
109.000000, 0.000000, 4180.000000, 4182.051270, 4199.487305, 4185.127930, 4180.000000, 4198.974121, 4200.000000, 4194.358887, 4191.281738, 4181.025391, 4182.051270, 4213.333008, 4168.717773, 4195.384277, 2369.000000, 8191.000000, 8194.000000, 0.000000, 0.000000, 0.000000, 16311.000000, 220.000000, 4.000000, 4.000000, 4.000000, 4.000000, 4.000000, 4.000000, 4.000000, 4.000000, 4.000000, 4.000000, 4.000000, 4.000000, 4.000000, 4.000000, 4.000000, 4.000000
110.000000, 0.000000, 4174.871582, 4171.281738, 4193.846191, 4184.615234, 4194.871582, 4200.512695, 4203.589844, 4193.333008, 4188.717773, 4183.076660, 4182.563965, 4205.641113, 4168.205078, 4192.820313, 3192.000000, 8191.000000, 8194.000000, 0.000000, 0.000000, 0.000000, 16311.000000, 228.205124, 4.000000, 4.000000, 4.000000, 4.000000, 4.000000, 4.000000, 4.000000, 4.000000, 4.000000, 4.000000, 4.000000, 4.000000, 4.000000, 4.000000, 4.000000, 4.000000
111.000000, 0.000000, 4169.743652, 4169.743652, 4198.461426, 4184.102539, 4185.127930, 4195.384277, 4193.846191, 4194.871582, 4186.666504, 4183.076660, 4183.589844, 4202.051270, 4175.897461, 4195.897461, 2109.000000, 8192.000000, 8188.000000, 0.000000, 0.000000, 0.000000, 16311.000000, 235.897430, 4.000000, 4.000000, 4.000000, 4.000000, 4.000000, 4.000000, 4.000000, 4.000000, 4.000000, 4.000000, 4.000000, 4.000000, 4.000000, 4.000000, 4.000000, 4.000000
112.000000, 0.000000, 4171.794922, 4181.538574, 4206.153809, 4187.692383, 4181.538574, 4190.769043, 4184.102539, 4200.512695, 4193.846191, 4185.127930, 4187.692383, 4210.256348, 4185.127930, 4204.102539, 3479.000000, 8192.000000, 8188.000000, 0.000000, 0.000000, 0.000000, 16311.000000, 243.589737, 4.000000, 4.000000, 4.000000, 4.000000, 4.000000, 4.000000, 4.000000, 4.000000, 4.000000, 4.000000, 4.000000, 4.000000, 4.000000, 4.000000, 4.000000, 4.000000
113.000000, 0.000000, 4176.922852, 4178.461426, 4202.051270, 4184.615234, 4188.205078, 4192.820313, 4183.076660, 4202.563965, 4193.333008, 4190.256348, 4189.743652, 4212.820313, 4182.563965, 4198.461426, 2369.000000, 8198.000000, 8179.000000, 0.000000, 0.000000, 0.000000, 16311.000000, 251.282043, 4.000000, 4.000000, 4.000000, 4.000000, 4.000000, 4.000000, 4.000000, 4.000000, 4.000000, 4.000000, 4.000000, 4.000000, 4.000000, 4.000000, 4.000000, 4.000000
114.000000, 0.000000, 4183.076660, 4172.820313, 4204.615234, 4186.153809, 4182.051270, 4197.436035, 4188.205078, 4198.461426, 4189.743652, 4195.897461, 4193.846191, 4212.820313, 4182.051270, 4202.051270, 3192.000000, 8198.000000, 8179.000000, 0.000000, 0.000000, 0.000000, 16311.000000, 258.974365, 4.000000, 4.000000, 4.000000, 4.000000, 4.000000, 4.000000, 4.000000, 4.000000, 4.000000, 4.000000, 4.000000, 4.000000, 4.000000, 4.000000, 4.000000, 4.000000
115.000000, 0.000000, 4190.769043, 4186.153809, 4217.436035, 4201.025391, 4185.127930, 4202.051270, 4202.051270, 4208.205078, 4207.179199, 4208.205078, 4208.205078, 4212.820313, 4196.410156, 4207.179199, 2109.000000, 8199.000000, 8175.000000, 0.000000, 0.000000, 0.000000, 16311.000000, 266.666656, 4.000000, 4.000000, 4.000000, 4.000000, 4.000000, 4.000000, 4.000000, 4.000000, 4.000000, 4.000000, 4.000000, 4.000000, 4.000000, 4.000000, 4.000000, 4.000000
116.000000, 0.000000, 4197.948730, 4195.384277, 4224.615234, 4205.127930, 4200.000000, 4202.563965, 4209.230469, 4221.025391, 4221.025391, 4216.922852, 4217.948730, 4227.179199, 4200.000000, 4208.717773, 3479.000000, 8199.000000, 8175.000000, 0.000000, 0.000000, 0.000000, 16311.000000, 274.871796, 4.000000, 4.000000, 4.000000, 4.000000, 4.000000, 4.000000, 4.000000, 4.000000, 4.000000, 4.000000, 4.000000, 4.000000, 4.000000, 4.000000, 4.000000, 4.000000
117.000000, 0.000000, 4199.487305, 4192.307617, 4222.563965, 4197.436035, 4192.820313, 4201.538574, 4203.076660, 4216.410156, 4213.333008, 4216.922852, 4217.948730, 4236.410156, 4194.871582, 4209.743652, 2369.000000, 8203.000000, 8176.000000, 0.000000, 0.000000, 0.000000, 16311.000000, 282.564087, 4.000000, 4.000000, 4.000000, 4.000000, 4.000000, 4.000000, 4.000000, 4.000000, 4.000000, 4.000000, 4.000000, 4.000000, 4.000000, 4.000000, 4.000000, 4.000000
118.000000, 0.000000, 4202.563965, 4196.410156, 4221.538574, 4198.461426, 4182.051270, 4205.641113, 4200.512695, 4214.871582, 4211.281738, 4221.025391, 4219.487305, 4229.230469, 4198.461426, 4204.615234, 3192.000000, 8203.000000, 8176.000000, 0.000000, 0.000000, 0.000000, 16311.000000, 290.256409, 4.000000, 4.000000, 4.000000, 4.000000, 4.000000, 4.000000, 4.000000, 4.000000, 4.000000, 4.000000, 4.000000, 4.000000, 4.000000, 4.000000, 4.000000, 4.000000
119.000000, 0.000000, 4202.563965, 4194.358887, 4224.102539, 4202.563965, 4192.307617, 4205.641113, 4210.256348, 4216.410156, 4212.820313, 4221.025391, 4222.051270, 4229.230469, 4196.410156, 4207.179199, 2109.000000, 8204.000000, 8171.000000, 0.000000, 0.000000, 0.000000, 16311.000000, 297.948700, 4.000000, 4.000000, 4.000000, 4.000000, 4.000000, 4.000000, 4.000000, 4.000000, 4.000000, 4.000000, 4.000000, 4.000000, 4.000000, 4.000000, 4.000000, 4.000000
120.000000, 0.000000, 4198.461426, 4187.179199, 4223.076660, 4202.051270, 4201.025391, 4198.974121, 4208.717773, 4207.179199, 4207.692383, 4215.897461, 4220.000000, 4228.205078, 4189.230469, 4206.153809, 3479.000000, 8204.000000, 8171.000000, 0.000000, 0.000000, 0.000000, 16311.000000, 305.641022, 4.000000, 4.000000, 4.000000, 4.000000, 4.000000, 4.000000, 4.000000, 4.000000, 4.000000, 4.000000, 4.000000, 4.000000, 4.000000, 4.000000, 4.000000, 4.000000
121.000000, 0.000000, 4196.922852, 4191.281738, 4218.461426, 4199.487305, 4200.000000, 4194.871582, 4196.410156, 4198.974121, 4200.512695, 4210.769043, 4213.846191, 4225.641113, 4186.666504, 4200.512695, 2369.000000, 8207.000000, 8163.000000, 0.000000, 0.000000, 0.000000, 16311.000000, 313.846161, 4.000000, 4.000000, 4.000000, 4.000000, 4.000000, 4.000000, 4.000000, 4.000000, 4.000000, 4.000000, 4.000000, 4.000000, 4.000000, 4.000000, 4.000000, 4.000000
122.000000, 0.000000, 4195.897461, 4200.000000, 4218.461426, 4200.512695, 4197.948730, 4198.974121, 4194.871582, 4202.051270, 4201.538574, 4205.127930, 4209.230469, 4218.974121, 4188.717773, 4203.076660, 3192.000000, 8207.000000, 8163.000000, 0.000000, 0.000000, 0.000000, 16311.000000, 321.538452, 4.000000, 4.000000, 4.000000, 4.000000, 4.000000, 4.000000, 4.000000, 4.000000, 4.000000, 4.000000, 4.000000, 4.000000, 4.000000, 4.000000, 4.000000, 4.000000
123.000000, 0.000000, 4196.410156, 4203.076660, 4218.974121, 4209.230469, 4190.769043, 4199.487305, 4194.871582, 4205.127930, 4204.615234, 4207.179199, 4210.769043, 4209.743652, 4188.205078, 4198.974121, 2109.000000, 8206.000000, 8163.000000, 0.000000, 0.000000, 0.000000, 16311.000000, 329.230774, 4.000000, 4.000000, 4.000000, 4.000000, 4.000000, 4.000000, 4.000000, 4.000000, 4.000000, 4.000000, 4.000000, 4.000000, 4.000000, 4.000000, 4.000000, 4.000000
124.000000, 0.000000, 4195.897461, 4204.615234, 4217.436035, 4212.307617, 4189.743652, 4196.922852, 4194.871582, 4202.051270, 4202.051270, 4213.846191, 4210.256348, 4213.846191, 4187.179199, 4198.974121, 3479.000000, 8206.000000, 8163.000000, 0.000000, 0.000000, 0.000000, 16311.000000, 336.923065, 4.000000, 4.000000, 4.000000, 4.000000, 4.000000, 4.000000, 4.000000, 4.000000, 4.000000, 4.000000, 4.000000, 4.000000, 4.000000, 4.000000, 4.000000, 4.000000
125.000000, 0.000000, 4195.384277, 4207.179199, 4216.922852, 4207.692383, 4203.076660, 4207.179199, 4202.051270, 4196.410156, 4198.974121, 4211.794922, 4204.102539, 4212.307617, 4189.230469, 4201.025391, 2369.000000, 8208.000000, 8161.000000, 0.000000, 0.000000, 0.000000, 16311.000000, 344.615387, 4.000000, 4.000000, 4.000000, 4.000000, 4.000000, 4.000000, 4.000000, 4.000000, 4.000000, 4.000000, 4.000000, 4.000000, 4.000000, 4.000000, 4.000000, 4.000000
126.000000, 0.000000, 4201.025391, 4204.102539, 4221.538574, 4210.256348, 4208.717773, 4213.846191, 4205.127930, 4200.512695, 4205.641113, 4211.794922, 4206.666504, 4214.871582, 4196.922852, 4201.538574, 3192.000000, 8208.000000, 8161.000000, 0.000000, 0.000000, 0.000000, 16311.000000, 352.820496, 4.000000, 4.000000, 4.000000, 4.000000, 4.000000, 4.000000, 4.000000, 4.000000, 4.000000, 4.000000, 4.000000, 4.000000, 4.000000, 4.000000, 4.000000, 4.000000
127.000000, 0.000000, 4206.153809, 4203.076660, 4227.692383, 4217.436035, 4198.461426, 4204.615234, 4192.820313, 4215.384277, 4215.897461, 4220.000000, 4215.384277, 4221.538574, 4203.589844, 4206.666504, 55.000000, 8211.000000, 8160.000000, 0.000000, 0.000000, 0.000000, 16311.000000, 360.512817, 4.000000, 4.000000, 4.000000, 4.000000, 4.000000, 4.000000, 4.000000, 4.000000, 4.000000, 4.000000, 4.000000, 4.000000, 4.000000, 4.000000, 4.000000, 4.000000
0.000000, 0.000000, 4208.205078, 4206.666504, 4225.641113, 4216.922852, 4199.487305, 4196.922852, 4186.666504, 4215.384277, 4210.256348, 4221.538574, 4216.410156, 4216.410156, 4202.563965, 4200.512695, 3305.000000, 8211.000000, 8160.000000, 0.000000, 0.000000, 0.000000, 16311.000000, 368.205109, 4.000000, 4.000000, 4.000000, 4.000000, 4.000000, 4.000000, 4.000000, 4.000000, 4.000000, 4.000000, 4.000000, 4.000000, 4.000000, 4.000000, 4.000000, 4.000000
1.000000, 0.000000, 4209.743652, 4206.153809, 4225.127930, 4214.871582, 4200.512695, 4203.076660, 4200.512695, 4210.256348, 4203.589844, 4217.436035, 4214.871582, 4224.102539, 4202.051270, 4202.563965, 3535.000000, 8212.000000, 8161.000000, 0.000000, 0.000000, 0.000000, 16311.000000, 375.897430, 4.000000, 4.000000, 4.000000, 4.000000, 4.000000, 4.000000, 4.000000, 4.000000, 4.000000, 4.000000, 4.000000, 4.000000, 4.000000, 4.000000, 4.000000, 4.000000
2.000000, 0.000000, 4209.230469, 4204.615234, 4224.102539, 4214.871582, 4182.563965, 4205.127930, 4205.641113, 4214.871582, 4208.205078, 4212.307617, 4217.436035, 4226.153809, 4200.000000, 4207.179199, 2788.000000, 8212.000000, 8161.000000, 0.000000, 0.000000, 0.000000, 16311.000000, 383.589722, 4.000000, 4.000000, 4.000000, 4.000000, 4.000000, 4.000000, 4.000000, 4.000000, 4.000000, 4.000000, 4.000000, 4.000000, 4.000000, 4.000000, 4.000000, 4.000000
3.000000, 0.000000, 4202.563965, 4206.153809, 4215.897461, 4211.794922, 4177.948730, 4197.436035, 4193.333008, 4208.717773, 4202.563965, 4205.127930, 4214.871582, 4215.384277, 4196.922852, 4201.025391, 3556.000000, 8211.000000, 8163.000000, 0.000000, 0.000000, 0.000000, 16311.000000, 391.794861, 4.000000, 4.000000, 4.000000, 4.000000, 4.000000, 4.000000, 4.000000, 4.000000, 4.000000, 4.000000, 4.000000, 4.000000, 4.000000, 4.000000, 4.000000, 4.000000
4.000000, 0.000000, 4203.076660, 4214.358887, 4216.410156, 4215.384277, 4202.051270, 4202.051270, 4195.384277, 4197.436035, 4194.871582, 4206.153809, 4217.436035, 4217.436035, 4200.000000, 4207.692383, 3538.000000, 8211.000000, 8163.000000, 0.000000, 0.000000, 0.000000, 16311.000000, 399.487183, 4.000000, 4.000000, 4.000000, 4.000000, 4.000000, 4.000000, 4.000000, 4.000000, 4.000000, 4.000000, 4.000000, 4.000000, 4.000000, 4.000000, 4.000000, 4.000000
5.000000, 0.000000, 4215.384277, 4220.512695, 4223.589844, 4220.512695, 4214.358887, 4212.307617, 4208.205078, 4198.974121, 4201.025391, 4209.743652, 4222.051270, 4216.922852, 4202.051270, 4208.717773, 3537.000000, 8209.000000, 8159.000000, 0.000000, 0.000000, 0.000000, 16311.000000, 407.179474, 4.000000, 4.000000, 4.000000, 4.000000, 4.000000, 4.000000, 4.000000, 4.000000, 4.000000, 4.000000, 4.000000, 4.000000, 4.000000, 4.000000, 4.000000, 4.000000
6.000000, 0.000000, 4216.922852, 4217.948730, 4224.615234, 4217.948730, 4200.000000, 4209.230469, 4203.589844, 4200.512695, 4201.538574, 4207.179199, 4217.948730, 4215.384277, 4200.512695, 4206.666504, 3465.000000, 8209.000000, 8159.000000, 0.000000, 0.000000, 0.000000, 16311.000000, 414.871796, 4.000000, 4.000000, 4.000000, 4.000000, 4.000000, 4.000000, 4.000000, 4.000000, 4.000000, 4.000000, 4.000000, 4.000000, 4.000000, 4.000000, 4.000000, 4.000000
7.000000, 0.000000, 4212.307617, 4216.922852, 4218.461426, 4214.871582, 4200.512695, 4200.512695, 4195.384277, 4196.410156, 4196.922852, 4210.769043, 4214.358887, 4214.358887, 4199.487305, 4206.666504, 3206.000000, 8208.000000, 8160.000000, 0.000000, 0.000000, 0.000000, 16311.000000, 422.564087, 4.000000, 4.000000, 4.000000, 4.000000, 4.000000, 4.000000, 4.000000, 4.000000, 4.000000, 4.000000, 4.000000, 4.000000, 4.000000, 4.000000, 4.000000, 4.000000
8.000000, 0.000000, 4220.000000, 4217.948730, 4216.410156, 4216.410156, 4203.589844, 4198.974121, 4190.769043, 4201.025391, 4201.025391, 4216.410156, 4216.922852, 4211.281738, 4200.512695, 4204.102539, 3541.000000, 8208.000000, 8160.000000, 0.000000, 0.000000, 0.000000, 16311.000000, 430.256409, 4.000000, 4.000000, 4.000000, 4.000000, 4.000000, 4.000000, 4.000000, 4.000000, 4.000000, 4.000000, 4.000000, 4.000000, 4.000000, 4.000000, 4.000000, 4.000000
9.000000, 0.000000, 4226.666504, 4214.358887, 4221.538574, 4214.358887, 4186.666504, 4202.051270, 4189.743652, 4203.076660, 4199.487305, 4211.794922, 4214.871582, 4210.769043, 4199.487305, 4207.179199, 3537.000000, 8201.000000, 8169.000000, 0.000000, 0.000000, 0.000000, 16311.000000, 438.461517, 4.000000, 4.000000, 4.000000, 4.000000, 4.000000, 4.000000, 4.000000, 4.000000, 4.000000, 4.000000, 4.000000, 4.000000, 4.000000, 4.000000, 4.000000, 4.000000
10.000000, 0.000000, 4229.743652, 4215.384277, 4225.641113, 4214.871582, 4189.230469, 4202.051270, 4198.974121, 4199.487305, 4196.922852, 4210.256348, 4215.897461, 4211.794922, 4201.025391, 4207.692383, 3192.000000, 8201.000000, 8169.000000, 0.000000, 0.000000, 0.000000, 16311.000000, 446.153839, 4.000000, 4.000000, 4.000000, 4.000000, 4.000000, 4.000000, 4.000000, 4.000000, 4.000000, 4.000000, 4.000000, 4.000000, 4.000000, 4.000000, 4.000000, 4.000000
11.000000, 0.000000, 4235.897461, 4216.410156, 4226.666504, 4215.384277, 4210.256348, 4200.512695, 4202.563965, 4207.692383, 4204.615234, 4216.410156, 4227.179199, 4226.153809, 4208.717773, 4209.230469, 2108.000000, 8206.000000, 8168.000000, 0.000000, 0.000000, 0.000000, 16311.000000, 453.846130, 4.000000, 4.000000, 4.000000, 4.000000, 4.000000, 4.000000, 4.000000, 4.000000, 4.000000, 4.000000, 4.000000, 4.000000, 4.000000, 4.000000, 4.000000, 4.000000
12.000000, 0.000000, 4231.281738, 4203.589844, 4226.153809, 4206.153809, 4208.205078, 4202.563965, 4193.846191, 4220.000000, 4207.692383, 4217.948730, 4229.743652, 4231.281738, 4209.230469, 4204.615234, 3480.000000, 8206.000000, 8168.000000, 0.000000, 0.000000, 0.000000, 16311.000000, 461.538452, 4.000000, 4.000000, 4.000000, 4.000000, 4.000000, 4.000000, 4.000000, 4.000000, 4.000000, 4.000000, 4.000000, 4.000000, 4.000000, 4.000000, 4.000000, 4.000000
13.000000, 0.000000, 4228.205078, 4198.461426, 4225.127930, 4199.487305, 4197.948730, 4207.692383, 4196.922852, 4216.922852, 4205.127930, 4217.436035, 4224.102539, 4226.153809, 4201.538574, 4199.487305, 2364.000000, 8200.000000, 8177.000000, 0.000000, 0.000000, 0.000000, 16311.000000, 469.230743, 4.000000, 4.000000, 4.000000, 4.000000, 4.000000, 4.000000, 4.000000, 4.000000, 4.000000, 4.000000, 4.000000, 4.000000, 4.000000, 4.000000, 4.000000, 4.000000
14.000000, 0.000000, 4235.384277, 4208.205078, 4227.179199, 4206.666504, 4198.974121, 4207.692383, 4209.230469, 4203.589844, 4201.538574, 4216.922852, 4222.051270, 4228.717773, 4201.025391, 4207.692383, 3192.000000, 8200.000000, 8177.000000, 0.000000, 0.000000, 0.000000, 16311.000000, 477.435883, 4.000000, 4.000000, 4.000000, 4.000000, 4.000000, 4.000000, 4.000000, 4.000000, 4.000000, 4.000000, 4.000000, 4.000000, 4.000000, 4.000000, 4.000000, 4.000000
15.000000, 0.000000, 4238.461426, 4205.127930, 4225.641113, 4209.743652, 4194.871582, 4200.512695, 4202.563965, 4198.461426, 4192.307617, 4210.769043, 4215.384277, 4220.000000, 4204.102539, 4202.563965, 2108.000000, 8205.000000, 8176.000000, 0.000000, 0.000000, 0.000000, 16311.000000, 485.128204, 4.000000, 4.000000, 4.000000, 4.000000, 4.000000, 4.000000, 4.000000, 4.000000, 4.000000, 4.000000, 4.000000, 4.000000, 4.000000, 4.000000, 4.000000, 4.000000
16.000000, 0.000000, 4235.384277, 4202.051270, 4224.102539, 4208.205078, 4194.871582, 4197.436035, 4189.230469, 4201.538574, 4187.179199, 4200.512695, 4203.076660, 4217.948730, 4196.410156, 4196.922852, 0.000000, 8205.000000, 8176.000000, 0.000000, 0.000000, 0.000000, 16311.000000, 492.820496, 4.000000, 4.000000, 4.000000, 4.000000, 4.000000, 4.000000, 4.000000, 4.000000, 4.000000, 4.000000, 4.000000, 4.000000, 4.000000, 4.000000, 4.000000, 4.000000
17.000000, 0.000000, 4233.846191, 4218.461426, 4228.717773, 4215.897461, 4204.102539, 4201.538574, 4186.666504, 4203.589844, 4194.358887, 4202.051270, 4201.025391, 4219.487305, 4195.897461, 4204.102539, 0.000000, 8207.000000, 8175.000000, 0.000000, 0.000000, 0.000000, 16311.000000, 500.512817, 4.000000, 4.000000, 4.000000, 4.000000, 4.000000, 4.000000, 4.000000, 4.000000, 4.000000, 4.000000, 4.000000, 4.000000, 4.000000, 4.000000, 4.000000, 4.000000
18.000000, 0.000000, 4238.974121, 4228.205078, 4231.794922, 4222.051270, 4205.641113, 4208.205078, 4195.897461, 4205.641113, 4204.102539, 4210.769043, 4207.179199, 4215.384277, 4204.102539, 4203.076660, 0.000000, 8207.000000, 8175.000000, 0.000000, 0.000000, 0.000000, 16311.000000, 508.205109, 4.000000, 4.000000, 4.000000, 4.000000, 4.000000, 4.000000, 4.000000, 4.000000, 4.000000, 4.000000, 4.000000, 4.000000, 4.000000, 4.000000, 4.000000, 4.000000
19.000000, 0.000000, 4238.461426, 4210.769043, 4225.641113, 4215.897461, 4205.127930, 4208.717773, 4204.102539, 4205.127930, 4197.436035, 4205.641113, 4198.461426, 4214.871582, 4192.820313, 4201.025391, 0.000000, 8206.000000, 8173.000000, 0.000000, 0.000000, 0.000000, 16311.000000, 515.897400, 4.000000, 4.000000, 4.000000, 4.000000, 4.000000, 4.000000, 4.000000, 4.000000, 4.000000, 4.000000, 4.000000, 4.000000, 4.000000, 4.000000, 4.000000, 4.000000
20.000000, 0.000000, 4227.692383, 4200.000000, 4218.461426, 4213.846191, 4209.743652, 4197.948730, 4193.333008, 4197.948730, 4185.127930, 4199.487305, 4192.307617, 4204.615234, 4183.589844, 4198.461426, 0.000000, 8206.000000, 8173.000000, 0.000000, 0.000000, 0.000000, 16311.000000, 524.102539, 4.000000, 4.000000, 4.000000, 4.000000, 4.000000, 4.000000, 4.000000, 4.000000, 4.000000, 4.000000, 4.000000, 4.000000, 4.000000, 4.000000, 4.000000, 4.000000
21.000000, 0.000000, 4229.230469, 4212.820313, 4223.076660, 4218.461426, 4209.743652, 4194.358887, 4180.512695, 4196.922852, 4187.692383, 4208.205078, 4206.666504, 4205.127930, 4200.512695, 4202.051270, 0.000000, 8206.000000, 8178.000000, 0.000000, 0.000000, 0.000000, 16311.000000, 531.794861, 4.000000, 4.000000, 4.000000, 4.000000, 4.000000, 4.000000, 4.000000, 4.000000, 4.000000, 4.000000, 4.000000, 4.000000, 4.000000, 4.000000, 4.000000, 4.000000
22.000000, 0.000000, 4239.487305, 4223.589844, 4229.743652, 4220.512695, 4206.666504, 4210.256348, 4190.769043, 4204.102539, 4196.410156, 4211.794922, 4214.358887, 4215.384277, 4209.743652, 4207.692383, 0.000000, 8206.000000, 8178.000000, 0.000000, 0.000000, 0.000000, 16311.000000, 539.487183, 4.000000, 4.000000, 4.000000, 4.000000, 4.000000, 4.000000, 4.000000, 4.000000, 4.000000, 4.000000, 4.000000, 4.000000, 4.000000, 4.000000, 4.000000, 4.000000
23.000000, 0.000000, 4240.512695, 4220.000000, 4227.179199, 4220.000000, 4198.974121, 4218.461426, 4204.615234, 4199.487305, 4189.743652, 4203.076660, 4203.076660, 4215.384277, 4197.948730, 4202.563965, 0.000000, 8206.000000, 8180.000000, 0.000000, 0.000000, 0.000000, 16311.000000, 547.179443, 4.000000, 4.000000, 4.000000, 4.000000, 4.000000, 4.000000, 4.000000, 4.000000, 4.000000, 4.000000, 4.000000, 4.000000, 4.000000, 4.000000, 4.000000, 4.000000
24.000000, 0.000000, 4230.769043, 4209.230469, 4223.589844, 4211.794922, 4183.589844, 4206.153809, 4196.922852, 4189.743652, 4179.487305, 4198.461426, 4196.922852, 4214.358887, 4196.410156, 4204.615234, 0.000000, 8206.000000, 8180.000000, 0.000000, 0.000000, 0.000000, 16311.000000, 554.871765, 4.000000, 4.000000, 4.000000, 4.000000, 4.000000, 4.000000, 4.000000, 4.000000, 4.000000, 4.000000, 4.000000, 4.000000, 4.000000, 4.000000, 4.000000, 4.000000
25.000000, 0.000000, 4225.127930, 4203.076660, 4220.000000, 4202.563965, 4189.743652, 4197.948730, 4189.743652, 4187.692383, 4183.589844, 4202.051270, 4200.000000, 4204.102539, 4202.051270, 4202.563965, 0.000000, 8203.000000, 8181.000000, 0.000000, 0.000000, 0.000000, 16311.000000, 562.564087, 4.000000, 4.000000, 4.000000, 4.000000, 4.000000, 4.000000, 4.000000, 4.000000, 4.000000, 4.000000, 4.000000, 4.000000, 4.000000, 4.000000, 4.000000, 4.000000
26.000000, 0.000000, 4226.153809, 4202.563965, 4215.384277, 4202.051270, 4210.769043, 4203.589844, 4194.871582, 4185.641113, 4185.641113, 4199.487305, 4191.794922, 4197.436035, 4192.307617, 4197.436035, 0.000000, 8203.000000, 8181.000000, 0.000000, 0.000000, 0.000000, 16311.000000, 570.769226, 4.000000, 4.000000, 4.000000, 4.000000, 4.000000, 4.000000, 4.000000, 4.000000, 4.000000, 4.000000, 4.000000, 4.000000, 4.000000, 4.000000, 4.000000, 4.000000
27.000000, 0.000000, 4224.615234, 4200.000000, 4212.820313, 4205.127930, 4204.615234, 4207.692383, 4196.922852, 4185.127930, 4180.000000, 4191.794922, 4179.487305, 4200.000000, 4185.127930, 4201.025391, 0.000000, 8186.000000, 8187.000000, 0.000000, 0.000000, 0.000000, 16311.000000, 578.461548, 4.000000, 4.000000, 4.000000, 4.000000, 4.000000, 4.000000, 4.000000, 4.000000, 4.000000, 4.000000, 4.000000, 4.000000, 4.000000, 4.000000, 4.000000, 4.000000
28.000000, 0.000000, 4221.538574, 4195.897461, 4207.692383, 4203.076660, 4189.230469, 4197.948730, 4186.153809, 4180.000000, 4172.307617, 4186.666504, 4177.436035, 4193.333008, 4186.153809, 4195.897461, 0.000000, 8186.000000, 8187.000000, 0.000000, 0.000000, 0.000000, 16311.000000, 586.153809, 4.000000, 4.000000, 4.000000, 4.000000, 4.000000, 4.000000, 4.000000, 4.000000, 4.000000, 4.000000, 4.000000, 4.000000, 4.000000, 4.000000, 4.000000, 4.000000
29.000000, 0.000000, 4218.974121, 4194.871582, 4205.641113, 4196.922852, 4192.820313, 4185.641113, 4172.820313, 4171.794922, 4165.127930, 4182.051270, 4183.076660, 4194.871582, 4186.153809, 4200.512695, 0.000000, 8183.000000, 8187.000000, 0.000000, 0.000000, 0.000000, 16311.000000, 593.846130, 4.000000, 4.000000, 4.000000, 4.000000, 4.000000, 4.000000, 4.000000, 4.000000, 4.000000, 4.000000, 4.000000, 4.000000, 4.000000, 4.000000, 4.000000, 4.000000
30.000000, 0.000000, 4224.102539, 4203.076660, 4209.230469, 4197.948730, 4193.333008, 4189.743652, 4175.384277, 4177.948730, 4174.871582, 4185.127930, 4195.384277, 4202.563965, 4195.897461, 4209.230469, 0.000000, 8183.000000, 8187.000000, 0.000000, 0.000000, 0.000000, 16311.000000, 601.538452, 4.000000, 4.000000, 4.000000, 4.000000, 4.000000, 4.000000, 4.000000, 4.000000, 4.000000, 4.000000, 4.000000, 4.000000, 4.000000, 4.000000, 4.000000, 4.000000
31.000000, 0.000000, 4234.358887, 4207.692383, 4214.358887, 4203.076660, 4186.666504, 4197.948730, 4183.589844, 4191.794922, 4190.769043, 4198.974121, 4205.641113, 4208.717773, 4206.153809, 4207.692383, 0.000000, 8179.000000, 8185.000000, 0.000000, 0.000000, 0.000000, 16311.000000, 609.230774, 4.000000, 4.000000, 4.000000, 4.000000, 4.000000, 4.000000, 4.000000, 4.000000, 4.000000, 4.000000, 4.000000, 4.000000, 4.000000, 4.000000, 4.000000, 4.000000
32.000000, 0.000000, 4232.307617, 4203.076660, 4214.871582, 4200.512695, 4196.410156, 4192.307617, 4185.127930, 4189.743652, 4186.666504, 4200.512695, 4201.025391, 4206.153809, 4198.461426, 4205.127930, 0.000000, 8179.000000, 8185.000000, 0.000000, 0.000000, 0.000000, 16311.000000, 617.435852, 4.000000, 4.000000, 4.000000, 4.000000, 4.000000, 4.000000, 4.000000, 4.000000, 4.000000, 4.000000, 4.000000, 4.000000, 4.000000, 4.000000, 4.000000, 4.000000
33.000000, 0.000000, 4226.153809, 4202.051270, 4209.230469, 4197.948730, 4206.153809, 4193.333008, 4187.179199, 4187.692383, 4179.487305, 4186.153809, 4193.846191, 4198.974121, 4193.333008, 4200.000000, 0.000000, 8174.000000, 8188.000000, 0.000000, 0.000000, 0.000000, 16311.000000, 625.128174, 4.000000, 4.000000, 4.000000, 4.000000, 4.000000, 4.000000, 4.000000, 4.000000, 4.000000, 4.000000, 4.000000, 4.000000, 4.000000, 4.000000, 4.000000, 4.000000
34.000000, 0.000000, 4228.717773, 4199.487305, 4208.205078, 4201.025391, 4197.436035, 4205.641113, 4202.563965, 4205.641113, 4193.333008, 4191.281738, 4199.487305, 4208.205078, 4202.051270, 4203.589844, 0.000000, 8174.000000, 8188.000000, 0.000000, 0.000000, 0.000000, 16311.000000, 632.820496, 4.000000, 4.000000, 4.000000, 4.000000, 4.000000, 4.000000, 4.000000, 4.000000, 4.000000, 4.000000, 4.000000, 4.000000, 4.000000, 4.000000, 4.000000, 4.000000
35.000000, 0.000000, 4224.615234, 4188.717773, 4206.666504, 4195.384277, 4189.230469, 4202.563965, 4211.281738, 4209.743652, 4203.589844, 4207.692383, 4203.589844, 4209.230469, 4200.512695, 4204.102539, 0.000000, 8175.000000, 8185.000000, 0.000000, 0.000000, 0.000000, 16311.000000, 640.512817, 4.000000, 4.000000, 4.000000, 4.000000, 4.000000, 4.000000, 4.000000, 4.000000, 4.000000, 4.000000, 4.000000, 4.000000, 4.000000, 4.000000, 4.000000, 4.000000
36.000000, 0.000000, 4220.512695, 4191.794922, 4203.076660, 4186.666504, 4196.922852, 4197.436035, 4206.153809, 4201.025391, 4201.538574, 4206.153809, 4200.512695, 4200.512695, 4196.922852, 4199.487305, 0.000000, 8175.000000, 8185.000000, 0.000000, 0.000000, 0.000000, 16311.000000, 648.205139, 4.000000, 4.000000, 4.000000, 4.000000, 4.000000, 4.000000, 4.000000, 4.000000, 4.000000, 4.000000, 4.000000, 4.000000, 4.000000, 4.000000, 4.000000, 4.000000
37.000000, 0.000000, 4218.974121, 4197.948730, 4207.179199, 4186.666504, 4200.512695, 4203.589844, 4203.589844, 4208.717773, 4203.589844, 4200.512695, 4200.512695, 4201.538574, 4201.538574, 4204.102539, 0.000000, 8177.000000, 8184.000000, 0.000000, 0.000000, 0.000000, 16311.000000, 655.897400, 4.000000, 4.000000, 4.000000, 4.000000, 4.000000, 4.000000, 4.000000, 4.000000, 4.000000, 4.000000, 4.000000, 4.000000, 4.000000, 4.000000, 4.000000, 4.000000
38.000000, 0.000000, 4214.871582, 4187.692383, 4207.692383, 4186.666504, 4186.153809, 4200.000000, 4194.871582, 4211.281738, 4197.948730, 4204.102539, 4198.461426, 4197.948730, 4194.871582, 4200.000000, 0.000000, 8177.000000, 8184.000000, 0.000000, 0.000000, 0.000000, 16311.000000, 664.102539, 4.000000, 4.000000, 4.000000, 4.000000, 4.000000, 4.000000, 4.000000, 4.000000, 4.000000, 4.000000, 4.000000, 4.000000, 4.000000, 4.000000, 4.000000, 4.000000
39.000000, 0.000000, 4215.897461, 4187.179199, 4208.205078, 4191.794922, 4183.076660, 4196.922852, 4188.205078, 4191.794922, 4183.589844, 4200.512695, 4192.820313, 4196.410156, 4187.179199, 4198.974121, 0.000000, 8181.000000, 8182.000000, 0.000000, 0.000000, 0.000000, 16311.000000, 671.794861, 4.000000, 4.000000, 4.000000, 4.000000, 4.000000, 4.000000, 4.000000, 4.000000, 4.000000, 4.000000, 4.000000, 4.000000, 4.000000, 4.000000, 4.000000, 4.000000
40.000000, 0.000000, 4223.076660, 4203.589844, 4217.436035, 4204.615234, 4208.717773, 4204.102539, 4193.333008, 4178.974121, 4181.538574, 4192.820313, 4192.307617, 4193.846191, 4197.436035, 4202.563965, 0.000000, 8181.000000, 8182.000000, 0.000000, 0.000000, 0.000000, 16311.000000, 679.487183, 4.000000, 4.000000, 4.000000, 4.000000, 4.000000, 4.000000, 4.000000, 4.000000, 4.000000, 4.000000, 4.000000, 4.000000, 4.000000, 4.000000, 4.000000, 4.000000
41.000000, 0.000000, 4224.615234, 4206.153809, 4219.487305, 4208.205078, 4220.000000, 4205.641113, 4201.025391, 4189.743652, 4187.692383, 4193.333008, 4191.794922, 4197.436035, 4202.051270, 4201.025391, 0.000000, 8190.000000, 8177.000000, 0.000000, 0.000000, 0.000000, 16311.000000, 687.179443, 4.000000, 4.000000, 4.000000, 4.000000, 4.000000, 4.000000, 4.000000, 4.000000, 4.000000, 4.000000, 4.000000, 4.000000, 4.000000, 4.000000, 4.000000, 4.000000
42.000000, 0.000000, 4215.897461, 4198.461426, 4207.692383, 4201.538574, 4202.563965, 4201.538574, 4197.948730, 4200.512695, 4182.563965, 4192.820313, 4187.179199, 4206.153809, 4189.743652, 4201.025391, 0.000000, 8190.000000, 8177.000000, 0.000000, 0.000000, 0.000000, 16311.000000, 694.871765, 4.000000, 4.000000, 4.000000, 4.000000, 4.000000, 4.000000, 4.000000, 4.000000, 4.000000, 4.000000, 4.000000, 4.000000, 4.000000, 4.000000, 4.000000, 4.000000
43.000000, 0.000000, 4208.205078, 4196.410156, 4193.846191, 4194.871582, 4193.846191, 4197.436035, 4188.205078, 4197.436035, 4175.897461, 4187.692383, 4182.563965, 4194.358887, 4182.563965, 4191.281738, 0.000000, 8206.000000, 8177.000000, 0.000000, 0.000000, 0.000000, 16311.000000, 702.564087, 4.000000, 4.000000, 4.000000, 4.000000, 4.000000, 4.000000, 4.000000, 4.000000, 4.000000, 4.000000, 4.000000, 4.000000, 4.000000, 4.000000, 4.000000, 4.000000
44.000000, 0.000000, 4205.127930, 4188.205078, 4192.820313, 4188.717773, 4203.589844, 4198.461426, 4187.692383, 4189.230469, 4173.846191, 4182.051270, 4176.922852, 4185.641113, 4183.589844, 4190.769043, 0.000000, 8206.000000, 8177.000000, 0.000000, 0.000000, 0.000000, 16311.000000, 710.769226, 4.000000, 4.000000, 4.000000, 4.000000, 4.000000, 4.000000, 4.000000, 4.000000, 4.000000, 4.000000, 4.000000, 4.000000, 4.000000, 4.000000, 4.000000, 4.000000
45.000000, 0.000000, 4205.641113, 4184.615234, 4197.436035, 4193.333008, 4201.025391, 4202.563965, 4188.717773, 4185.127930, 4173.333008, 4181.538574, 4174.871582, 4190.256348, 4187.179199, 4200.000000, 0.000000, 8210.000000, 8181.000000, 0.000000, 0.000000, 0.000000, 16311.000000, 718.461548, 4.000000, 4.000000, 4.000000, 4.000000, 4.000000, 4.000000, 4.000000, 4.000000, 4.000000, 4.000000, 4.000000, 4.000000, 4.000000, 4.000000, 4.000000, 4.000000
46.000000, 0.000000, 4212.820313, 4196.410156, 4198.974121, 4202.051270, 4187.179199, 4201.538574, 4189.230469, 4188.717773, 4177.436035, 4184.102539, 4175.384277, 4193.846191, 4186.666504, 4197.436035, 0.000000, 8210.000000, 8181.000000, 0.000000, 0.000000, 0.000000, 16311.000000, 726.153809, 4.000000, 4.000000, 4.000000, 4.000000, 4.000000, 4.000000, 4.000000, 4.000000, 4.000000, 4.000000, 4.000000, 4.000000, 4.000000, 4.000000, 4.000000, 4.000000
47.000000, 0.000000, 4213.846191, 4196.922852, 4202.051270, 4197.436035, 4191.281738, 4195.897461, 4195.897461, 4192.820313, 4177.948730, 4181.025391, 4174.871582, 4195.897461, 4181.538574, 4200.512695, 0.000000, 8208.000000, 8185.000000, 0.000000, 0.000000, 0.000000, 16311.000000, 733.846130, 4.000000, 4.000000, 4.000000, 4.000000, 4.000000, 4.000000, 4.000000, 4.000000, 4.000000, 4.000000, 4.000000, 4.000000, 4.000000, 4.000000, 4.000000, 4.000000
48.000000, 0.000000, 4216.410156, 4190.256348, 4212.820313, 4198.461426, 4207.692383, 4200.000000, 4199.487305, 4195.384277, 4181.025391, 4185.641113, 4184.102539, 4195.384277, 4189.230469, 4205.127930, 0.000000, 8208.000000, 8185.000000, 0.000000, 0.000000, 0.000000, 16311.000000, 741.538452, 4.000000, 4.000000, 4.000000, 4.000000, 4.000000, 4.000000, 4.000000, 4.000000, 4.000000, 4.000000, 4.000000, 4.000000, 4.000000, 4.000000, 4.000000, 4.000000
49.000000, 0.000000, 4226.666504, 4203.076660, 4223.589844, 4212.820313, 4207.179199, 4205.641113, 4192.820313, 4201.538574, 4186.666504, 4196.922852, 4196.922852, 4206.153809, 4203.076660, 4207.692383, 0.000000, 8212.000000, 8189.000000, 0.000000, 0.000000, 0.000000, 16311.000000, 749.743591, 4.000000, 4.000000, 4.000000, 4.000000, 4.000000, 4.000000, 4.000000, 4.000000, 4.000000, 4.000000, 4.000000, 4.000000, 4.000000, 4.000000, 4.000000, 4.000000
50.000000, 0.000000, 4227.692383, 4219.487305, 4219.487305, 4216.410156, 4199.487305, 4198.461426, 4183.589844, 4203.076660, 4186.153809, 4194.871582, 4195.897461, 4211.281738, 4198.974121, 4207.179199, 0.000000, 8212.000000, 8189.000000, 0.000000, 0.000000, 0.000000, 16311.000000, 757.435852, 4.000000, 4.000000, 4.000000, 4.000000, 4.000000, 4.000000, 4.000000, 4.000000, 4.000000, 4.000000, 4.000000, 4.000000, 4.000000, 4.000000, 4.000000, 4.000000
51.000000, 0.000000, 4229.230469, 4215.897461, 4213.846191, 4212.820313, 4204.102539, 4196.410156, 4183.589844, 4195.384277, 4186.153809, 4188.717773, 4191.281738, 4206.666504, 4191.281738, 4202.051270, 0.000000, 8203.000000, 8200.000000, 0.000000, 0.000000, 0.000000, 16311.000000, 765.128174, 4.000000, 4.000000, 4.000000, 4.000000, 4.000000, 4.000000, 4.000000, 4.000000, 4.000000, 4.000000, 4.000000, 4.000000, 4.000000, 4.000000, 4.000000, 4.000000
52.000000, 0.000000, 4232.307617, 4208.717773, 4221.538574, 4213.333008, 4197.948730, 4200.512695, 4187.692383, 4193.333008, 4190.769043, 4196.410156, 4197.436035, 4210.769043, 4200.000000, 4207.179199, 0.000000, 8203.000000, 8200.000000, 0.000000, 0.000000, 0.000000, 16311.000000, 772.820496, 4.000000, 4.000000, 4.000000, 4.000000, 4.000000, 4.000000, 4.000000, 4.000000, 4.000000, 4.000000, 4.000000, 4.000000, 4.000000, 4.000000, 4.000000, 4.000000
53.000000, 0.000000, 4227.692383, 4207.179199, 4222.051270, 4209.230469, 4183.589844, 4191.794922, 4183.076660, 4196.410156, 4193.333008, 4203.076660, 4201.538574, 4205.127930, 4204.615234, 4203.589844, 0.000000, 8201.000000, 8205.000000, 0.000000, 0.000000, 0.000000, 16311.000000, 780.512817, 4.000000, 4.000000, 4.000000, 4.000000, 4.000000, 4.000000, 4.000000, 4.000000, 4.000000, 4.000000, 4.000000, 4.000000, 4.000000, 4.000000, 4.000000, 4.000000
54.000000, 0.000000, 4223.589844, 4198.974121, 4215.897461, 4204.102539, 4188.717773, 4182.563965, 4176.410156, 4190.769043, 4190.769043, 4196.922852, 4196.410156, 4205.127930, 4193.333008, 4197.436035, 0.000000, 8201.000000, 8205.000000, 0.000000, 0.000000, 0.000000, 16311.000000, 788.205139, 4.000000, 4.000000, 4.000000, 4.000000, 4.000000, 4.000000, 4.000000, 4.000000, 4.000000, 4.000000, 4.000000, 4.000000, 4.000000, 4.000000, 4.000000, 4.000000
55.000000, 0.000000, 4223.589844, 4196.410156, 4222.051270, 4204.102539, 4203.076660, 4186.153809, 4180.512695, 4188.717773, 4188.717773, 4196.922852, 4195.384277, 4212.820313, 4189.743652, 4203.589844, 0.000000, 8200.000000, 8203.000000, 0.000000, 0.000000, 0.000000, 16311.000000, 796.410217, 4.000000, 4.000000, 4.000000, 4.000000, 4.000000, 4.000000, 4.000000, 4.000000, 4.000000, 4.000000, 4.000000, 4.000000, 4.000000, 4.000000, 4.000000, 4.000000
56.000000, 0.000000, 4226.153809, 4203.076660, 4227.179199, 4202.051270, 4202.563965, 4188.717773, 4189.230469, 4198.461426, 4191.794922, 4203.076660, 4198.974121, 4208.717773, 4195.384277, 4203.589844, 0.000000, 8200.000000, 8203.000000, 0.000000, 0.000000, 0.000000, 16311.000000, 804.102539, 4.000000, 4.000000, 4.000000, 4.000000, 4.000000, 4.000000, 4.000000, 4.000000, 4.000000, 4.000000, 4.000000, 4.000000, 4.000000, 4.000000, 4.000000, 4.000000
57.000000, 0.000000, 4226.153809, 4201.538574, 4222.563965, 4200.000000, 4190.769043, 4184.615234, 4185.127930, 4202.563965, 4196.922852, 4201.538574, 4195.897461, 4208.717773, 4192.820313, 4202.563965, 0.000000, 8194.000000, 8212.000000, 0.000000, 0.000000, 0.000000, 16311.000000, 811.794861, 4.000000, 4.000000, 4.000000, 4.000000, 4.000000, 4.000000, 4.000000, 4.000000, 4.000000, 4.000000, 4.000000, 4.000000, 4.000000, 4.000000, 4.000000, 4.000000
58.000000, 0.000000, 4223.076660, 4190.769043, 4217.948730, 4200.512695, 4182.563965, 4182.563965, 4171.281738, 4196.410156, 4193.333008, 4198.974121, 4195.384277, 4206.153809, 4187.179199, 4200.512695, 0.000000, 8194.000000, 8212.000000, 0.000000, 0.000000, 0.000000, 16311.000000, 819.487183, 4.000000, 4.000000, 4.000000, 4.000000, 4.000000, 4.000000, 4.000000, 4.000000, 4.000000, 4.000000, 4.000000, 4.000000, 4.000000, 4.000000, 4.000000, 4.000000
59.000000, 0.000000, 4223.076660, 4184.615234, 4215.384277, 4193.846191, 4185.127930, 4183.076660, 4172.307617, 4196.410156, 4185.127930, 4201.025391, 4199.487305, 4207.179199, 4188.717773, 4200.512695, 0.000000, 8185.000000, 8217.000000, 0.000000, 0.000000, 0.000000, 16311.000000, 827.179443, 4.000000, 4.000000, 4.000000, 4.000000, 4.000000, 4.000000, 4.000000, 4.000000, 4.000000, 4.000000, 4.000000, 4.000000, 4.000000, 4.000000, 4.000000, 4.000000
60.000000, 0.000000, 4219.487305, 4185.127930, 4211.281738, 4186.153809, 4186.153809, 4186.666504, 4185.641113, 4197.948730, 4188.717773, 4197.436035, 4196.922852, 4210.256348, 4190.769043, 4203.076660, 0.000000, 8185.000000, 8217.000000, 0.000000, 0.000000, 0.000000, 16311.000000, 835.384583, 4.000000, 4.000000, 4.000000, 4.000000, 4.000000, 4.000000, 4.000000, 4.000000, 4.000000, 4.000000, 4.000000, 4.000000, 4.000000, 4.000000, 4.000000, 4.000000
61.000000, 0.000000, 4212.820313, 4184.102539, 4205.641113, 4189.230469, 4173.846191, 4187.179199, 4190.256348, 4189.230469, 4189.230469, 4191.794922, 4186.153809, 4200.000000, 4185.127930, 4194.871582, 0.000000, 8180.000000, 8221.000000, 0.000000, 0.000000, 0.000000, 16311.000000, 843.076904, 4.000000, 4.000000, 4.000000, 4.000000, 4.000000, 4.000000, 4.000000, 4.000000, 4.000000, 4.000000, 4.000000, 4.000000, 4.000000, 4.000000, 4.000000, 4.000000
62.000000, 0.000000, 4214.871582, 4186.153809, 4208.717773, 4196.922852, 4175.384277, 4188.717773, 4185.641113, 4187.692383, 4181.025391, 4191.794922, 4181.025391, 4200.512695, 4183.589844, 4196.922852, 0.000000, 8180.000000, 8221.000000, 0.000000, 0.000000, 0.000000, 16311.000000, 850.769226, 4.000000, 4.000000, 4.000000, 4.000000, 4.000000, 4.000000, 4.000000, 4.000000, 4.000000, 4.000000, 4.000000, 4.000000, 4.000000, 4.000000, 4.000000, 4.000000
63.000000, 0.000000, 4223.076660, 4194.358887, 4214.871582, 4201.025391, 4199.487305, 4193.333008, 4184.102539, 4197.948730, 4191.281738, 4192.307617, 4193.333008, 4206.666504, 4190.256348, 4202.051270, 0.000000, 8172.000000, 8218.000000, 0.000000, 0.000000, 0.000000, 16311.000000, 858.461548, 4.000000, 4.000000, 4.000000, 4.000000, 4.000000, 4.000000, 4.000000, 4.000000, 4.000000, 4.000000, 4.000000, 4.000000, 4.000000, 4.000000, 4.000000, 4.000000
64.000000, 0.000000, 4223.589844, 4194.358887, 4213.846191, 4200.512695, 4206.666504, 4190.769043, 4184.102539, 4196.922852, 4204.615234, 4191.794922, 4201.538574, 4210.256348, 4190.256348, 4197.436035, 3302.000000, 8172.000000, 8218.000000, 0.000000, 0.000000, 0.000000, 16311.000000, 866.153809, 4.000000, 4.000000, 4.000000, 4.000000, 4.000000, 4.000000, 4.000000, 4.000000, 4.000000, 4.000000, 4.000000, 4.000000, 4.000000, 4.000000, 4.000000, 4.000000
65.000000, 0.000000, 4217.436035, 4183.589844, 4209.743652, 4198.461426, 4192.820313, 4187.179199, 4182.051270, 4184.102539, 4194.871582, 4192.820313, 4191.794922, 4210.256348, 4185.641113, 4198.461426, 3532.000000, 8170.000000, 8216.000000, 0.000000, 0.000000, 0.000000, 16311.000000, 874.358948, 4.000000, 4.000000, 4.000000, 4.000000, 4.000000, 4.000000, 4.000000, 4.000000, 4.000000, 4.000000, 4.000000, 4.000000, 4.000000, 4.000000, 4.000000, 4.000000
66.000000, 0.000000, 4221.025391, 4185.127930, 4207.179199, 4200.000000, 4187.692383, 4187.179199, 4187.692383, 4183.076660, 4186.666504, 4195.897461, 4189.230469, 4203.589844, 4188.717773, 4198.461426, 2783.000000, 8170.000000, 8216.000000, 0.000000, 0.000000, 0.000000, 16311.000000, 882.051270, 4.000000, 4.000000, 4.000000, 4.000000, 4.000000, 4.000000, 4.000000, 4.000000, 4.000000, 4.000000, 4.000000, 4.000000, 4.000000, 4.000000, 4.000000, 4.000000
67.000000, 0.000000, 4225.641113, 4193.846191, 4207.179199, 4201.538574, 4192.307617, 4187.179199, 4185.127930, 4188.717773, 4191.794922, 4197.948730, 4199.487305, 4207.179199, 4194.871582, 4202.563965, 3549.000000, 8179.000000, 8205.000000, 0.000000, 0.000000, 0.000000, 16311.000000, 889.743591, 4.000000, 4.000000, 4.000000, 4.000000, 4.000000, 4.000000, 4.000000, 4.000000, 4.000000, 4.000000, 4.000000, 4.000000, 4.000000, 4.000000, 4.000000, 4.000000
68.000000, 0.000000, 4221.025391, 4190.769043, 4205.641113, 4198.974121, 4188.205078, 4185.127930, 4168.717773, 4183.076660, 4191.281738, 4199.487305, 4201.025391, 4204.615234, 4189.743652, 4202.563965, 3518.000000, 8179.000000, 8205.000000, 0.000000, 0.000000, 0.000000, 16311.000000, 897.435852, 4.000000, 4.000000, 4.000000, 4.000000, 4.000000, 4.000000, 4.000000, 4.000000, 4.000000, 4.000000, 4.000000, 4.000000, 4.000000, 4.000000, 4.000000, 4.000000
69.000000, 0.000000, 4223.076660, 4191.281738, 4208.205078, 4198.974121, 4179.487305, 4185.127930, 4167.179199, 4186.666504, 4192.307617, 4201.538574, 4197.948730, 4202.051270, 4186.153809, 4199.487305, 3541.000000, 8182.000000, 8198.000000, 0.000000, 0.000000, 0.000000, 16311.000000, 905.128174, 4.000000, 4.000000, 4.000000, 4.000000, 4.000000, 4.000000, 4.000000, 4.000000, 4.000000, 4.000000, 4.000000, 4.000000, 4.000000, 4.000000, 4.000000, 4.000000
70.000000, 0.000000, 4226.153809, 4198.974121, 4212.820313, 4201.538574, 4186.153809, 4193.846191, 4189.743652, 4196.922852, 4196.922852, 4197.436035, 4201.025391, 4212.307617, 4194.358887, 4204.615234, 3460.000000, 8182.000000, 8198.000000, 0.000000, 0.000000, 0.000000, 16311.000000, 913.333313, 4.000000, 4.000000, 4.000000, 4.000000, 4.000000, 4.000000, 4.000000, 4.000000, 4.000000, 4.000000, 4.000000, 4.000000, 4.000000, 4.000000, 4.000000, 4.000000
71.000000, 0.000000, 4225.127930, 4200.512695, 4207.179199, 4200.000000, 4198.461426, 4197.948730, 4194.871582, 4192.820313, 4191.794922, 4190.256348, 4202.051270, 4215.897461, 4198.461426, 4200.512695, 3202.000000, 8190.000000, 8182.000000, 0.000000, 0.000000, 0.000000, 16311.000000, 921.025635, 4.000000, 4.000000, 4.000000, 4.000000, 4.000000, 4.000000, 4.000000, 4.000000, 4.000000, 4.000000, 4.000000, 4.000000, 4.000000, 4.000000, 4.000000, 4.000000
72.000000, 0.000000, 4224.615234, 4196.922852, 4205.127930, 4196.922852, 4192.307617, 4188.717773, 4177.436035, 4182.051270, 4183.076660, 4186.666504, 4199.487305, 4219.487305, 4197.948730, 4200.512695, 3538.000000, 8190.000000, 8182.000000, 0.000000, 0.000000, 0.000000, 16311.000000, 928.717896, 4.000000, 4.000000, 4.000000, 4.000000, 4.000000, 4.000000, 4.000000, 4.000000, 4.000000, 4.000000, 4.000000, 4.000000, 4.000000, 4.000000, 4.000000, 4.000000
73.000000, 0.000000, 4223.076660, 4195.384277, 4207.179199, 4200.512695, 4188.717773, 4189.230469, 4190.769043, 4189.743652, 4185.127930, 4189.743652, 4201.025391, 4215.384277, 4201.025391, 4202.051270, 3537.000000, 8201.000000, 8179.000000, 0.000000, 0.000000, 0.000000, 16311.000000, 936.410217, 4.000000, 4.000000, 4.000000, 4.000000, 4.000000, 4.000000, 4.000000, 4.000000, 4.000000, 4.000000, 4.000000, 4.000000, 4.000000, 4.000000, 4.000000, 4.000000
74.000000, 0.000000, 4224.615234, 4194.358887, 4203.589844, 4202.563965, 4197.436035, 4198.974121, 4212.820313, 4202.563965, 4192.307617, 4191.281738, 4200.000000, 4210.256348, 4198.461426, 4200.000000, 3029.000000, 8201.000000, 8179.000000, 0.000000, 0.000000, 0.000000, 16311.000000, 944.102539, 4.000000, 4.000000, 4.000000, 4.000000, 4.000000, 4.000000, 4.000000, 4.000000, 4.000000, 4.000000, 4.000000, 4.000000, 4.000000, 4.000000, 4.000000, 4.000000
75.000000, 0.000000, 4229.230469, 4196.410156, 4209.743652, 4200.512695, 4194.358887, 4190.769043, 4184.102539, 4202.051270, 4196.922852, 4196.410156, 4200.512695, 4217.948730, 4199.487305, 4207.692383, 2108.000000, 8211.000000, 8167.000000, 0.000000, 0.000000, 0.000000, 16311.000000, 951.794861, 4.000000, 4.000000, 4.000000, 4.000000, 4.000000, 4.000000, 4.000000, 4.000000, 4.000000, 4.000000, 4.000000, 4.000000, 4.000000, 4.000000, 4.000000, 4.000000
76.000000, 0.000000, 4238.974121, 4204.102539, 4220.000000, 4206.666504, 4186.153809, 4178.974121, 4145.641113, 4197.948730, 4204.615234, 4205.641113, 4210.769043, 4221.025391, 4209.230469, 4208.205078, 3480.000000, 8211.000000, 8167.000000, 0.000000, 0.000000, 0.000000, 16311.000000, 960.000000, 4.000000, 4.000000, 4.000000, 4.000000, 4.000000, 4.000000, 4.000000, 4.000000, 4.000000, 4.000000, 4.000000, 4.000000, 4.000000, 4.000000, 4.000000, 4.000000
77.000000, 0.000000, 4243.076660, 4202.051270, 4216.410156, 4209.230469, 4189.230469, 4183.076660, 4167.692383, 4192.307617, 4200.000000, 4206.666504, 4218.974121, 4225.641113, 4208.205078, 4204.102539, 2362.000000, 8221.000000, 8147.000000, 0.000000, 0.000000, 0.000000, 16311.000000, 967.692261, 4.000000, 4.000000, 4.000000, 4.000000, 4.000000, 4.000000, 4.000000, 4.000000, 4.000000, 4.000000, 4.000000, 4.000000, 4.000000, 4.000000, 4.000000, 4.000000
78.000000, 0.000000, 4234.358887, 4200.512695, 4207.179199, 4202.051270, 4186.666504, 4189.743652, 4197.436035, 4184.102539, 4186.666504, 4198.461426, 4213.333008, 4222.563965, 4201.025391, 4203.076660, 3029.000000, 8221.000000, 8147.000000, 0.000000, 0.000000, 0.000000, 16311.000000, 975.384583, 4.000000, 4.000000, 4.000000, 4.000000, 4.000000, 4.000000, 4.000000, 4.000000, 4.000000, 4.000000, 4.000000, 4.000000, 4.000000, 4.000000, 4.000000, 4.000000
79.000000, 0.000000, 4229.230469, 4201.025391, 4205.127930, 4201.538574, 4188.205078, 4186.153809, 4174.358887, 4178.974121, 4184.102539, 4191.794922, 4202.563965, 4213.333008, 4197.948730, 4196.410156, 2108.000000, 8226.000000, 8134.000000, 0.000000, 0.000000, 0.000000, 16311.000000, 983.076904, 4.000000, 4.000000, 4.000000, 4.000000, 4.000000, 4.000000, 4.000000, 4.000000, 4.000000, 4.000000, 4.000000, 4.000000, 4.000000, 4.000000, 4.000000, 4.000000
80.000000, 0.000000, 4222.051270, 4191.281738, 4200.000000, 4201.538574, 4198.974121, 4183.589844, 4156.922852, 4172.307617, 4180.512695, 4181.025391, 4190.769043, 4211.281738, 4183.589844, 4194.871582, 3480.000000, 8226.000000, 8134.000000, 0.000000, 0.000000, 0.000000, 16311.000000, 990.769226, 4.000000, 4.000000, 4.000000, 4.000000, 4.000000, 4.000000, 4.000000, 4.000000, 4.000000, 4.000000, 4.000000, 4.000000, 4.000000, 4.000000, 4.000000, 4.000000
81.000000, 0.000000, 4208.717773, 4181.538574, 4192.307617, 4188.717773, 4191.281738, 4191.794922, 4177.948730, 4170.256348, 4175.897461, 4174.358887, 4181.538574, 4204.615234, 4169.743652, 4193.846191, 2362.000000, 8230.000000, 8114.000000, 0.000000, 0.000000, 0.000000, 16311.000000, 998.461487, 4.000000, 4.000000, 4.000000, 4.000000, 4.000000, 4.000000, 4.000000, 4.000000, 4.000000, 4.000000, 4.000000, 4.000000, 4.000000, 4.000000, 4.000000, 4.000000
82.000000, 0.000000, 4210.256348, 4181.538574, 4198.974121, 4183.076660, 4174.871582, 4200.512695, 4193.846191, 4184.615234, 4187.179199, 4184.615234, 4182.563965, 4209.230469, 4178.461426, 4199.487305, 3029.000000, 8230.000000, 8114.000000, 0.000000, 0.000000, 0.000000, 16312.000000, 6.666667, 4.000000, 4.000000, 4.000000, 4.000000, 4.000000, 4.000000, 4.000000, 4.000000, 4.000000, 4.000000, 4.000000, 4.000000, 4.000000, 4.000000, 4.000000, 4.000000
83.000000, 0.000000, 4222.051270, 4185.127930, 4209.743652, 4195.384277, 4187.692383, 4198.461426, 4190.769043, 4196.922852, 4201.025391, 4198.461426, 4193.846191, 4217.436035, 4194.358887, 4206.666504, 2108.000000, 8232.000000, 8110.000000, 0.000000, 0.000000, 0.000000, 16312.000000, 14.358974, 4.000000, 4.000000, 4.000000, 4.000000, 4.000000, 4.000000, 4.000000, 4.000000, 4.000000, 4.000000, 4.000000, 4.000000, 4.000000, 4.000000, 4.000000, 4.000000
84.000000, 0.000000, 4225.127930, 4188.717773, 4207.179199, 4206.666504, 4204.615234, 4195.384277, 4189.230469, 4193.846191, 4201.025391, 4204.102539, 4207.179199, 4217.436035, 4201.538574, 4202.051270, 3480.000000, 8232.000000, 8110.000000, 0.000000, 0.000000, 0.000000, 16312.000000, 22.051281, 4.000000, 4.000000, 4.000000, 4.000000, 4.000000, 4.000000, 4.000000, 4.000000, 4.000000, 4.000000, 4.000000, 4.000000, 4.000000, 4.000000, 4.000000, 4.000000
85.000000, 0.000000, 4218.974121, 4187.692383, 4196.410156, 4201.025391, 4189.743652, 4191.281738, 4181.025391, 4186.153809, 4195.897461, 4200.512695, 4206.666504, 4219.487305, 4198.974121, 4202.563965, 2362.000000, 8230.000000, 8106.000000, 0.000000, 0.000000, 0.000000, 16312.000000, 29.743589, 4.000000, 4.000000, 4.000000, 4.000000, 4.000000, 4.000000, 4.000000, 4.000000, 4.000000, 4.000000, 4.000000, 4.000000, 4.000000, 4.000000, 4.000000, 4.000000
86.000000, 0.000000, 4213.846191, 4180.000000, 4188.205078, 4188.717773, 4180.000000, 4178.461426, 4167.179199, 4174.871582, 4187.692383, 4189.230469, 4190.256348, 4204.615234, 4187.179199, 4195.897461, 3029.000000, 8230.000000, 8106.000000, 0.000000, 0.000000, 0.000000, 16312.000000, 37.435898, 4.000000, 4.000000, 4.000000, 4.000000, 4.000000, 4.000000, 4.000000, 4.000000, 4.000000, 4.000000, 4.000000, 4.000000, 4.000000, 4.000000, 4.000000, 4.000000
87.000000, 0.000000, 4209.230469, 4176.410156, 4190.256348, 4182.563965, 4184.615234, 4174.871582, 4173.333008, 4173.333008, 4182.051270, 4185.127930, 4186.153809, 4195.897461, 4179.487305, 4191.281738, 2108.000000, 8237.000000, 8105.000000, 0.000000, 0.000000, 0.000000, 16312.000000, 45.128204, 4.000000, 4.000000, 4.000000, 4.000000, 4.000000, 4.000000, 4.000000, 4.000000, 4.000000, 4.000000, 4.000000, 4.000000, 4.000000, 4.000000, 4.000000, 4.000000
88.000000, 0.000000, 4206.666504, 4181.538574, 4196.922852, 4185.641113, 4173.846191, 4184.102539, 4184.102539, 4183.589844, 4193.333008, 4194.871582, 4198.974121, 4206.153809, 4187.692383, 4200.512695, 3480.000000, 8237.000000, 8105.000000, 0.000000, 0.000000, 0.000000, 16312.000000, 53.333332, 4.000000, 4.000000, 4.000000, 4.000000, 4.000000, 4.000000, 4.000000, 4.000000, 4.000000, 4.000000, 4.000000, 4.000000, 4.000000, 4.000000, 4.000000, 4.000000
89.000000, 0.000000, 4212.307617, 4183.076660, 4195.897461, 4190.256348, 4170.256348, 4186.153809, 4184.102539, 4188.717773, 4203.076660, 4201.538574, 4204.102539, 4209.743652, 4198.461426, 4198.974121, 2362.000000, 8240.000000, 8107.000000, 0.000000, 0.000000, 0.000000, 16312.000000, 61.025639, 4.000000, 4.000000, 4.000000, 4.000000, 4.000000, 4.000000, 4.000000, 4.000000, 4.000000, 4.000000, 4.000000, 4.000000, 4.000000, 4.000000, 4.000000, 4.000000
90.000000, 0.000000, 4219.487305, 4185.641113, 4194.358887, 4196.922852, 4190.256348, 4184.615234, 4183.076660, 4193.333008, 4202.051270, 4202.563965, 4204.102539, 4214.358887, 4202.563965, 4203.076660, 3029.000000, 8240.000000, 8107.000000, 0.000000, 0.000000, 0.000000, 16312.000000, 68.717949, 4.000000, 4.000000, 4.000000, 4.000000, 4.000000, 4.000000, 4.000000, 4.000000, 4.000000, 4.000000, 4.000000, 4.000000, 4.000000, 4.000000, 4.000000, 4.000000
91.000000, 0.000000, 4217.436035, 4192.307617, 4197.436035, 4198.461426, 4198.974121, 4190.769043, 4184.102539, 4197.436035, 4201.538574, 4201.538574, 4198.974121, 4212.820313, 4191.794922, 4206.153809, 2108.000000, 8235.000000, 8107.000000, 0.000000, 0.000000, 0.000000, 16312.000000, 76.410255, 4.000000, 4.000000, 4.000000, 4.000000, 4.000000, 4.000000, 4.000000, 4.000000, 4.000000, 4.000000, 4.000000, 4.000000, 4.000000, 4.000000, 4.000000, 4.000000
92.000000, 0.000000, 4208.717773, 4185.127930, 4194.358887, 4187.692383, 4186.153809, 4191.794922, 4184.102539, 4189.743652, 4197.948730, 4192.820313, 4182.563965, 4208.205078, 4174.871582, 4198.974121, 3480.000000, 8235.000000, 8107.000000, 0.000000, 0.000000, 0.000000, 16312.000000, 84.102562, 4.000000, 4.000000, 4.000000, 4.000000, 4.000000, 4.000000, 4.000000, 4.000000, 4.000000, 4.000000, 4.000000, 4.000000, 4.000000, 4.000000, 4.000000, 4.000000
93.000000, 0.000000, 4209.230469, 4179.487305, 4193.333008, 4185.641113, 4180.512695, 4187.179199, 4185.127930, 4185.127930, 4197.948730, 4190.769043, 4183.589844, 4211.281738, 4184.102539, 4204.615234, 2362.000000, 8236.000000, 8110.000000, 0.000000, 0.000000, 0.000000, 16312.000000, 91.794868, 4.000000, 4.000000, 4.000000, 4.000000, 4.000000, 4.000000, 4.000000, 4.000000, 4.000000, 4.000000, 4.000000, 4.000000, 4.000000, 4.000000, 4.000000, 4.000000
94.000000, 0.000000, 4226.666504, 4197.948730, 4200.512695, 4200.000000, 4187.692383, 4192.307617, 4184.615234, 4196.922852, 4204.102539, 4205.641113, 4207.692383, 4216.410156, 4210.256348, 4212.820313, 3029.000000, 8236.000000, 8110.000000, 0.000000, 0.000000, 0.000000, 16312.000000, 100.000000, 4.000000, 4.000000, 4.000000, 4.000000, 4.000000, 4.000000, 4.000000, 4.000000, 4.000000, 4.000000, 4.000000, 4.000000, 4.000000, 4.000000, 4.000000, 4.000000
95.000000, 0.000000, 4236.922852, 4208.205078, 4207.692383, 4204.615234, 4190.769043, 4194.358887, 4186.153809, 4201.538574, 4202.563965, 4213.333008, 4217.948730, 4223.076660, 4216.922852, 4216.410156, 2108.000000, 8227.000000, 8122.000000, 0.000000, 0.000000, 0.000000, 16312.000000, 107.692307, 4.000000, 4.000000, 4.000000, 4.000000, 4.000000, 4.000000, 4.000000, 4.000000, 4.000000, 4.000000, 4.000000, 4.000000, 4.000000, 4.000000, 4.000000, 4.000000
96.000000, 0.000000, 4235.384277, 4198.974121, 4207.179199, 4199.487305, 4183.076660, 4187.692383, 4196.410156, 4197.948730, 4201.025391, 4209.743652, 4214.358887, 4222.051270, 4212.820313, 4212.820313, 3480.000000, 8227.000000, 8122.000000, 0.000000, 0.000000, 0.000000, 16312.000000, 115.384613, 4.000000, 4.000000, 4.000000, 4.000000, 4.000000, 4.000000, 4.000000, 4.000000, 4.000000, 4.000000, 4.000000, 4.000000, 4.000000, 4.000000, 4.000000, 4.000000
97.000000, 0.000000, 4242.563965, 4203.076660, 4210.256348, 4202.563965, 4173.846191, 4190.769043, 4197.948730, 4199.487305, 4212.820313, 4210.769043, 4221.538574, 4227.179199, 4216.922852, 4212.820313, 2362.000000, 8225.000000, 8125.000000, 0.000000, 0.000000, 0.000000, 16312.000000, 123.076920, 4.000000, 4.000000, 4.000000, 4.000000, 4.000000, 4.000000, 4.000000, 4.000000, 4.000000, 4.000000, 4.000000, 4.000000, 4.000000, 4.000000, 4.000000, 4.000000
98.000000, 0.000000, 4252.820313, 4212.820313, 4214.358887, 4205.641113, 4175.897461, 4201.538574, 4186.153809, 4201.025391, 4212.820313, 4215.384277, 4232.307617, 4233.333008, 4222.051270, 4221.025391, 3029.000000, 8225.000000, 8125.000000, 0.000000, 0.000000, 0.000000, 16312.000000, 130.769226, 4.000000, 4.000000, 4.000000, 4.000000, 4.000000, 4.000000, 4.000000, 4.000000, 4.000000, 4.000000, 4.000000, 4.000000, 4.000000, 4.000000, 4.000000, 4.000000
99.000000, 0.000000, 4264.102539, 4216.922852, 4214.358887, 4208.205078, 4191.794922, 4201.025391, 4180.000000, 4200.512695, 4203.589844, 4223.076660, 4243.589844, 4229.743652, 4228.205078, 4220.000000, 2108.000000, 8222.000000, 8128.000000, 0.000000, 0.000000, 0.000000, 16312.000000, 138.974350, 4.000000, 4.000000, 4.000000, 4.000000, 4.000000, 4.000000, 4.000000, 4.000000, 4.000000, 4.000000, 4.000000, 4.000000, 4.000000, 4.000000, 4.000000, 4.000000
100.000000, 0.000000, 4275.897461, 4226.153809, 4220.000000, 4218.461426, 4200.000000, 4193.846191, 4186.153809, 4201.025391, 4209.743652, 4231.281738, 4256.410156, 4240.000000, 4231.794922, 4223.589844, 3480.000000, 8222.000000, 8128.000000, 0.000000, 0.000000, 0.000000, 16312.000000, 146.666656, 4.000000, 4.000000, 4.000000, 4.000000, 4.000000, 4.000000, 4.000000, 4.000000, 4.000000, 4.000000, 4.000000, 4.000000, 4.000000, 4.000000, 4.000000, 4.000000
101.000000, 0.000000, 4274.871582, 4220.000000, 4218.461426, 4216.922852, 4186.666504, 4187.692383, 4189.743652, 4200.512695, 4216.410156, 4227.692383, 4257.436035, 4244.102539, 4224.102539, 4222.563965, 2362.000000, 8210.000000, 8141.000000, 0.000000, 0.000000, 0.000000, 16312.000000, 154.358963, 4.000000, 4.000000, 4.000000, 4.000000, 4.000000, 4.000000, 4.000000, 4.000000, 4.000000, 4.000000, 4.000000, 4.000000, 4.000000, 4.000000, 4.000000, 4.000000
102.000000, 0.000000, 4269.230469, 4197.948730, 4207.692383, 4202.563965, 4174.358887, 4184.102539, 4183.589844, 4202.051270, 4209.230469, 4217.436035, 4250.256348, 4236.410156, 4218.461426, 4213.846191, 3029.000000, 8210.000000, 8141.000000, 0.000000, 0.000000, 0.000000, 16312.000000, 162.051285, 4.000000, 4.000000, 4.000000, 4.000000, 4.000000, 4.000000, 4.000000, 4.000000, 4.000000, 4.000000, 4.000000, 4.000000, 4.000000, 4.000000, 4.000000, 4.000000
103.000000, 0.000000, 4268.717773, 4195.897461, 4207.692383, 4196.410156, 4178.461426, 4190.256348, 4184.615234, 4197.948730, 4205.127930, 4214.358887, 4247.179199, 4235.384277, 4220.512695, 4216.410156, 2108.000000, 8212.000000, 8146.000000, 0.000000, 0.000000, 0.000000, 16312.000000, 169.743591, 4.000000, 4.000000, 4.000000, 4.000000, 4.000000, 4.000000, 4.000000, 4.000000, 4.000000, 4.000000, 4.000000, 4.000000, 4.000000, 4.000000, 4.000000, 4.000000
104.000000, 0.000000, 4272.820313, 4202.051270, 4212.820313, 4203.076660, 4180.512695, 4191.794922, 4193.333008, 4186.666504, 4202.051270, 4218.974121, 4247.692383, 4233.846191, 4220.512695, 4214.358887, 3480.000000, 8212.000000, 8146.000000, 0.000000, 0.000000, 0.000000, 16312.000000, 177.435898, 4.000000, 4.000000, 4.000000, 4.000000, 4.000000, 4.000000, 4.000000, 4.000000, 4.000000, 4.000000, 4.000000, 4.000000, 4.000000, 4.000000, 4.000000, 4.000000
105.000000, 0.000000, 4269.743652, 4188.717773, 4211.281738, 4201.025391, 4165.127930, 4183.076660, 4192.307617, 4182.051270, 4188.717773, 4217.436035, 4242.563965, 4234.358887, 4218.461426, 4210.769043, 2362.000000, 8200.000000, 8149.000000, 1.000000, 2.000000, 0.000000, 16312.000000, 185.641022, 4.000000, 4.000000, 4.000000, 4.000000, 4.000000, 4.000000, 4.000000, 4.000000, 4.000000, 4.000000, 4.000000, 4.000000, 4.000000, 4.000000, 4.000000, 4.000000
106.000000, 0.000000, 4258.461426, 4176.922852, 4208.205078, 4188.717773, 4160.512695, 4186.666504, 4185.127930, 4184.615234, 4180.512695, 4212.307617, 4234.358887, 4225.127930, 4215.897461, 4207.179199, 3029.000000, 8200.000000, 8149.000000, 0.000000, 0.000000, 0.000000, 16312.000000, 193.333328, 4.000000, 4.000000, 4.000000, 4.000000, 4.000000, 4.000000, 4.000000, 4.000000, 4.000000, 4.000000, 4.000000, 4.000000, 4.000000, 4.000000, 4.000000, 4.000000
107.000000, 0.000000, 4257.948730, 4182.563965, 4208.205078, 4192.307617, 4182.051270, 4202.051270, 4186.666504, 4185.641113, 4188.205078, 4211.794922, 4233.846191, 4216.922852, 4212.307617, 4202.051270, 2108.000000, 8202.000000, 8145.000000, 0.000000, 0.000000, 0.000000, 16312.000000, 201.025635, 4.000000, 4.000000, 4.000000, 4.000000, 4.000000, 4.000000, 4.000000, 4.000000, 4.000000, 4.000000, 4.000000, 4.000000, 4.000000, 4.000000, 4.000000, 4.000000
108.000000, 0.000000, 4265.127930, 4194.358887, 4210.769043, 4211.281738, 4200.512695, 4206.153809, 4190.256348, 4190.769043, 4200.000000, 4216.922852, 4241.538574, 4226.153809, 4215.897461, 4210.256348, 3480.000000, 8202.000000, 8145.000000, 0.000000, 0.000000, 0.000000, 16312.000000, 208.717941, 4.000000, 4.000000, 4.000000, 4.000000, 4.000000, 4.000000, 4.000000, 4.000000, 4.000000, 4.000000, 4.000000, 4.000000, 4.000000, 4.000000, 4.000000, 4.000000
109.000000, 0.000000, 4264.615234, 4201.538574, 4209.230469, 4215.897461, 4206.153809, 4201.025391, 4188.205078, 4200.000000, 4206.153809, 4222.051270, 4248.205078, 4225.641113, 4224.102539, 4210.256348, 2362.000000, 8194.000000, 8147.000000, 0.000000, 0.000000, 0.000000, 16312.000000, 216.410248, 4.000000, 4.000000, 4.000000, 4.000000, 4.000000, 4.000000, 4.000000, 4.000000, 4.000000, 4.000000, 4.000000, 4.000000, 4.000000, 4.000000, 4.000000, 4.000000
110.000000, 0.000000, 4257.948730, 4193.333008, 4207.692383, 4204.615234, 4198.461426, 4201.538574, 4194.358887, 4203.076660, 4206.153809, 4217.948730, 4245.641113, 4225.127930, 4218.461426, 4203.589844, 3029.000000, 8194.000000, 8147.000000, 0.000000, 0.000000, 0.000000, 16312.000000, 224.615372, 4.000000, 4.000000, 4.000000, 4.000000, 4.000000, 4.000000, 4.000000, 4.000000, 4.000000, 4.000000, 4.000000, 4.000000, 4.000000, 4.000000, 4.000000, 4.000000
111.000000, 0.000000, 4248.205078, 4176.922852, 4209.743652, 4201.025391, 4188.205078, 4197.436035, 4198.974121, 4202.051270, 4204.615234, 4214.358887, 4235.897461, 4226.666504, 4204.102539, 4198.974121, 2108.000000, 8193.000000, 8148.000000, 0.000000, 0.000000, 0.000000, 16312.000000, 232.307693, 4.000000, 4.000000, 4.000000, 4.000000, 4.000000, 4.000000, 4.000000, 4.000000, 4.000000, 4.000000, 4.000000, 4.000000, 4.000000, 4.000000, 4.000000, 4.000000
112.000000, 0.000000, 4241.025391, 4170.256348, 4203.076660, 4201.538574, 4190.256348, 4192.820313, 4188.205078, 4200.000000, 4205.127930, 4216.922852, 4228.717773, 4216.922852, 4200.000000, 4195.897461, 3480.000000, 8193.000000, 8148.000000, 0.000000, 0.000000, 0.000000, 16312.000000, 240.000000, 4.000000, 4.000000, 4.000000, 4.000000, 4.000000, 4.000000, 4.000000, 4.000000, 4.000000, 4.000000, 4.000000, 4.000000, 4.000000, 4.000000, 4.000000, 4.000000
113.000000, 0.000000, 4236.410156, 4172.307617, 4195.384277, 4198.461426, 4186.666504, 4198.974121, 4182.051270, 4197.948730, 4203.076660, 4218.461426, 4226.666504, 4211.794922, 4205.127930, 4202.563965, 2362.000000, 8191.000000, 8151.000000, 0.000000, 0.000000, 0.000000, 16312.000000, 247.692307, 4.000000, 4.000000, 4.000000, 4.000000, 4.000000, 4.000000, 4.000000, 4.000000, 4.000000, 4.000000, 4.000000, 4.000000, 4.000000, 4.000000, 4.000000, 4.000000
114.000000, 0.000000, 4228.717773, 4167.692383, 4191.794922, 4193.846191, 4175.384277, 4203.589844, 4194.871582, 4196.410156, 4198.974121, 4215.897461, 4224.102539, 4207.179199, 4204.615234, 4200.000000, 3029.000000, 8191.000000, 8151.000000, 0.000000, 0.000000, 0.000000, 16312.000000, 255.384613, 4.000000, 4.000000, 4.000000, 4.000000, 4.000000, 4.000000, 4.000000, 4.000000, 4.000000, 4.000000, 4.000000, 4.000000, 4.000000, 4.000000, 4.000000, 4.000000
115.000000, 0.000000, 4223.076660, 4159.487305, 4190.256348, 4187.179199, 4184.615234, 4200.512695, 4203.589844, 4197.436035, 4203.589844, 4214.871582, 4221.025391, 4209.230469, 4200.512695, 4198.461426, 2108.000000, 8185.000000, 8149.000000, 0.000000, 0.000000, 0.000000, 16312.000000, 263.076904, 4.000000, 4.000000, 4.000000, 4.000000, 4.000000, 4.000000, 4.000000, 4.000000, 4.000000, 4.000000, 4.000000, 4.000000, 4.000000, 4.000000, 4.000000, 4.000000
116.000000, 0.000000, 4218.461426, 4153.846191, 4189.230469, 4183.076660, 4200.000000, 4198.461426, 4200.000000, 4206.666504, 4215.384277, 4217.436035, 4220.000000, 4213.333008, 4200.512695, 4204.102539, 3480.000000, 8185.000000, 8149.000000, 0.000000, 0.000000, 0.000000, 16312.000000, 271.282043, 4.000000, 4.000000, 4.000000, 4.000000, 4.000000, 4.000000, 4.000000, 4.000000, 4.000000, 4.000000, 4.000000, 4.000000, 4.000000, 4.000000, 4.000000, 4.000000
117.000000, 0.000000, 4217.948730, 4154.871582, 4190.769043, 4185.641113, 4191.794922, 4198.974121, 4191.281738, 4215.384277, 4220.000000, 4218.974121, 4220.512695, 4211.281738, 4203.589844, 4201.538574, 2362.000000, 8184.000000, 8149.000000, 0.000000, 0.000000, 0.000000, 16312.000000, 278.974365, 4.000000, 4.000000, 4.000000, 4.000000, 4.000000, 4.000000, 4.000000, 4.000000, 4.000000, 4.000000, 4.000000, 4.000000, 4.000000, 4.000000, 4.000000, 4.000000
118.000000, 0.000000, 4216.922852, 4153.846191, 4193.846191, 4186.153809, 4183.076660, 4197.948730, 4190.769043, 4209.230469, 4212.307617, 4214.358887, 4218.974121, 4216.922852, 4201.538574, 4204.102539, 3029.000000, 8184.000000, 8149.000000, 0.000000, 0.000000, 0.000000, 16312.000000, 286.666656, 4.000000, 4.000000, 4.000000, 4.000000, 4.000000, 4.000000, 4.000000, 4.000000, 4.000000, 4.000000, 4.000000, 4.000000, 4.000000, 4.000000, 4.000000, 4.000000
119.000000, 0.000000, 4209.743652, 4144.615234, 4191.281738, 4181.025391, 4181.538574, 4200.512695, 4207.692383, 4198.461426, 4202.051270, 4204.102539, 4208.717773, 4214.871582, 4189.230469, 4197.948730, 2108.000000, 8186.000000, 8155.000000, 0.000000, 0.000000, 0.000000, 16312.000000, 294.358978, 4.000000, 4.000000, 4.000000, 4.000000, 4.000000, 4.000000, 4.000000, 4.000000, 4.000000, 4.000000, 4.000000, 4.000000, 4.000000, 4.000000, 4.000000, 4.000000
120.000000, 0.000000, 4203.076660, 4136.410156, 4188.205078, 4179.487305, 4181.538574, 4198.974121, 4213.333008, 4198.974121, 4197.948730, 4195.897461, 4199.487305, 4211.794922, 4182.051270, 4192.820313, 3480.000000, 8186.000000, 8155.000000, 0.000000, 0.000000, 0.000000, 16312.000000, 302.564087, 4.000000, 4.000000, 4.000000, 4.000000, 4.000000, 4.000000, 4.000000, 4.000000, 4.000000, 4.000000, 4.000000, 4.000000, 4.000000, 4.000000, 4.000000, 4.000000
121.000000, 0.000000, 4204.615234, 4135.384277, 4192.820313, 4184.102539, 4184.615234, 4187.179199, 4197.436035, 4198.461426, 4198.974121, 4197.948730, 4207.179199, 4216.922852, 4193.333008, 4203.589844, 2362.000000, 8185.000000, 8146.000000, 0.000000, 0.000000, 0.000000, 16312.000000, 310.256409, 4.000000, 4.000000, 4.000000, 4.000000, 4.000000, 4.000000, 4.000000, 4.000000, 4.000000, 4.000000, 4.000000, 4.000000, 4.000000, 4.000000, 4.000000, 4.000000
122.000000, 0.000000, 4208.717773, 4143.076660, 4194.871582, 4186.666504, 4173.333008, 4182.051270, 4192.820313, 4197.948730, 4200.512695, 4207.692383, 4216.410156, 4216.410156, 4203.076660, 4203.076660, 3029.000000, 8185.000000, 8146.000000, 0.000000, 0.000000, 0.000000, 16312.000000, 317.948700, 4.000000, 4.000000, 4.000000, 4.000000, 4.000000, 4.000000, 4.000000, 4.000000, 4.000000, 4.000000, 4.000000, 4.000000, 4.000000, 4.000000, 4.000000, 4.000000
123.000000, 0.000000, 4205.641113, 4150.769043, 4190.256348, 4183.589844, 4166.666504, 4191.281738, 4203.076660, 4212.307617, 4209.743652, 4215.897461, 4214.871582, 4217.436035, 4201.025391, 4201.025391, 2108.000000, 8184.000000, 8147.000000, 0.000000, 0.000000, 0.000000, 16312.000000, 325.641022, 4.000000, 4.000000, 4.000000, 4.000000, 4.000000, 4.000000, 4.000000, 4.000000, 4.000000, 4.000000, 4.000000, 4.000000, 4.000000, 4.000000, 4.000000, 4.000000
124.000000, 0.000000, 4201.538574, 4147.179199, 4185.641113, 4181.025391, 4186.153809, 4201.025391, 4210.769043, 4225.641113, 4221.538574, 4218.461426, 4215.384277, 4213.333008, 4200.000000, 4201.538574, 3480.000000, 8184.000000, 8147.000000, 0.000000, 0.000000, 0.000000, 16312.000000, 333.333313, 4.000000, 4.000000, 4.000000, 4.000000, 4.000000, 4.000000, 4.000000, 4.000000, 4.000000, 4.000000, 4.000000, 4.000000, 4.000000, 4.000000, 4.000000, 4.000000
125.000000, 0.000000, 4197.948730, 4137.436035, 4183.076660, 4180.000000, 4190.769043, 4202.563965, 4211.281738, 4216.410156, 4220.000000, 4215.384277, 4213.846191, 4210.769043, 4197.436035, 4198.974121, 2362.000000, 8179.000000, 8150.000000, 0.000000, 0.000000, 0.000000, 16312.000000, 341.538452, 4.000000, 4.000000, 4.000000, 4.000000, 4.000000, 4.000000, 4.000000, 4.000000, 4.000000, 4.000000, 4.000000, 4.000000, 4.000000, 4.000000, 4.000000, 4.000000
126.000000, 0.000000, 4195.384277, 4138.461426, 4186.153809, 4183.589844, 4180.512695, 4203.076660, 4209.743652, 4205.641113, 4216.922852, 4213.333008, 4211.281738, 4212.820313, 4196.410156, 4203.589844, 3029.000000, 8179.000000, 8150.000000, 0.000000, 0.000000, 0.000000, 16312.000000, 349.230774, 4.000000, 4.000000, 4.000000, 4.000000, 4.000000, 4.000000, 4.000000, 4.000000, 4.000000, 4.000000, 4.000000, 4.000000, 4.000000, 4.000000, 4.000000, 4.000000
127.000000, 0.000000, 4199.487305, 4146.153809, 4191.794922, 4186.153809, 4183.589844, 4202.051270, 4211.281738, 4213.333008, 4220.000000, 4214.358887, 4217.436035, 4210.769043, 4200.512695, 4202.051270, 55.000000, 8173.000000, 8150.000000, 0.000000, 0.000000, 0.000000, 16312.000000, 356.923065, 4.000000, 4.000000, 4.000000, 4.000000, 4.000000, 4.000000, 4.000000, 4.000000, 4.000000, 4.000000, 4.000000, 4.000000, 4.000000, 4.000000, 4.000000, 4.000000
0.000000, 0.000000, 4202.563965, 4145.641113, 4193.333008, 4184.615234, 4185.127930, 4198.974121, 4217.436035, 4215.384277, 4217.436035, 4209.230469, 4218.461426, 4213.846191, 4200.512695, 4202.563965, 3425.000000, 8173.000000, 8150.000000, 0.000000, 0.000000, 0.000000, 16312.000000, 364.615387, 4.000000, 4.000000, 4.000000, 4.000000, 4.000000, 4.000000, 4.000000, 4.000000, 4.000000, 4.000000, 4.000000, 4.000000, 4.000000, 4.000000, 4.000000, 4.000000
1.000000, 0.000000, 4198.974121, 4149.743652, 4187.692383, 4186.153809, 4183.589844, 4201.025391, 4216.410156, 4208.205078, 4214.871582, 4208.205078, 4212.820313, 4211.281738, 4199.487305, 4202.563965, 3532.000000, 8177.000000, 8142.000000, 0.000000, 0.000000, 0.000000, 16312.000000, 372.307678, 4.000000, 4.000000, 4.000000, 4.000000, 4.000000, 4.000000, 4.000000, 4.000000, 4.000000, 4.000000, 4.000000, 4.000000, 4.000000, 4.000000, 4.000000, 4.000000
2.000000, 0.000000, 4194.871582, 4156.922852, 4181.538574, 4186.666504, 4189.230469, 4206.666504, 4213.846191, 4213.333008, 4220.000000, 4216.410156, 4215.897461, 4212.307617, 4203.076660, 4199.487305, 2788.000000, 8177.000000, 8142.000000, 0.000000, 0.000000, 0.000000, 16312.000000, 380.000000, 4.000000, 4.000000, 4.000000, 4.000000, 4.000000, 4.000000, 4.000000, 4.000000, 4.000000, 4.000000, 4.000000, 4.000000, 4.000000, 4.000000, 4.000000, 4.000000
3.000000, 0.000000, 4187.692383, 4146.666504, 4177.436035, 4175.384277, 4183.076660, 4204.615234, 4215.384277, 4214.871582, 4219.487305, 4216.410156, 4214.871582, 4214.871582, 4203.076660, 4201.538574, 3555.000000, 8173.000000, 8138.000000, 0.000000, 0.000000, 0.000000, 16312.000000, 388.205109, 4.000000, 4.000000, 4.000000, 4.000000, 4.000000, 4.000000, 4.000000, 4.000000, 4.000000, 4.000000, 4.000000, 4.000000, 4.000000, 4.000000, 4.000000, 4.000000
4.000000, 0.000000, 4181.025391, 4135.384277, 4172.307617, 4169.743652, 4181.538574, 4198.974121, 4214.871582, 4204.102539, 4214.871582, 4209.230469, 4205.641113, 4202.051270, 4198.974121, 4196.922852, 3523.000000, 8173.000000, 8138.000000, 0.000000, 0.000000, 0.000000, 16312.000000, 395.897430, 4.000000, 4.000000, 4.000000, 4.000000, 4.000000, 4.000000, 4.000000, 4.000000, 4.000000, 4.000000, 4.000000, 4.000000, 4.000000, 4.000000, 4.000000, 4.000000
5.000000, 0.000000, 4180.000000, 4142.051270, 4173.333008, 4176.922852, 4194.358887, 4202.563965, 4213.846191, 4206.666504, 4216.410156, 4211.281738, 4204.102539, 4202.051270, 4200.000000, 4199.487305, 3542.000000, 8172.000000, 8132.000000, 0.000000, 0.000000, 0.000000, 16312.000000, 403.589722, 4.000000, 4.000000, 4.000000, 4.000000, 4.000000, 4.000000, 4.000000, 4.000000, 4.000000, 4.000000, 4.000000, 4.000000, 4.000000, 4.000000, 4.000000, 4.000000
6.000000, 0.000000, 4178.461426, 4147.179199, 4172.820313, 4176.410156, 4196.410156, 4206.666504, 4214.358887, 4211.794922, 4217.436035, 4216.410156, 4205.127930, 4206.666504, 4201.025391, 4200.512695, 3459.000000, 8172.000000, 8132.000000, 0.000000, 0.000000, 0.000000, 16312.000000, 411.282043, 4.000000, 4.000000, 4.000000, 4.000000, 4.000000, 4.000000, 4.000000, 4.000000, 4.000000, 4.000000, 4.000000, 4.000000, 4.000000, 4.000000, 4.000000, 4.000000
7.000000, 0.000000, 4177.948730, 4137.948730, 4166.153809, 4167.179199, 4181.538574, 4197.948730, 4211.794922, 4208.717773, 4216.410156, 4215.384277, 4201.538574, 4202.563965, 4196.922852, 4196.922852, 3202.000000, 8182.000000, 8120.000000, 0.000000, 0.000000, 0.000000, 16312.000000, 418.974335, 4.000000, 4.000000, 4.000000, 4.000000, 4.000000, 4.000000, 4.000000, 4.000000, 4.000000, 4.000000, 4.000000, 4.000000, 4.000000, 4.000000, 4.000000, 4.000000
8.000000, 0.000000, 4178.461426, 4132.820313, 4166.666504, 4166.153809, 4169.230469, 4187.692383, 4208.205078, 4215.384277, 4216.922852, 4216.410156, 4206.666504, 4202.051270, 4197.948730, 4205.127930, 3538.000000, 8182.000000, 8120.000000, 0.000000, 0.000000, 0.000000, 16312.000000, 427.179474, 4.000000, 4.000000, 4.000000, 4.000000, 4.000000, 4.000000, 4.000000, 4.000000, 4.000000, 4.000000, 4.000000, 4.000000, 4.000000, 4.000000, 4.000000, 4.000000
9.000000, 0.000000, 4180.512695, 4142.051270, 4169.230469, 4171.794922, 4173.333008, 4192.307617, 4205.641113, 4215.897461, 4219.487305, 4220.512695, 4215.897461, 4201.025391, 4203.076660, 4203.589844, 3534.000000, 8189.000000, 8120.000000, 0.000000, 0.000000, 0.000000, 16312.000000, 434.871796, 4.000000, 4.000000, 4.000000, 4.000000, 4.000000, 4.000000, 4.000000, 4.000000, 4.000000, 4.000000, 4.000000, 4.000000, 4.000000, 4.000000, 4.000000, 4.000000
10.000000, 0.000000, 4186.666504, 4153.333008, 4168.717773, 4174.358887, 4182.051270, 4200.512695, 4206.666504, 4205.127930, 4223.589844, 4222.051270, 4215.897461, 4209.743652, 4204.615234, 4201.538574, 3082.000000, 8189.000000, 8120.000000, 0.000000, 0.000000, 0.000000, 16312.000000, 442.564087, 4.000000, 4.000000, 4.000000, 4.000000, 4.000000, 4.000000, 4.000000, 4.000000, 4.000000, 4.000000, 4.000000, 4.000000, 4.000000, 4.000000, 4.000000, 4.000000
11.000000, 0.000000, 4189.230469, 4155.384277, 4168.717773, 4178.974121, 4191.794922, 4203.589844, 4210.256348, 4212.820313, 4230.769043, 4223.589844, 4213.333008, 4211.794922, 4201.538574, 4205.127930, 2110.000000, 8194.000000, 8125.000000, 0.000000, 0.000000, 0.000000, 16312.000000, 450.256409, 4.000000, 4.000000, 4.000000, 4.000000, 4.000000, 4.000000, 4.000000, 4.000000, 4.000000, 4.000000, 4.000000, 4.000000, 4.000000, 4.000000, 4.000000, 4.000000
12.000000, 0.000000, 4186.153809, 4155.384277, 4168.205078, 4182.051270, 4197.948730, 4206.153809, 4212.820313, 4229.743652, 4236.410156, 4223.589844, 4210.769043, 4202.563965, 4198.974121, 4201.538574, 3480.000000, 8194.000000, 8125.000000, 0.000000, 0.000000, 0.000000, 16312.000000, 458.461517, 4.000000, 4.000000, 4.000000, 4.000000, 4.000000, 4.000000, 4.000000, 4.000000, 4.000000, 4.000000, 4.000000, 4.000000, 4.000000, 4.000000, 4.000000, 4.000000
13.000000, 0.000000, 4190.256348, 4166.153809, 4170.769043, 4184.615234, 4190.769043, 4206.666504, 4215.897461, 4223.076660, 4230.256348, 4218.461426, 4207.692383, 4201.538574, 4200.512695, 4204.615234, 2365.000000, 8202.000000, 8124.000000, 0.000000, 0.000000, 0.000000, 16312.000000, 466.153839, 4.000000, 4.000000, 4.000000, 4.000000, 4.000000, 4.000000, 4.000000, 4.000000, 4.000000, 4.000000, 4.000000, 4.000000, 4.000000, 4.000000, 4.000000, 4.000000
14.000000, 0.000000, 4202.563965, 4174.358887, 4175.897461, 4193.333008, 4188.717773, 4209.230469, 4215.384277, 4213.333008, 4227.692383, 4221.538574, 4213.333008, 4203.076660, 4202.563965, 4205.641113, 3082.000000, 8202.000000, 8124.000000, 0.000000, 0.000000, 0.000000, 16312.000000, 473.846130, 4.000000, 4.000000, 4.000000, 4.000000, 4.000000, 4.000000, 4.000000, 4.000000, 4.000000, 4.000000, 4.000000, 4.000000, 4.000000, 4.000000, 4.000000, 4.000000
15.000000, 0.000000, 4196.922852, 4153.333008, 4181.025391, 4187.179199, 4195.384277, 4214.358887, 4213.846191, 4223.589844, 4236.922852, 4231.281738, 4216.922852, 4213.333008, 4198.461426, 4202.563965, 2110.000000, 8209.000000, 8139.000000, 0.000000, 0.000000, 0.000000, 16312.000000, 481.538452, 4.000000, 4.000000, 4.000000, 4.000000, 4.000000, 4.000000, 4.000000, 4.000000, 4.000000, 4.000000, 4.000000, 4.000000, 4.000000, 4.000000, 4.000000, 4.000000
16.000000, 0.000000, 4180.000000, 4139.487305, 4180.512695, 4174.358887, 4195.384277, 4214.358887, 4220.000000, 4234.871582, 4245.641113, 4234.358887, 4217.436035, 4219.487305, 4199.487305, 4204.615234, 0.000000, 8209.000000, 8139.000000, 0.000000, 0.000000, 0.000000, 16312.000000, 489.230743, 4.000000, 4.000000, 4.000000, 4.000000, 4.000000, 4.000000, 4.000000, 4.000000, 4.000000, 4.000000, 4.000000, 4.000000, 4.000000, 4.000000, 4.000000, 4.000000
17.000000, 0.000000, 4182.051270, 4151.281738, 4177.948730, 4178.974121, 4189.743652, 4208.205078, 4230.769043, 4230.769043, 4245.641113, 4233.333008, 4217.948730, 4213.333008, 4203.076660, 4202.563965, 0.000000, 8211.000000, 8145.000000, 0.000000, 0.000000, 0.000000, 16312.000000, 497.435883, 4.000000, 4.000000, 4.000000, 4.000000, 4.000000, 4.000000, 4.000000, 4.000000, 4.000000, 4.000000, 4.000000, 4.000000, 4.000000, 4.000000, 4.000000, 4.000000
18.000000, 0.000000, 4184.102539, 4154.358887, 4180.512695, 4186.666504, 4188.205078, 4205.127930, 4227.692383, 4220.512695, 4233.846191, 4229.743652, 4209.230469, 4212.820313, 4194.358887, 4201.025391, 0.000000, 8211.000000, 8145.000000, 0.000000, 0.000000, 0.000000, 16312.000000, 505.128204, 4.000000, 4.000000, 4.000000, 4.000000, 4.000000, 4.000000, 4.000000, 4.000000, 4.000000, 4.000000, 4.000000, 4.000000, 4.000000, 4.000000, 4.000000, 4.000000
19.000000, 0.000000, 4174.358887, 4150.769043, 4180.512695, 4184.102539, 4191.794922, 4200.512695, 4207.692383, 4214.358887, 4222.051270, 4220.512695, 4201.538574, 4208.205078, 4183.589844, 4198.461426, 0.000000, 8220.000000, 8151.000000, 0.000000, 0.000000, 0.000000, 16312.000000, 512.820496, 4.000000, 4.000000, 4.000000, 4.000000, 4.000000, 4.000000, 4.000000, 4.000000, 4.000000, 4.000000, 4.000000, 4.000000, 4.000000, 4.000000, 4.000000, 4.000000
20.000000, 0.000000, 4174.871582, 4155.384277, 4177.436035, 4184.102539, 4196.410156, 4197.436035, 4204.102539, 4214.871582, 4218.461426, 4211.794922, 4199.487305, 4207.179199, 4184.615234, 4200.512695, 0.000000, 8220.000000, 8151.000000, 0.000000, 0.000000, 0.000000, 16312.000000, 520.512817, 4.000000, 4.000000, 4.000000, 4.000000, 4.000000, 4.000000, 4.000000, 4.000000, 4.000000, 4.000000, 4.000000, 4.000000, 4.000000, 4.000000, 4.000000, 4.000000
21.000000, 0.000000, 4180.000000, 4155.897461, 4177.436035, 4186.666504, 4196.410156, 4201.025391, 4211.794922, 4216.410156, 4215.384277, 4213.846191, 4193.333008, 4207.692383, 4188.205078, 4203.076660, 0.000000, 8228.000000, 8152.000000, 0.000000, 0.000000, 0.000000, 16312.000000, 528.205139, 4.000000, 4.000000, 4.000000, 4.000000, 4.000000, 4.000000, 4.000000, 4.000000, 4.000000, 4.000000, 4.000000, 4.000000, 4.000000, 4.000000, 4.000000, 4.000000
22.000000, 0.000000, 4180.000000, 4157.948730, 4178.461426, 4186.666504, 4195.897461, 4203.589844, 4207.179199, 4211.794922, 4212.820313, 4217.436035, 4189.743652, 4203.076660, 4188.205078, 4198.461426, 0.000000, 8228.000000, 8152.000000, 0.000000, 0.000000, 0.000000, 16312.000000, 535.897400, 4.000000, 4.000000, 4.000000, 4.000000, 4.000000, 4.000000, 4.000000, 4.000000, 4.000000, 4.000000, 4.000000, 4.000000, 4.000000, 4.000000, 4.000000, 4.000000
23.000000, 0.000000, 4179.487305, 4163.076660, 4179.487305, 4188.205078, 4194.358887, 4200.512695, 4201.025391, 4202.051270, 4208.717773, 4212.307617, 4191.794922, 4204.615234, 4187.692383, 4203.076660, 0.000000, 8230.000000, 8155.000000, 0.000000, 0.000000, 0.000000, 16312.000000, 544.102539, 4.000000, 4.000000, 4.000000, 4.000000, 4.000000, 4.000000, 4.000000, 4.000000, 4.000000, 4.000000, 4.000000, 4.000000, 4.000000, 4.000000, 4.000000, 4.000000
24.000000, 0.000000, 4176.410156, 4156.922852, 4177.436035, 4187.179199, 4180.000000, 4196.922852, 4203.076660, 4196.410156, 4203.076660, 4204.102539, 4186.153809, 4198.461426, 4184.615234, 4200.512695, 0.000000, 8230.000000, 8155.000000, 0.000000, 0.000000, 0.000000, 16312.000000, 551.794861, 4.000000, 4.000000, 4.000000, 4.000000, 4.000000, 4.000000, 4.000000, 4.000000, 4.000000, 4.000000, 4.000000, 4.000000, 4.000000, 4.000000, 4.000000, 4.000000
25.000000, 0.000000, 4178.974121, 4159.487305, 4176.410156, 4184.615234, 4176.410156, 4196.410156, 4201.025391, 4197.948730, 4206.666504, 4199.487305, 4181.025391, 4198.974121, 4183.076660, 4196.410156, 0.000000, 8228.000000, 8159.000000, 0.000000, 0.000000, 0.000000, 16312.000000, 559.487183, 4.000000, 4.000000, 4.000000, 4.000000, 4.000000, 4.000000, 4.000000, 4.000000, 4.000000, 4.000000, 4.000000, 4.000000, 4.000000, 4.000000, 4.000000, 4.000000
26.000000, 0.000000, 4184.615234, 4166.666504, 4181.538574, 4186.153809, 4195.384277, 4199.487305, 4200.000000, 4203.589844, 4213.846191, 4203.076660, 4187.179199, 4210.256348, 4187.692383, 4204.615234, 0.000000, 8228.000000, 8159.000000, 0.000000, 0.000000, 0.000000, 16312.000000, 567.179443, 4.000000, 4.000000, 4.000000, 4.000000, 4.000000, 4.000000, 4.000000, 4.000000, 4.000000, 4.000000, 4.000000, 4.000000, 4.000000, 4.000000, 4.000000, 4.000000
27.000000, 0.000000, 4183.076660, 4157.948730, 4180.512695, 4185.641113, 4201.025391, 4194.871582, 4201.025391, 4203.076660, 4207.179199, 4203.076660, 4189.230469, 4208.717773, 4189.230469, 4201.025391, 0.000000, 8226.000000, 8159.000000, 0.000000, 0.000000, 0.000000, 16312.000000, 574.871765, 4.000000, 4.000000, 4.000000, 4.000000, 4.000000, 4.000000, 4.000000, 4.000000, 4.000000, 4.000000, 4.000000, 4.000000, 4.000000, 4.000000, 4.000000, 4.000000
28.000000, 0.000000, 4182.051270, 4157.948730, 4178.974121, 4184.102539, 4194.358887, 4187.179199, 4199.487305, 4198.974121, 4200.512695, 4200.512695, 4186.153809, 4210.769043, 4189.743652, 4202.051270, 0.000000, 8226.000000, 8159.000000, 0.000000, 0.000000, 0.000000, 16312.000000, 582.564087, 4.000000, 4.000000, 4.000000, 4.000000, 4.000000, 4.000000, 4.000000, 4.000000, 4.000000, 4.000000, 4.000000, 4.000000, 4.000000, 4.000000, 4.000000, 4.000000
29.000000, 0.000000, 4184.102539, 4171.281738, 4182.563965, 4187.179199, 4200.512695, 4194.358887, 4210.256348, 4207.179199, 4209.743652, 4206.153809, 4193.333008, 4207.692383, 4194.358887, 4208.205078, 0.000000, 8228.000000, 8162.000000, 0.000000, 0.000000, 0.000000, 16312.000000, 590.769226, 4.000000, 4.000000, 4.000000, 4.000000, 4.000000, 4.000000, 4.000000, 4.000000, 4.000000, 4.000000, 4.000000, 4.000000, 4.000000, 4.000000, 4.000000, 4.000000
30.000000, 0.000000, 4184.102539, 4171.281738, 4178.461426, 4188.205078, 4202.563965, 4204.615234, 4219.487305, 4217.948730, 4212.307617, 4207.692383, 4195.897461, 4200.512695, 4192.307617, 4201.025391, 0.000000, 8228.000000, 8162.000000, 0.000000, 0.000000, 0.000000, 16312.000000, 598.461548, 4.000000, 4.000000, 4.000000, 4.000000, 4.000000, 4.000000, 4.000000, 4.000000, 4.000000, 4.000000, 4.000000, 4.000000, 4.000000, 4.000000, 4.000000, 4.000000
31.000000, 0.000000, 4177.436035, 4166.153809, 4171.281738, 4184.615234, 4191.794922, 4198.974121, 4206.153809, 4208.205078, 4201.538574, 4199.487305, 4189.230469, 4200.000000, 4187.692383, 4197.436035, 0.000000, 8221.000000, 8162.000000, 0.000000, 0.000000, 0.000000, 16312.000000, 606.153809, 4.000000, 4.000000, 4.000000, 4.000000, 4.000000, 4.000000, 4.000000, 4.000000, 4.000000, 4.000000, 4.000000, 4.000000, 4.000000, 4.000000, 4.000000, 4.000000
32.000000, 0.000000, 4171.794922, 4167.692383, 4170.769043, 4183.589844, 4188.717773, 4191.281738, 4192.307617, 4195.384277, 4200.512695, 4198.974121, 4191.281738, 4198.974121, 4187.179199, 4197.948730, 0.000000, 8221.000000, 8162.000000, 0.000000, 0.000000, 0.000000, 16312.000000, 614.358948, 4.000000, 4.000000, 4.000000, 4.000000, 4.000000, 4.000000, 4.000000, 4.000000, 4.000000, 4.000000, 4.000000, 4.000000, 4.000000, 4.000000, 4.000000, 4.000000
33.000000, 0.000000, 4170.769043, 4161.538574, 4174.871582, 4182.563965, 4196.922852, 4193.846191, 4196.410156, 4203.076660, 4207.692383, 4202.563965, 4196.922852, 4205.127930, 4186.666504, 4201.025391, 0.000000, 8216.000000, 8165.000000, 0.000000, 0.000000, 0.000000, 16312.000000, 622.051270, 4.000000, 4.000000, 4.000000, 4.000000, 4.000000, 4.000000, 4.000000, 4.000000, 4.000000, 4.000000, 4.000000, 4.000000, 4.000000, 4.000000, 4.000000, 4.000000
