title:winkLeft18, recorded:17.05.18 22.10.43, timestamp started:2018-05-12T20:28:52.032863+02:00            , sampling:128, subject:Noé, labels:COUNTER INTERPOLATED AF3 F7 F3 FC5 T7 P7 O1 O2 P8 T8 FC6 F4 F8 AF4 RAW_CQ GYROX GYROY MARKER MARKER_HARDWARE SYNC TIME_STAMP_s TIME_STAMP_ms CQ_AF3 CQ_F7 CQ_F3 CQ_FC5 CQ_T7 CQ_P7 CQ_O1 CQ_O2 CQ_P8 CQ_T8 CQ_FC6 CQ_F4 CQ_F8 CQ_AF4 CQ_CMS CQ_DRL, chan:40, samples:2507, units:emotiv
0.000000, 0.000000, 4231.794922, 4215.384277, 4216.922852, 4221.538574, 4224.102539, 4205.641113, 4202.051270, 4178.974121, 4198.974121, 4634.871582, 4190.769043, 4200.000000, 4210.769043, 4209.230469, 3359.000000, 8525.000000, 8167.000000, 0.000000, 0.000000, 0.000000, -20641.000000, 516.410217, 4.000000, 4.000000, 4.000000, 4.000000, 4.000000, 4.000000, 4.000000, 4.000000, 4.000000, 4.000000, 4.000000, 4.000000, 4.000000, 4.000000, 4.000000, 4.000000
1.000000, 0.000000, 4220.000000, 4210.769043, 4211.794922, 4215.384277, 4220.512695, 4200.512695, 4210.256348, 4201.025391, 4200.000000, 4601.538574, 4188.717773, 4197.948730, 4211.794922, 4208.717773, 3509.000000, 8509.000000, 8184.000000, 0.000000, 0.000000, 0.000000, -20641.000000, 524.102539, 4.000000, 4.000000, 4.000000, 4.000000, 4.000000, 4.000000, 4.000000, 4.000000, 4.000000, 4.000000, 4.000000, 4.000000, 4.000000, 4.000000, 4.000000, 4.000000
2.000000, 0.000000, 4224.615234, 4211.281738, 4208.205078, 4215.897461, 4212.820313, 4200.000000, 4203.589844, 4197.948730, 4200.000000, 4571.794922, 4192.820313, 4196.410156, 4213.333008, 4206.666504, 2515.000000, 8509.000000, 8184.000000, 0.000000, 0.000000, 0.000000, -20641.000000, 532.307678, 4.000000, 4.000000, 4.000000, 4.000000, 4.000000, 4.000000, 4.000000, 4.000000, 4.000000, 4.000000, 4.000000, 4.000000, 4.000000, 4.000000, 4.000000, 4.000000
3.000000, 0.000000, 4225.641113, 4212.820313, 4205.641113, 4214.358887, 4217.436035, 4202.563965, 4200.512695, 4185.641113, 4198.974121, 4568.205078, 4196.922852, 4203.589844, 4218.461426, 4213.846191, 2194.000000, 8489.000000, 8190.000000, 0.000000, 0.000000, 0.000000, -20641.000000, 540.000000, 4.000000, 4.000000, 4.000000, 4.000000, 4.000000, 4.000000, 4.000000, 4.000000, 4.000000, 4.000000, 4.000000, 4.000000, 4.000000, 4.000000, 4.000000, 4.000000
4.000000, 0.000000, 4223.589844, 4210.256348, 4203.076660, 4206.153809, 4215.897461, 4202.563965, 4211.281738, 4200.512695, 4208.205078, 4548.205078, 4200.000000, 4206.153809, 4217.948730, 4212.307617, 3527.000000, 8489.000000, 8190.000000, 0.000000, 0.000000, 0.000000, -20641.000000, 547.692322, 4.000000, 4.000000, 4.000000, 4.000000, 4.000000, 4.000000, 4.000000, 4.000000, 4.000000, 4.000000, 4.000000, 4.000000, 4.000000, 4.000000, 4.000000, 4.000000
5.000000, 0.000000, 4223.589844, 4209.230469, 4199.487305, 4206.153809, 4202.563965, 4205.127930, 4214.358887, 4221.025391, 4221.538574, 4506.666504, 4202.563965, 4204.615234, 4216.410156, 4208.205078, 3539.000000, 8443.000000, 8208.000000, 0.000000, 0.000000, 0.000000, -20641.000000, 555.897400, 4.000000, 4.000000, 4.000000, 4.000000, 4.000000, 4.000000, 4.000000, 4.000000, 4.000000, 4.000000, 4.000000, 4.000000, 4.000000, 4.000000, 4.000000, 4.000000
6.000000, 0.000000, 4215.384277, 4207.179199, 4196.410156, 4212.820313, 4198.461426, 4211.281738, 4207.692383, 4219.487305, 4224.615234, 4477.435547, 4204.102539, 4202.563965, 4217.948730, 4209.230469, 3127.000000, 8443.000000, 8208.000000, 0.000000, 0.000000, 0.000000, -20641.000000, 563.589722, 4.000000, 4.000000, 4.000000, 4.000000, 4.000000, 4.000000, 4.000000, 4.000000, 4.000000, 4.000000, 4.000000, 4.000000, 4.000000, 4.000000, 4.000000, 4.000000
7.000000, 0.000000, 4217.948730, 4202.563965, 4198.974121, 4208.205078, 4208.717773, 4215.384277, 4212.307617, 4206.666504, 4213.846191, 4442.051270, 4200.512695, 4196.410156, 4211.281738, 4206.153809, 3505.000000, 8424.000000, 8204.000000, 0.000000, 0.000000, 0.000000, -20641.000000, 571.282043, 4.000000, 4.000000, 4.000000, 4.000000, 4.000000, 4.000000, 4.000000, 4.000000, 4.000000, 4.000000, 4.000000, 4.000000, 4.000000, 4.000000, 4.000000, 4.000000
8.000000, 0.000000, 4210.769043, 4197.436035, 4197.948730, 4197.436035, 4213.333008, 4216.410156, 4217.436035, 4203.076660, 4205.127930, 4394.871582, 4193.333008, 4193.333008, 4203.076660, 4209.230469, 3518.000000, 8424.000000, 8204.000000, 0.000000, 0.000000, 0.000000, -20641.000000, 579.487183, 4.000000, 4.000000, 4.000000, 4.000000, 4.000000, 4.000000, 4.000000, 4.000000, 4.000000, 4.000000, 4.000000, 4.000000, 4.000000, 4.000000, 4.000000, 4.000000
9.000000, 0.000000, 4208.717773, 4197.436035, 4196.922852, 4197.436035, 4209.230469, 4213.333008, 4207.692383, 4202.051270, 4201.025391, 4369.743652, 4191.281738, 4196.922852, 4207.692383, 4208.717773, 3518.000000, 8394.000000, 8174.000000, 0.000000, 0.000000, 0.000000, -20641.000000, 587.179443, 4.000000, 4.000000, 4.000000, 4.000000, 4.000000, 4.000000, 4.000000, 4.000000, 4.000000, 4.000000, 4.000000, 4.000000, 4.000000, 4.000000, 4.000000, 4.000000
10.000000, 0.000000, 4221.538574, 4202.563965, 4207.692383, 4209.743652, 4211.794922, 4207.179199, 4200.512695, 4200.000000, 4204.102539, 4360.000000, 4201.025391, 4202.563965, 4219.487305, 4205.127930, 3542.000000, 8394.000000, 8174.000000, 0.000000, 0.000000, 0.000000, -20641.000000, 594.871765, 4.000000, 4.000000, 4.000000, 4.000000, 4.000000, 4.000000, 4.000000, 4.000000, 4.000000, 4.000000, 4.000000, 4.000000, 4.000000, 4.000000, 4.000000, 4.000000
11.000000, 0.000000, 4217.948730, 4203.076660, 4212.820313, 4215.897461, 4211.794922, 4202.051270, 4204.102539, 4198.974121, 4211.794922, 4344.615234, 4205.641113, 4204.615234, 4221.538574, 4206.666504, 431.000000, 8385.000000, 8159.000000, 0.000000, 0.000000, 0.000000, -20641.000000, 602.564087, 4.000000, 4.000000, 4.000000, 4.000000, 4.000000, 4.000000, 4.000000, 4.000000, 4.000000, 4.000000, 4.000000, 4.000000, 4.000000, 4.000000, 4.000000, 4.000000
12.000000, 0.000000, 4219.487305, 4201.025391, 4205.641113, 4207.692383, 4207.179199, 4201.025391, 4209.230469, 4198.974121, 4214.358887, 4329.743652, 4196.922852, 4197.436035, 4215.897461, 4202.563965, 3476.000000, 8385.000000, 8159.000000, 0.000000, 0.000000, 0.000000, -20641.000000, 610.769226, 4.000000, 4.000000, 4.000000, 4.000000, 4.000000, 4.000000, 4.000000, 4.000000, 4.000000, 4.000000, 4.000000, 4.000000, 4.000000, 4.000000, 4.000000, 4.000000
13.000000, 0.000000, 4218.974121, 4199.487305, 4203.076660, 4205.641113, 4202.051270, 4200.000000, 4212.307617, 4202.563965, 4216.410156, 4325.641113, 4194.358887, 4192.820313, 4214.871582, 4206.666504, 3394.000000, 8379.000000, 8147.000000, 0.000000, 0.000000, 0.000000, -20641.000000, 618.461548, 4.000000, 4.000000, 4.000000, 4.000000, 4.000000, 4.000000, 4.000000, 4.000000, 4.000000, 4.000000, 4.000000, 4.000000, 4.000000, 4.000000, 4.000000, 4.000000
14.000000, 0.000000, 4216.922852, 4201.538574, 4212.820313, 4213.846191, 4195.384277, 4201.538574, 4212.307617, 4203.076660, 4218.974121, 4326.666504, 4203.076660, 4201.538574, 4220.512695, 4208.205078, 3542.000000, 8379.000000, 8147.000000, 0.000000, 0.000000, 0.000000, -20641.000000, 626.666626, 4.000000, 4.000000, 4.000000, 4.000000, 4.000000, 4.000000, 4.000000, 4.000000, 4.000000, 4.000000, 4.000000, 4.000000, 4.000000, 4.000000, 4.000000, 4.000000
15.000000, 0.000000, 4231.281738, 4208.205078, 4225.127930, 4218.461426, 4207.692383, 4209.230469, 4213.846191, 4202.051270, 4220.000000, 4322.563965, 4210.769043, 4212.820313, 4232.307617, 4205.127930, 431.000000, 8385.000000, 8135.000000, 0.000000, 0.000000, 0.000000, -20641.000000, 634.358948, 4.000000, 4.000000, 4.000000, 4.000000, 4.000000, 4.000000, 4.000000, 4.000000, 4.000000, 4.000000, 4.000000, 4.000000, 4.000000, 4.000000, 4.000000, 4.000000
16.000000, 0.000000, 4231.794922, 4207.179199, 4226.153809, 4217.436035, 4229.230469, 4214.871582, 4218.461426, 4204.615234, 4218.461426, 4331.281738, 4209.230469, 4215.897461, 4235.897461, 4210.256348, 0.000000, 8385.000000, 8135.000000, 0.000000, 0.000000, 0.000000, -20641.000000, 642.051270, 4.000000, 4.000000, 4.000000, 4.000000, 4.000000, 4.000000, 4.000000, 4.000000, 4.000000, 4.000000, 4.000000, 4.000000, 4.000000, 4.000000, 4.000000, 4.000000
17.000000, 0.000000, 4227.179199, 4201.025391, 4223.076660, 4215.897461, 4224.102539, 4215.384277, 4212.307617, 4200.000000, 4215.384277, 4377.435547, 4200.512695, 4210.256348, 4222.563965, 4210.256348, 0.000000, 8387.000000, 8134.000000, 0.000000, 0.000000, 0.000000, -20641.000000, 650.256409, 4.000000, 4.000000, 4.000000, 4.000000, 4.000000, 4.000000, 4.000000, 4.000000, 4.000000, 4.000000, 4.000000, 4.000000, 4.000000, 4.000000, 4.000000, 4.000000
18.000000, 0.000000, 4224.615234, 4202.563965, 4220.512695, 4216.410156, 4213.846191, 4213.846191, 4201.538574, 4194.871582, 4216.410156, 4443.589844, 4197.436035, 4207.179199, 4223.589844, 4210.769043, 0.000000, 8387.000000, 8134.000000, 0.000000, 0.000000, 0.000000, -20641.000000, 657.948730, 4.000000, 4.000000, 4.000000, 4.000000, 4.000000, 4.000000, 4.000000, 4.000000, 4.000000, 4.000000, 4.000000, 4.000000, 4.000000, 4.000000, 4.000000, 4.000000
19.000000, 0.000000, 4231.794922, 4211.281738, 4217.948730, 4220.512695, 4222.563965, 4209.230469, 4202.563965, 4195.384277, 4218.461426, 4503.076660, 4201.538574, 4207.692383, 4240.000000, 4209.743652, 0.000000, 8391.000000, 8151.000000, 0.000000, 0.000000, 0.000000, -20641.000000, 666.153809, 4.000000, 4.000000, 4.000000, 4.000000, 4.000000, 4.000000, 4.000000, 4.000000, 4.000000, 4.000000, 4.000000, 4.000000, 4.000000, 4.000000, 4.000000, 4.000000
20.000000, 0.000000, 4241.025391, 4212.307617, 4215.897461, 4219.487305, 4223.076660, 4202.563965, 4200.512695, 4186.153809, 4208.717773, 4517.948730, 4205.127930, 4204.615234, 4241.025391, 4209.743652, 0.000000, 8391.000000, 8151.000000, 0.000000, 0.000000, 0.000000, -20641.000000, 673.846130, 4.000000, 4.000000, 4.000000, 4.000000, 4.000000, 4.000000, 4.000000, 4.000000, 4.000000, 4.000000, 4.000000, 4.000000, 4.000000, 4.000000, 4.000000, 4.000000
21.000000, 0.000000, 4229.230469, 4205.127930, 4211.794922, 4214.871582, 4215.384277, 4202.051270, 4192.307617, 4173.333008, 4197.436035, 4447.179199, 4203.076660, 4201.025391, 4230.256348, 4211.281738, 0.000000, 8395.000000, 8166.000000, 0.000000, 0.000000, 0.000000, -20641.000000, 682.051270, 4.000000, 4.000000, 4.000000, 4.000000, 4.000000, 4.000000, 4.000000, 4.000000, 4.000000, 4.000000, 4.000000, 4.000000, 4.000000, 4.000000, 4.000000, 4.000000
22.000000, 0.000000, 4234.871582, 4208.205078, 4212.820313, 4217.948730, 4222.563965, 4207.692383, 4201.025391, 4179.487305, 4203.076660, 4355.897461, 4201.025391, 4202.051270, 4231.794922, 4205.641113, 0.000000, 8395.000000, 8166.000000, 0.000000, 0.000000, 0.000000, -20641.000000, 689.743591, 4.000000, 4.000000, 4.000000, 4.000000, 4.000000, 4.000000, 4.000000, 4.000000, 4.000000, 4.000000, 4.000000, 4.000000, 4.000000, 4.000000, 4.000000, 4.000000
23.000000, 0.000000, 4238.974121, 4208.717773, 4213.333008, 4217.436035, 4217.948730, 4208.717773, 4216.922852, 4191.794922, 4213.333008, 4337.436035, 4203.589844, 4206.153809, 4236.410156, 4208.717773, 0.000000, 8388.000000, 8174.000000, 0.000000, 0.000000, 0.000000, -20641.000000, 697.435852, 4.000000, 4.000000, 4.000000, 4.000000, 4.000000, 4.000000, 4.000000, 4.000000, 4.000000, 4.000000, 4.000000, 4.000000, 4.000000, 4.000000, 4.000000, 4.000000
24.000000, 0.000000, 4228.205078, 4205.641113, 4209.230469, 4213.333008, 4205.127930, 4203.076660, 4208.717773, 4187.692383, 4208.717773, 4339.487305, 4206.666504, 4206.666504, 4230.769043, 4209.230469, 0.000000, 8388.000000, 8174.000000, 0.000000, 0.000000, 0.000000, -20641.000000, 705.640991, 4.000000, 4.000000, 4.000000, 4.000000, 4.000000, 4.000000, 4.000000, 4.000000, 4.000000, 4.000000, 4.000000, 4.000000, 4.000000, 4.000000, 4.000000, 4.000000
25.000000, 0.000000, 4237.436035, 4213.333008, 4210.256348, 4218.974121, 4217.948730, 4199.487305, 4189.230469, 4185.641113, 4204.102539, 4312.820313, 4209.230469, 4202.051270, 4232.307617, 4203.589844, 0.000000, 8375.000000, 8188.000000, 0.000000, 0.000000, 0.000000, -20641.000000, 713.333313, 4.000000, 4.000000, 4.000000, 4.000000, 4.000000, 4.000000, 4.000000, 4.000000, 4.000000, 4.000000, 4.000000, 4.000000, 4.000000, 4.000000, 4.000000, 4.000000
26.000000, 0.000000, 4233.333008, 4209.743652, 4205.641113, 4217.948730, 4235.384277, 4202.563965, 4190.256348, 4192.820313, 4203.589844, 4304.615234, 4204.615234, 4197.948730, 4230.256348, 4206.666504, 0.000000, 8375.000000, 8188.000000, 0.000000, 0.000000, 0.000000, -20641.000000, 721.025635, 4.000000, 4.000000, 4.000000, 4.000000, 4.000000, 4.000000, 4.000000, 4.000000, 4.000000, 4.000000, 4.000000, 4.000000, 4.000000, 4.000000, 4.000000, 4.000000
27.000000, 0.000000, 4228.205078, 4201.538574, 4197.948730, 4205.641113, 4233.846191, 4206.666504, 4200.000000, 4189.230469, 4197.948730, 4311.794922, 4195.384277, 4191.794922, 4217.436035, 4204.615234, 0.000000, 8373.000000, 8193.000000, 0.000000, 0.000000, 0.000000, -20641.000000, 729.230774, 4.000000, 4.000000, 4.000000, 4.000000, 4.000000, 4.000000, 4.000000, 4.000000, 4.000000, 4.000000, 4.000000, 4.000000, 4.000000, 4.000000, 4.000000, 4.000000
28.000000, 0.000000, 4233.333008, 4206.666504, 4201.538574, 4206.666504, 4230.769043, 4205.127930, 4199.487305, 4185.641113, 4202.051270, 4317.948730, 4201.538574, 4190.769043, 4220.512695, 4203.589844, 0.000000, 8373.000000, 8193.000000, 0.000000, 0.000000, 0.000000, -20641.000000, 736.923035, 4.000000, 4.000000, 4.000000, 4.000000, 4.000000, 4.000000, 4.000000, 4.000000, 4.000000, 4.000000, 4.000000, 4.000000, 4.000000, 4.000000, 4.000000, 4.000000
29.000000, 0.000000, 4233.333008, 4210.256348, 4207.692383, 4213.333008, 4231.281738, 4201.025391, 4196.922852, 4197.948730, 4214.871582, 4338.461426, 4212.820313, 4193.333008, 4231.794922, 4207.179199, 0.000000, 8365.000000, 8198.000000, 0.000000, 0.000000, 0.000000, -20641.000000, 745.128174, 4.000000, 4.000000, 4.000000, 4.000000, 4.000000, 4.000000, 4.000000, 4.000000, 4.000000, 4.000000, 4.000000, 4.000000, 4.000000, 4.000000, 4.000000, 4.000000
30.000000, 0.000000, 4238.461426, 4208.205078, 4207.692383, 4207.692383, 4229.230469, 4198.974121, 4200.512695, 4214.358887, 4221.538574, 4353.846191, 4207.692383, 4191.281738, 4234.871582, 4205.127930, 0.000000, 8365.000000, 8198.000000, 0.000000, 0.000000, 0.000000, -20641.000000, 752.820496, 4.000000, 4.000000, 4.000000, 4.000000, 4.000000, 4.000000, 4.000000, 4.000000, 4.000000, 4.000000, 4.000000, 4.000000, 4.000000, 4.000000, 4.000000, 4.000000
31.000000, 0.000000, 4236.410156, 4215.897461, 4212.820313, 4210.256348, 4234.358887, 4200.512695, 4202.563965, 4217.436035, 4225.127930, 4357.435547, 4208.205078, 4194.358887, 4238.974121, 4207.179199, 0.000000, 8360.000000, 8193.000000, 0.000000, 0.000000, 0.000000, -20641.000000, 760.512817, 4.000000, 4.000000, 4.000000, 4.000000, 4.000000, 4.000000, 4.000000, 4.000000, 4.000000, 4.000000, 4.000000, 4.000000, 4.000000, 4.000000, 4.000000, 4.000000
32.000000, 0.000000, 4241.025391, 4224.102539, 4219.487305, 4221.538574, 4230.256348, 4199.487305, 4202.051270, 4211.794922, 4224.615234, 4365.641113, 4216.410156, 4202.051270, 4243.589844, 4207.179199, 0.000000, 8360.000000, 8193.000000, 0.000000, 0.000000, 0.000000, -20641.000000, 768.717957, 4.000000, 4.000000, 4.000000, 4.000000, 4.000000, 4.000000, 4.000000, 4.000000, 4.000000, 4.000000, 4.000000, 4.000000, 4.000000, 4.000000, 4.000000, 4.000000
33.000000, 0.000000, 4240.512695, 4215.384277, 4213.333008, 4214.358887, 4221.538574, 4196.410156, 4203.076660, 4207.179199, 4214.871582, 4367.692383, 4212.820313, 4204.615234, 4235.897461, 4208.205078, 0.000000, 8357.000000, 8185.000000, 0.000000, 0.000000, 0.000000, -20641.000000, 776.410217, 4.000000, 4.000000, 4.000000, 4.000000, 4.000000, 4.000000, 4.000000, 4.000000, 4.000000, 4.000000, 4.000000, 4.000000, 4.000000, 4.000000, 4.000000, 4.000000
34.000000, 0.000000, 4224.615234, 4205.641113, 4204.102539, 4203.076660, 4228.205078, 4198.974121, 4202.563965, 4199.487305, 4201.025391, 4355.384277, 4200.512695, 4199.487305, 4217.436035, 4208.717773, 0.000000, 8357.000000, 8185.000000, 0.000000, 0.000000, 0.000000, -20641.000000, 784.102539, 4.000000, 4.000000, 4.000000, 4.000000, 4.000000, 4.000000, 4.000000, 4.000000, 4.000000, 4.000000, 4.000000, 4.000000, 4.000000, 4.000000, 4.000000, 4.000000
35.000000, 0.000000, 4223.076660, 4200.512695, 4198.974121, 4197.436035, 4227.179199, 4201.538574, 4198.461426, 4197.436035, 4195.897461, 4341.538574, 4189.230469, 4190.256348, 4198.974121, 4201.538574, 0.000000, 8343.000000, 8172.000000, 0.000000, 0.000000, 0.000000, -20641.000000, 791.794861, 4.000000, 4.000000, 4.000000, 4.000000, 4.000000, 4.000000, 4.000000, 4.000000, 4.000000, 4.000000, 4.000000, 4.000000, 4.000000, 4.000000, 4.000000, 4.000000
36.000000, 0.000000, 4218.461426, 4194.358887, 4194.871582, 4189.230469, 4215.384277, 4203.076660, 4205.641113, 4202.051270, 4203.589844, 4339.487305, 4183.076660, 4186.666504, 4193.333008, 4208.205078, 0.000000, 8343.000000, 8172.000000, 0.000000, 0.000000, 0.000000, -20641.000000, 800.000000, 4.000000, 4.000000, 4.000000, 4.000000, 4.000000, 4.000000, 4.000000, 4.000000, 4.000000, 4.000000, 4.000000, 4.000000, 4.000000, 4.000000, 4.000000, 4.000000
37.000000, 0.000000, 4219.487305, 4199.487305, 4198.974121, 4190.769043, 4208.717773, 4208.717773, 4212.307617, 4199.487305, 4212.307617, 4358.974121, 4189.743652, 4190.769043, 4203.076660, 4212.307617, 0.000000, 8332.000000, 8164.000000, 0.000000, 0.000000, 0.000000, -20641.000000, 808.205078, 4.000000, 4.000000, 4.000000, 4.000000, 4.000000, 4.000000, 4.000000, 4.000000, 4.000000, 4.000000, 4.000000, 4.000000, 4.000000, 4.000000, 4.000000, 4.000000
38.000000, 0.000000, 4229.230469, 4209.230469, 4207.179199, 4201.538574, 4212.307617, 4207.692383, 4201.025391, 4201.025391, 4216.922852, 4391.281738, 4206.153809, 4201.025391, 4216.410156, 4210.769043, 0.000000, 8332.000000, 8164.000000, 0.000000, 0.000000, 0.000000, -20641.000000, 815.897400, 4.000000, 4.000000, 4.000000, 4.000000, 4.000000, 4.000000, 4.000000, 4.000000, 4.000000, 4.000000, 4.000000, 4.000000, 4.000000, 4.000000, 4.000000, 4.000000
39.000000, 0.000000, 4232.307617, 4210.256348, 4207.692383, 4203.589844, 4226.666504, 4199.487305, 4193.333008, 4212.820313, 4220.512695, 4403.076660, 4210.769043, 4210.769043, 4224.102539, 4211.794922, 0.000000, 8308.000000, 8146.000000, 0.000000, 0.000000, 0.000000, -20641.000000, 823.589722, 4.000000, 4.000000, 4.000000, 4.000000, 4.000000, 4.000000, 4.000000, 4.000000, 4.000000, 4.000000, 4.000000, 4.000000, 4.000000, 4.000000, 4.000000, 4.000000
40.000000, 0.000000, 4236.410156, 4210.769043, 4206.666504, 4200.512695, 4240.000000, 4199.487305, 4195.384277, 4206.666504, 4213.846191, 4393.846191, 4207.179199, 4207.692383, 4222.563965, 4206.153809, 0.000000, 8308.000000, 8146.000000, 0.000000, 0.000000, 0.000000, -20641.000000, 831.282043, 4.000000, 4.000000, 4.000000, 4.000000, 4.000000, 4.000000, 4.000000, 4.000000, 4.000000, 4.000000, 4.000000, 4.000000, 4.000000, 4.000000, 4.000000, 4.000000
41.000000, 0.000000, 4228.717773, 4211.281738, 4203.076660, 4200.512695, 4231.794922, 4201.025391, 4193.846191, 4190.769043, 4202.051270, 4388.717773, 4205.641113, 4194.358887, 4218.461426, 4206.666504, 0.000000, 8297.000000, 8143.000000, 0.000000, 0.000000, 0.000000, -20641.000000, 839.487183, 4.000000, 4.000000, 4.000000, 4.000000, 4.000000, 4.000000, 4.000000, 4.000000, 4.000000, 4.000000, 4.000000, 4.000000, 4.000000, 4.000000, 4.000000, 4.000000
42.000000, 0.000000, 4228.717773, 4209.230469, 4199.487305, 4201.025391, 4220.000000, 4198.461426, 4194.358887, 4196.410156, 4206.153809, 4380.000000, 4200.000000, 4186.153809, 4216.410156, 4206.666504, 0.000000, 8297.000000, 8143.000000, 0.000000, 0.000000, 0.000000, -20641.000000, 847.179443, 4.000000, 4.000000, 4.000000, 4.000000, 4.000000, 4.000000, 4.000000, 4.000000, 4.000000, 4.000000, 4.000000, 4.000000, 4.000000, 4.000000, 4.000000, 4.000000
43.000000, 0.000000, 4235.384277, 4204.615234, 4199.487305, 4201.538574, 4220.000000, 4200.512695, 4200.512695, 4206.153809, 4210.769043, 4358.461426, 4191.281738, 4185.127930, 4209.230469, 4205.127930, 0.000000, 8275.000000, 8130.000000, 0.000000, 0.000000, 0.000000, -20641.000000, 854.871765, 4.000000, 4.000000, 4.000000, 4.000000, 4.000000, 4.000000, 4.000000, 4.000000, 4.000000, 4.000000, 4.000000, 4.000000, 4.000000, 4.000000, 4.000000, 4.000000
44.000000, 0.000000, 4224.102539, 4200.000000, 4199.487305, 4197.948730, 4218.461426, 4204.102539, 4209.230469, 4202.563965, 4203.076660, 4337.948730, 4187.692383, 4179.487305, 4203.076660, 4211.281738, 0.000000, 8275.000000, 8130.000000, 0.000000, 0.000000, 0.000000, -20641.000000, 863.076904, 4.000000, 4.000000, 4.000000, 4.000000, 4.000000, 4.000000, 4.000000, 4.000000, 4.000000, 4.000000, 4.000000, 4.000000, 4.000000, 4.000000, 4.000000, 4.000000
45.000000, 0.000000, 4225.641113, 4206.666504, 4202.563965, 4197.948730, 4223.076660, 4205.641113, 4214.871582, 4213.333008, 4210.769043, 4331.281738, 4194.871582, 4180.000000, 4209.743652, 4210.256348, 0.000000, 8262.000000, 8120.000000, 0.000000, 0.000000, 0.000000, -20641.000000, 870.769226, 4.000000, 4.000000, 4.000000, 4.000000, 4.000000, 4.000000, 4.000000, 4.000000, 4.000000, 4.000000, 4.000000, 4.000000, 4.000000, 4.000000, 4.000000, 4.000000
46.000000, 0.000000, 4230.769043, 4213.846191, 4206.153809, 4206.153809, 4217.436035, 4206.666504, 4213.846191, 4224.102539, 4231.794922, 4328.717773, 4204.615234, 4195.897461, 4223.589844, 4213.333008, 0.000000, 8262.000000, 8120.000000, 0.000000, 0.000000, 0.000000, -20641.000000, 878.974365, 4.000000, 4.000000, 4.000000, 4.000000, 4.000000, 4.000000, 4.000000, 4.000000, 4.000000, 4.000000, 4.000000, 4.000000, 4.000000, 4.000000, 4.000000, 4.000000
47.000000, 0.000000, 4235.897461, 4210.769043, 4208.205078, 4208.717773, 4200.512695, 4205.641113, 4207.692383, 4206.153809, 4229.743652, 4321.025391, 4203.589844, 4203.589844, 4225.641113, 4216.922852, 0.000000, 8247.000000, 8114.000000, 0.000000, 0.000000, 0.000000, -20641.000000, 886.666626, 4.000000, 4.000000, 4.000000, 4.000000, 4.000000, 4.000000, 4.000000, 4.000000, 4.000000, 4.000000, 4.000000, 4.000000, 4.000000, 4.000000, 4.000000, 4.000000
48.000000, 0.000000, 4241.025391, 4208.717773, 4210.769043, 4204.102539, 4207.179199, 4203.076660, 4204.102539, 4197.436035, 4217.436035, 4324.102539, 4201.025391, 4196.410156, 4219.487305, 4211.794922, 0.000000, 8247.000000, 8114.000000, 0.000000, 0.000000, 0.000000, -20641.000000, 894.358948, 4.000000, 4.000000, 4.000000, 4.000000, 4.000000, 4.000000, 4.000000, 4.000000, 4.000000, 4.000000, 4.000000, 4.000000, 4.000000, 4.000000, 4.000000, 4.000000
49.000000, 0.000000, 4233.333008, 4209.743652, 4208.205078, 4201.538574, 4222.563965, 4201.025391, 4198.974121, 4203.589844, 4215.897461, 4328.717773, 4202.563965, 4187.179199, 4215.897461, 4212.820313, 0.000000, 8216.000000, 8084.000000, 0.000000, 0.000000, 0.000000, -20641.000000, 902.564087, 4.000000, 4.000000, 4.000000, 4.000000, 4.000000, 4.000000, 4.000000, 4.000000, 4.000000, 4.000000, 4.000000, 4.000000, 4.000000, 4.000000, 4.000000, 4.000000
50.000000, 0.000000, 4237.948730, 4207.692383, 4201.538574, 4201.025391, 4212.820313, 4201.025391, 4200.000000, 4194.871582, 4211.794922, 4313.333008, 4197.948730, 4183.589844, 4215.384277, 4208.205078, 0.000000, 8216.000000, 8084.000000, 0.000000, 0.000000, 0.000000, -20641.000000, 910.256409, 4.000000, 4.000000, 4.000000, 4.000000, 4.000000, 4.000000, 4.000000, 4.000000, 4.000000, 4.000000, 4.000000, 4.000000, 4.000000, 4.000000, 4.000000, 4.000000
51.000000, 0.000000, 4233.846191, 4204.102539, 4193.333008, 4197.436035, 4196.410156, 4200.512695, 4200.000000, 4183.076660, 4203.076660, 4308.205078, 4193.333008, 4187.179199, 4217.436035, 4206.153809, 0.000000, 8201.000000, 8080.000000, 0.000000, 0.000000, 0.000000, -20641.000000, 917.948669, 4.000000, 4.000000, 4.000000, 4.000000, 4.000000, 4.000000, 4.000000, 4.000000, 4.000000, 4.000000, 4.000000, 4.000000, 4.000000, 4.000000, 4.000000, 4.000000
52.000000, 0.000000, 4226.666504, 4206.153809, 4196.922852, 4197.948730, 4203.076660, 4198.974121, 4190.769043, 4183.076660, 4199.487305, 4334.871582, 4198.974121, 4185.641113, 4221.538574, 4205.641113, 0.000000, 8201.000000, 8080.000000, 0.000000, 0.000000, 0.000000, -20641.000000, 926.153809, 4.000000, 4.000000, 4.000000, 4.000000, 4.000000, 4.000000, 4.000000, 4.000000, 4.000000, 4.000000, 4.000000, 4.000000, 4.000000, 4.000000, 4.000000, 4.000000
53.000000, 0.000000, 4235.897461, 4209.743652, 4209.743652, 4202.563965, 4209.743652, 4200.000000, 4194.358887, 4184.102539, 4198.461426, 4358.461426, 4204.615234, 4184.102539, 4222.563965, 4198.974121, 0.000000, 8168.000000, 8083.000000, 0.000000, 0.000000, 0.000000, -20641.000000, 933.846130, 4.000000, 4.000000, 4.000000, 4.000000, 4.000000, 4.000000, 4.000000, 4.000000, 4.000000, 4.000000, 4.000000, 4.000000, 4.000000, 4.000000, 4.000000, 4.000000
54.000000, 0.000000, 4232.307617, 4210.256348, 4210.769043, 4203.589844, 4195.384277, 4202.563965, 4202.563965, 4195.384277, 4202.563965, 4348.205078, 4201.025391, 4187.692383, 4215.897461, 4201.538574, 0.000000, 8168.000000, 8083.000000, 0.000000, 0.000000, 0.000000, -20641.000000, 942.051270, 4.000000, 4.000000, 4.000000, 4.000000, 4.000000, 4.000000, 4.000000, 4.000000, 4.000000, 4.000000, 4.000000, 4.000000, 4.000000, 4.000000, 4.000000, 4.000000
55.000000, 0.000000, 4232.307617, 4208.205078, 4204.102539, 4202.563965, 4193.846191, 4199.487305, 4197.436035, 4206.666504, 4213.333008, 4327.692383, 4193.846191, 4182.563965, 4210.769043, 4200.000000, 0.000000, 8152.000000, 8084.000000, 0.000000, 0.000000, 0.000000, -20641.000000, 949.743591, 4.000000, 4.000000, 4.000000, 4.000000, 4.000000, 4.000000, 4.000000, 4.000000, 4.000000, 4.000000, 4.000000, 4.000000, 4.000000, 4.000000, 4.000000, 4.000000
56.000000, 0.000000, 4230.769043, 4205.127930, 4202.051270, 4199.487305, 4209.743652, 4202.051270, 4197.436035, 4193.846191, 4208.205078, 4304.615234, 4192.307617, 4176.922852, 4212.307617, 4198.461426, 0.000000, 8152.000000, 8084.000000, 0.000000, 0.000000, 0.000000, -20641.000000, 957.435852, 4.000000, 4.000000, 4.000000, 4.000000, 4.000000, 4.000000, 4.000000, 4.000000, 4.000000, 4.000000, 4.000000, 4.000000, 4.000000, 4.000000, 4.000000, 4.000000
57.000000, 0.000000, 4227.692383, 4204.102539, 4207.179199, 4197.436035, 4211.281738, 4210.769043, 4203.076660, 4188.205078, 4197.436035, 4275.384277, 4197.436035, 4187.692383, 4215.897461, 4198.461426, 0.000000, 8138.000000, 8084.000000, 0.000000, 0.000000, 0.000000, -20641.000000, 965.640991, 4.000000, 4.000000, 4.000000, 4.000000, 4.000000, 4.000000, 4.000000, 4.000000, 4.000000, 4.000000, 4.000000, 4.000000, 4.000000, 4.000000, 4.000000, 4.000000
58.000000, 0.000000, 4236.410156, 4205.127930, 4212.307617, 4201.025391, 4201.025391, 4209.230469, 4203.076660, 4201.538574, 4203.076660, 4258.974121, 4200.000000, 4195.897461, 4216.922852, 4195.384277, 0.000000, 8138.000000, 8084.000000, 0.000000, 0.000000, 0.000000, -20641.000000, 973.333313, 4.000000, 4.000000, 4.000000, 4.000000, 4.000000, 4.000000, 4.000000, 4.000000, 4.000000, 4.000000, 4.000000, 4.000000, 4.000000, 4.000000, 4.000000, 4.000000
59.000000, 0.000000, 4230.256348, 4203.589844, 4208.717773, 4202.051270, 4203.076660, 4201.538574, 4201.538574, 4197.436035, 4203.589844, 4245.127930, 4192.307617, 4188.717773, 4212.307617, 4198.974121, 0.000000, 8119.000000, 8091.000000, 0.000000, 0.000000, 0.000000, -20641.000000, 981.025635, 4.000000, 4.000000, 4.000000, 4.000000, 4.000000, 4.000000, 4.000000, 4.000000, 4.000000, 4.000000, 4.000000, 4.000000, 4.000000, 4.000000, 4.000000, 4.000000
60.000000, 0.000000, 4226.153809, 4203.076660, 4202.563965, 4195.384277, 4198.974121, 4198.461426, 4195.384277, 4183.076660, 4195.897461, 4223.076660, 4184.102539, 4176.922852, 4206.153809, 4197.948730, 0.000000, 8119.000000, 8091.000000, 0.000000, 0.000000, 0.000000, -20641.000000, 989.230774, 4.000000, 4.000000, 4.000000, 4.000000, 4.000000, 4.000000, 4.000000, 4.000000, 4.000000, 4.000000, 4.000000, 4.000000, 4.000000, 4.000000, 4.000000, 4.000000
61.000000, 0.000000, 4223.076660, 4200.000000, 4200.000000, 4191.281738, 4184.615234, 4201.025391, 4193.333008, 4187.692383, 4202.051270, 4213.333008, 4187.692383, 4173.333008, 4204.102539, 4198.974121, 0.000000, 8113.000000, 8090.000000, 0.000000, 0.000000, 0.000000, -20641.000000, 996.923035, 4.000000, 4.000000, 4.000000, 4.000000, 4.000000, 4.000000, 4.000000, 4.000000, 4.000000, 4.000000, 4.000000, 4.000000, 4.000000, 4.000000, 4.000000, 4.000000
62.000000, 0.000000, 4218.974121, 4196.410156, 4195.897461, 4193.333008, 4183.076660, 4198.461426, 4195.384277, 4194.358887, 4207.179199, 4215.384277, 4195.384277, 4177.436035, 4205.127930, 4201.538574, 0.000000, 8113.000000, 8090.000000, 0.000000, 0.000000, 0.000000, -20640.000000, 5.128205, 4.000000, 4.000000, 4.000000, 4.000000, 4.000000, 4.000000, 4.000000, 4.000000, 4.000000, 4.000000, 4.000000, 4.000000, 4.000000, 4.000000, 4.000000, 4.000000
63.000000, 0.000000, 4227.179199, 4199.487305, 4194.358887, 4194.358887, 4188.717773, 4192.820313, 4186.666504, 4184.615234, 4197.948730, 4212.307617, 4201.025391, 4180.512695, 4212.307617, 4199.487305, 0.000000, 8111.000000, 8093.000000, 0.000000, 0.000000, 0.000000, -20640.000000, 12.820513, 4.000000, 4.000000, 4.000000, 4.000000, 4.000000, 4.000000, 4.000000, 4.000000, 4.000000, 4.000000, 4.000000, 4.000000, 4.000000, 4.000000, 4.000000, 4.000000
64.000000, 0.000000, 4228.717773, 4205.127930, 4202.051270, 4200.000000, 4198.974121, 4197.948730, 4188.205078, 4181.538574, 4198.461426, 4205.127930, 4206.153809, 4191.281738, 4222.051270, 4203.076660, 3359.000000, 8111.000000, 8093.000000, 0.000000, 0.000000, 0.000000, -20640.000000, 20.512819, 4.000000, 4.000000, 4.000000, 4.000000, 4.000000, 4.000000, 4.000000, 4.000000, 4.000000, 4.000000, 4.000000, 4.000000, 4.000000, 4.000000, 4.000000, 4.000000
65.000000, 0.000000, 4231.794922, 4208.205078, 4210.256348, 4205.127930, 4208.205078, 4205.127930, 4196.410156, 4189.230469, 4205.127930, 4195.384277, 4203.589844, 4197.948730, 4217.436035, 4202.563965, 3508.000000, 8119.000000, 8092.000000, 0.000000, 0.000000, 0.000000, -20640.000000, 28.717949, 4.000000, 4.000000, 4.000000, 4.000000, 4.000000, 4.000000, 4.000000, 4.000000, 4.000000, 4.000000, 4.000000, 4.000000, 4.000000, 4.000000, 4.000000, 4.000000
66.000000, 0.000000, 4225.641113, 4201.538574, 4203.076660, 4200.000000, 4200.000000, 4197.436035, 4188.717773, 4180.000000, 4194.871582, 4185.127930, 4190.769043, 4184.615234, 4202.051270, 4201.538574, 2516.000000, 8119.000000, 8092.000000, 0.000000, 0.000000, 0.000000, -20640.000000, 36.410255, 4.000000, 4.000000, 4.000000, 4.000000, 4.000000, 4.000000, 4.000000, 4.000000, 4.000000, 4.000000, 4.000000, 4.000000, 4.000000, 4.000000, 4.000000, 4.000000
67.000000, 0.000000, 4213.846191, 4196.922852, 4194.358887, 4195.384277, 4188.717773, 4190.256348, 4178.461426, 4161.538574, 4186.153809, 4182.051270, 4183.076660, 4169.743652, 4197.948730, 4202.563965, 2195.000000, 8132.000000, 8111.000000, 0.000000, 0.000000, 0.000000, -20640.000000, 44.102562, 4.000000, 4.000000, 4.000000, 4.000000, 4.000000, 4.000000, 4.000000, 4.000000, 4.000000, 4.000000, 4.000000, 4.000000, 4.000000, 4.000000, 4.000000, 4.000000
68.000000, 0.000000, 4227.179199, 4207.179199, 4198.461426, 4200.512695, 4199.487305, 4198.461426, 4186.153809, 4168.717773, 4192.820313, 4185.641113, 4184.615234, 4174.871582, 4205.641113, 4200.512695, 3532.000000, 8132.000000, 8111.000000, 0.000000, 0.000000, 0.000000, -20640.000000, 52.307690, 4.000000, 4.000000, 4.000000, 4.000000, 4.000000, 4.000000, 4.000000, 4.000000, 4.000000, 4.000000, 4.000000, 4.000000, 4.000000, 4.000000, 4.000000, 4.000000
69.000000, 0.000000, 4229.230469, 4213.846191, 4204.102539, 4202.051270, 4209.743652, 4205.127930, 4201.025391, 4186.666504, 4194.871582, 4191.281738, 4187.692383, 4184.615234, 4207.179199, 4204.615234, 3539.000000, 8145.000000, 8116.000000, 0.000000, 0.000000, 0.000000, -20640.000000, 60.000000, 4.000000, 4.000000, 4.000000, 4.000000, 4.000000, 4.000000, 4.000000, 4.000000, 4.000000, 4.000000, 4.000000, 4.000000, 4.000000, 4.000000, 4.000000, 4.000000
70.000000, 0.000000, 4226.153809, 4209.230469, 4200.000000, 4198.461426, 4192.307617, 4201.025391, 4197.948730, 4181.538574, 4190.256348, 4196.410156, 4192.307617, 4182.051270, 4200.512695, 4203.076660, 3127.000000, 8145.000000, 8116.000000, 0.000000, 0.000000, 0.000000, -20640.000000, 67.692307, 4.000000, 4.000000, 4.000000, 4.000000, 4.000000, 4.000000, 4.000000, 4.000000, 4.000000, 4.000000, 4.000000, 4.000000, 4.000000, 4.000000, 4.000000, 4.000000
71.000000, 0.000000, 4226.666504, 4208.717773, 4195.384277, 4204.615234, 4184.102539, 4200.512695, 4186.153809, 4179.487305, 4199.487305, 4208.205078, 4198.461426, 4182.563965, 4201.025391, 4200.512695, 3703.000000, 8157.000000, 8122.000000, 0.000000, 0.000000, 0.000000, -20640.000000, 75.897430, 4.000000, 4.000000, 4.000000, 4.000000, 4.000000, 4.000000, 4.000000, 4.000000, 4.000000, 4.000000, 4.000000, 4.000000, 4.000000, 4.000000, 4.000000, 4.000000
72.000000, 0.000000, 4223.076660, 4213.846191, 4202.563965, 4215.384277, 4209.743652, 4212.820313, 4191.794922, 4195.384277, 4214.358887, 4223.589844, 4204.615234, 4193.846191, 4213.846191, 4206.666504, 3527.000000, 8157.000000, 8122.000000, 0.000000, 0.000000, 0.000000, -20640.000000, 83.589745, 4.000000, 4.000000, 4.000000, 4.000000, 4.000000, 4.000000, 4.000000, 4.000000, 4.000000, 4.000000, 4.000000, 4.000000, 4.000000, 4.000000, 4.000000, 4.000000
73.000000, 0.000000, 4235.384277, 4220.000000, 4212.820313, 4219.487305, 4221.025391, 4215.897461, 4204.102539, 4198.461426, 4214.871582, 4229.230469, 4209.743652, 4197.436035, 4225.127930, 4206.666504, 3537.000000, 8181.000000, 8145.000000, 0.000000, 0.000000, 0.000000, -20640.000000, 91.282051, 4.000000, 4.000000, 4.000000, 4.000000, 4.000000, 4.000000, 4.000000, 4.000000, 4.000000, 4.000000, 4.000000, 4.000000, 4.000000, 4.000000, 4.000000, 4.000000
74.000000, 0.000000, 4232.307617, 4214.871582, 4207.179199, 4213.846191, 4201.025391, 4202.563965, 4200.512695, 4202.563965, 4217.948730, 4228.205078, 4212.307617, 4191.281738, 4222.563965, 4204.615234, 3756.000000, 8181.000000, 8145.000000, 0.000000, 0.000000, 0.000000, -20640.000000, 99.487175, 4.000000, 4.000000, 4.000000, 4.000000, 4.000000, 4.000000, 4.000000, 4.000000, 4.000000, 4.000000, 4.000000, 4.000000, 4.000000, 4.000000, 4.000000, 4.000000
75.000000, 0.000000, 4226.666504, 4208.205078, 4203.076660, 4208.717773, 4192.820313, 4202.563965, 4206.153809, 4216.922852, 4225.127930, 4229.743652, 4213.333008, 4192.820313, 4220.000000, 4201.025391, 430.000000, 8185.000000, 8148.000000, 0.000000, 0.000000, 0.000000, -20640.000000, 107.179482, 4.000000, 4.000000, 4.000000, 4.000000, 4.000000, 4.000000, 4.000000, 4.000000, 4.000000, 4.000000, 4.000000, 4.000000, 4.000000, 4.000000, 4.000000, 4.000000
76.000000, 0.000000, 4236.410156, 4213.846191, 4210.769043, 4212.307617, 4205.127930, 4212.820313, 4220.512695, 4213.846191, 4222.563965, 4232.307617, 4219.487305, 4204.102539, 4230.256348, 4202.563965, 3706.000000, 8185.000000, 8148.000000, 0.000000, 0.000000, 0.000000, -20640.000000, 114.871796, 4.000000, 4.000000, 4.000000, 4.000000, 4.000000, 4.000000, 4.000000, 4.000000, 4.000000, 4.000000, 4.000000, 4.000000, 4.000000, 4.000000, 4.000000, 4.000000
77.000000, 0.000000, 4230.769043, 4214.871582, 4207.692383, 4209.743652, 4200.512695, 4207.179199, 4211.281738, 4206.666504, 4216.922852, 4229.230469, 4217.948730, 4203.076660, 4231.794922, 4204.102539, 3401.000000, 8194.000000, 8140.000000, 0.000000, 0.000000, 0.000000, -20640.000000, 123.076920, 4.000000, 4.000000, 4.000000, 4.000000, 4.000000, 4.000000, 4.000000, 4.000000, 4.000000, 4.000000, 4.000000, 4.000000, 4.000000, 4.000000, 4.000000, 4.000000
78.000000, 0.000000, 4229.230469, 4213.333008, 4199.487305, 4202.051270, 4182.051270, 4195.897461, 4195.897461, 4208.205078, 4214.358887, 4229.230469, 4202.051270, 4191.281738, 4217.436035, 4197.948730, 3756.000000, 8194.000000, 8140.000000, 0.000000, 0.000000, 0.000000, -20640.000000, 130.769226, 4.000000, 4.000000, 4.000000, 4.000000, 4.000000, 4.000000, 4.000000, 4.000000, 4.000000, 4.000000, 4.000000, 4.000000, 4.000000, 4.000000, 4.000000, 4.000000
79.000000, 0.000000, 4229.230469, 4219.487305, 4201.025391, 4208.205078, 4187.692383, 4198.974121, 4201.025391, 4203.076660, 4212.307617, 4237.948730, 4200.512695, 4191.794922, 4217.436035, 4203.589844, 430.000000, 8195.000000, 8141.000000, 0.000000, 0.000000, 0.000000, -20640.000000, 138.461533, 4.000000, 4.000000, 4.000000, 4.000000, 4.000000, 4.000000, 4.000000, 4.000000, 4.000000, 4.000000, 4.000000, 4.000000, 4.000000, 4.000000, 4.000000, 4.000000
80.000000, 0.000000, 4231.794922, 4224.615234, 4206.153809, 4220.000000, 4212.820313, 4206.666504, 4207.179199, 4193.846191, 4210.769043, 4242.563965, 4213.333008, 4197.948730, 4226.153809, 4206.153809, 3706.000000, 8195.000000, 8141.000000, 0.000000, 0.000000, 0.000000, -20640.000000, 146.666656, 4.000000, 4.000000, 4.000000, 4.000000, 4.000000, 4.000000, 4.000000, 4.000000, 4.000000, 4.000000, 4.000000, 4.000000, 4.000000, 4.000000, 4.000000, 4.000000
81.000000, 0.000000, 4235.897461, 4226.666504, 4208.717773, 4218.974121, 4216.922852, 4211.794922, 4203.589844, 4202.563965, 4216.410156, 4241.538574, 4218.461426, 4203.076660, 4224.102539, 4200.512695, 3401.000000, 8201.000000, 8137.000000, 0.000000, 0.000000, 0.000000, -20640.000000, 154.358963, 4.000000, 4.000000, 4.000000, 4.000000, 4.000000, 4.000000, 4.000000, 4.000000, 4.000000, 4.000000, 4.000000, 4.000000, 4.000000, 4.000000, 4.000000, 4.000000
82.000000, 0.000000, 4228.717773, 4227.692383, 4210.256348, 4215.384277, 4204.102539, 4215.897461, 4207.692383, 4213.846191, 4219.487305, 4243.076660, 4216.410156, 4213.846191, 4224.102539, 4201.025391, 3756.000000, 8201.000000, 8137.000000, 0.000000, 0.000000, 0.000000, -20640.000000, 162.051285, 4.000000, 4.000000, 4.000000, 4.000000, 4.000000, 4.000000, 4.000000, 4.000000, 4.000000, 4.000000, 4.000000, 4.000000, 4.000000, 4.000000, 4.000000, 4.000000
83.000000, 0.000000, 4235.897461, 4226.666504, 4213.333008, 4218.461426, 4202.563965, 4214.358887, 4212.307617, 4206.666504, 4218.974121, 4248.717773, 4218.461426, 4214.871582, 4228.717773, 4201.025391, 430.000000, 8197.000000, 8127.000000, 0.000000, 0.000000, 0.000000, -20640.000000, 170.256409, 4.000000, 4.000000, 4.000000, 4.000000, 4.000000, 4.000000, 4.000000, 4.000000, 4.000000, 4.000000, 4.000000, 4.000000, 4.000000, 4.000000, 4.000000, 4.000000
84.000000, 0.000000, 4233.333008, 4222.051270, 4211.794922, 4215.384277, 4204.102539, 4208.717773, 4204.615234, 4196.922852, 4221.025391, 4251.794922, 4217.436035, 4204.615234, 4227.179199, 4206.666504, 3706.000000, 8197.000000, 8127.000000, 0.000000, 0.000000, 0.000000, -20640.000000, 177.948715, 4.000000, 4.000000, 4.000000, 4.000000, 4.000000, 4.000000, 4.000000, 4.000000, 4.000000, 4.000000, 4.000000, 4.000000, 4.000000, 4.000000, 4.000000, 4.000000
85.000000, 0.000000, 4224.615234, 4222.563965, 4214.358887, 4213.333008, 4198.974121, 4202.563965, 4197.436035, 4198.974121, 4220.512695, 4252.307617, 4214.871582, 4205.641113, 4226.666504, 4205.127930, 3401.000000, 8199.000000, 8126.000000, 0.000000, 0.000000, 0.000000, -20640.000000, 186.153839, 4.000000, 4.000000, 4.000000, 4.000000, 4.000000, 4.000000, 4.000000, 4.000000, 4.000000, 4.000000, 4.000000, 4.000000, 4.000000, 4.000000, 4.000000, 4.000000
86.000000, 0.000000, 4233.333008, 4227.179199, 4224.102539, 4217.436035, 4188.205078, 4201.025391, 4197.948730, 4203.076660, 4213.333008, 4247.692383, 4218.461426, 4215.897461, 4232.820313, 4199.487305, 3756.000000, 8199.000000, 8126.000000, 0.000000, 0.000000, 0.000000, -20640.000000, 193.846146, 4.000000, 4.000000, 4.000000, 4.000000, 4.000000, 4.000000, 4.000000, 4.000000, 4.000000, 4.000000, 4.000000, 4.000000, 4.000000, 4.000000, 4.000000, 4.000000
87.000000, 0.000000, 4231.794922, 4224.615234, 4225.641113, 4219.487305, 4179.487305, 4200.000000, 4198.974121, 4189.230469, 4197.948730, 4249.230469, 4218.974121, 4219.487305, 4233.333008, 4203.589844, 430.000000, 8192.000000, 8129.000000, 0.000000, 0.000000, 0.000000, -20640.000000, 201.538452, 4.000000, 4.000000, 4.000000, 4.000000, 4.000000, 4.000000, 4.000000, 4.000000, 4.000000, 4.000000, 4.000000, 4.000000, 4.000000, 4.000000, 4.000000, 4.000000
88.000000, 0.000000, 4232.820313, 4223.076660, 4224.102539, 4220.000000, 4184.615234, 4196.922852, 4197.436035, 4189.230469, 4198.974121, 4262.563965, 4217.948730, 4225.641113, 4225.641113, 4202.051270, 3706.000000, 8192.000000, 8129.000000, 0.000000, 0.000000, 0.000000, -20640.000000, 209.743591, 4.000000, 4.000000, 4.000000, 4.000000, 4.000000, 4.000000, 4.000000, 4.000000, 4.000000, 4.000000, 4.000000, 4.000000, 4.000000, 4.000000, 4.000000, 4.000000
89.000000, 0.000000, 4230.256348, 4221.025391, 4224.615234, 4216.410156, 4188.717773, 4197.948730, 4206.153809, 4212.307617, 4218.461426, 4270.769043, 4220.000000, 4230.256348, 4221.025391, 4202.563965, 3401.000000, 8186.000000, 8133.000000, 0.000000, 0.000000, 0.000000, -20640.000000, 217.435898, 4.000000, 4.000000, 4.000000, 4.000000, 4.000000, 4.000000, 4.000000, 4.000000, 4.000000, 4.000000, 4.000000, 4.000000, 4.000000, 4.000000, 4.000000, 4.000000
90.000000, 0.000000, 4225.127930, 4213.846191, 4222.563965, 4205.641113, 4184.615234, 4200.512695, 4213.333008, 4214.358887, 4222.563965, 4269.743652, 4212.820313, 4219.487305, 4215.384277, 4203.589844, 3756.000000, 8186.000000, 8133.000000, 0.000000, 0.000000, 0.000000, -20640.000000, 225.128204, 4.000000, 4.000000, 4.000000, 4.000000, 4.000000, 4.000000, 4.000000, 4.000000, 4.000000, 4.000000, 4.000000, 4.000000, 4.000000, 4.000000, 4.000000, 4.000000
91.000000, 0.000000, 4230.769043, 4213.333008, 4219.487305, 4204.615234, 4187.179199, 4199.487305, 4207.179199, 4199.487305, 4209.743652, 4257.436035, 4201.025391, 4207.692383, 4206.153809, 4200.000000, 430.000000, 8187.000000, 8136.000000, 0.000000, 0.000000, 0.000000, -20640.000000, 233.333328, 4.000000, 4.000000, 4.000000, 4.000000, 4.000000, 4.000000, 4.000000, 4.000000, 4.000000, 4.000000, 4.000000, 4.000000, 4.000000, 4.000000, 4.000000, 4.000000
92.000000, 0.000000, 4221.025391, 4213.846191, 4218.974121, 4211.794922, 4191.794922, 4193.846191, 4196.410156, 4191.794922, 4201.025391, 4233.333008, 4199.487305, 4202.563965, 4203.076660, 4204.102539, 3706.000000, 8187.000000, 8136.000000, 0.000000, 0.000000, 0.000000, -20640.000000, 241.025635, 4.000000, 4.000000, 4.000000, 4.000000, 4.000000, 4.000000, 4.000000, 4.000000, 4.000000, 4.000000, 4.000000, 4.000000, 4.000000, 4.000000, 4.000000, 4.000000
93.000000, 0.000000, 4212.307617, 4200.512695, 4215.897461, 4202.051270, 4185.641113, 4190.256348, 4195.384277, 4185.641113, 4200.512695, 4209.743652, 4195.384277, 4198.974121, 4195.897461, 4201.538574, 3401.000000, 8185.000000, 8140.000000, 0.000000, 0.000000, 0.000000, -20640.000000, 249.230759, 4.000000, 4.000000, 4.000000, 4.000000, 4.000000, 4.000000, 4.000000, 4.000000, 4.000000, 4.000000, 4.000000, 4.000000, 4.000000, 4.000000, 4.000000, 4.000000
94.000000, 0.000000, 4207.692383, 4187.179199, 4202.051270, 4187.692383, 4178.974121, 4192.820313, 4198.974121, 4181.025391, 4200.000000, 4206.153809, 4183.589844, 4200.000000, 4184.615234, 4199.487305, 3756.000000, 8185.000000, 8140.000000, 0.000000, 0.000000, 0.000000, -20640.000000, 256.923065, 4.000000, 4.000000, 4.000000, 4.000000, 4.000000, 4.000000, 4.000000, 4.000000, 4.000000, 4.000000, 4.000000, 4.000000, 4.000000, 4.000000, 4.000000, 4.000000
95.000000, 0.000000, 4210.256348, 4200.000000, 4195.384277, 4195.384277, 4187.179199, 4198.974121, 4200.512695, 4192.307617, 4206.153809, 4226.666504, 4191.281738, 4204.615234, 4195.384277, 4201.538574, 430.000000, 8184.000000, 8147.000000, 0.000000, 0.000000, 0.000000, -20640.000000, 264.615387, 4.000000, 4.000000, 4.000000, 4.000000, 4.000000, 4.000000, 4.000000, 4.000000, 4.000000, 4.000000, 4.000000, 4.000000, 4.000000, 4.000000, 4.000000, 4.000000
96.000000, 0.000000, 4229.230469, 4218.461426, 4206.666504, 4211.794922, 4200.000000, 4210.256348, 4203.076660, 4205.127930, 4219.487305, 4260.000000, 4213.846191, 4210.256348, 4218.461426, 4201.538574, 3706.000000, 8184.000000, 8147.000000, 0.000000, 0.000000, 0.000000, -20640.000000, 272.820496, 4.000000, 4.000000, 4.000000, 4.000000, 4.000000, 4.000000, 4.000000, 4.000000, 4.000000, 4.000000, 4.000000, 4.000000, 4.000000, 4.000000, 4.000000, 4.000000
97.000000, 0.000000, 4230.256348, 4217.436035, 4212.307617, 4214.358887, 4202.051270, 4217.948730, 4208.717773, 4202.563965, 4222.051270, 4285.641113, 4219.487305, 4216.410156, 4221.538574, 4204.615234, 3401.000000, 8187.000000, 8161.000000, 0.000000, 0.000000, 0.000000, -20640.000000, 281.025635, 4.000000, 4.000000, 4.000000, 4.000000, 4.000000, 4.000000, 4.000000, 4.000000, 4.000000, 4.000000, 4.000000, 4.000000, 4.000000, 4.000000, 4.000000, 4.000000
98.000000, 0.000000, 4231.794922, 4218.974121, 4211.281738, 4213.846191, 4201.538574, 4217.436035, 4212.820313, 4205.127930, 4219.487305, 4300.000000, 4213.333008, 4215.384277, 4218.461426, 4202.051270, 3756.000000, 8187.000000, 8161.000000, 0.000000, 0.000000, 0.000000, -20640.000000, 288.717957, 4.000000, 4.000000, 4.000000, 4.000000, 4.000000, 4.000000, 4.000000, 4.000000, 4.000000, 4.000000, 4.000000, 4.000000, 4.000000, 4.000000, 4.000000, 4.000000
99.000000, 0.000000, 4235.384277, 4223.076660, 4211.281738, 4217.436035, 4198.461426, 4212.307617, 4209.230469, 4224.615234, 4230.256348, 4315.897461, 4215.897461, 4211.794922, 4230.769043, 4204.615234, 430.000000, 8189.000000, 8167.000000, 0.000000, 0.000000, 0.000000, -20640.000000, 296.410248, 4.000000, 4.000000, 4.000000, 4.000000, 4.000000, 4.000000, 4.000000, 4.000000, 4.000000, 4.000000, 4.000000, 4.000000, 4.000000, 4.000000, 4.000000, 4.000000
100.000000, 0.000000, 4229.230469, 4218.974121, 4198.461426, 4212.820313, 4185.127930, 4204.102539, 4207.692383, 4235.897461, 4238.974121, 4314.871582, 4218.974121, 4208.205078, 4233.846191, 4206.153809, 3706.000000, 8189.000000, 8167.000000, 0.000000, 0.000000, 0.000000, -20640.000000, 304.102570, 4.000000, 4.000000, 4.000000, 4.000000, 4.000000, 4.000000, 4.000000, 4.000000, 4.000000, 4.000000, 4.000000, 4.000000, 4.000000, 4.000000, 4.000000, 4.000000
101.000000, 0.000000, 4234.358887, 4219.487305, 4184.102539, 4208.205078, 4188.717773, 4205.127930, 4211.281738, 4225.127930, 4231.794922, 4299.487305, 4215.384277, 4201.538574, 4229.743652, 4198.974121, 3401.000000, 8203.000000, 8173.000000, 0.000000, 0.000000, 0.000000, -20640.000000, 312.307678, 4.000000, 4.000000, 4.000000, 4.000000, 4.000000, 4.000000, 4.000000, 4.000000, 4.000000, 4.000000, 4.000000, 4.000000, 4.000000, 4.000000, 4.000000, 4.000000
102.000000, 0.000000, 4232.820313, 4222.563965, 4185.127930, 4214.871582, 4210.769043, 4211.794922, 4207.179199, 4210.769043, 4226.666504, 4295.897461, 4215.897461, 4201.025391, 4234.358887, 4203.076660, 3756.000000, 8203.000000, 8173.000000, 0.000000, 0.000000, 0.000000, -20640.000000, 320.000000, 4.000000, 4.000000, 4.000000, 4.000000, 4.000000, 4.000000, 4.000000, 4.000000, 4.000000, 4.000000, 4.000000, 4.000000, 4.000000, 4.000000, 4.000000, 4.000000
103.000000, 0.000000, 4231.794922, 4221.025391, 4190.256348, 4215.384277, 4208.205078, 4207.179199, 4194.871582, 4205.641113, 4222.563965, 4294.871582, 4217.948730, 4200.512695, 4235.897461, 4204.615234, 430.000000, 8218.000000, 8167.000000, 0.000000, 0.000000, 0.000000, -20640.000000, 328.205109, 4.000000, 4.000000, 4.000000, 4.000000, 4.000000, 4.000000, 4.000000, 4.000000, 4.000000, 4.000000, 4.000000, 4.000000, 4.000000, 4.000000, 4.000000, 4.000000
104.000000, 0.000000, 4230.769043, 4219.487305, 4187.179199, 4205.641113, 4196.922852, 4200.000000, 4188.717773, 4202.051270, 4211.281738, 4290.256348, 4215.384277, 4194.871582, 4234.358887, 4201.538574, 3706.000000, 8218.000000, 8167.000000, 0.000000, 0.000000, 0.000000, -20640.000000, 335.897430, 4.000000, 4.000000, 4.000000, 4.000000, 4.000000, 4.000000, 4.000000, 4.000000, 4.000000, 4.000000, 4.000000, 4.000000, 4.000000, 4.000000, 4.000000, 4.000000
105.000000, 0.000000, 4223.589844, 4217.948730, 4186.153809, 4202.051270, 4200.000000, 4202.563965, 4192.307617, 4195.384277, 4203.076660, 4296.410156, 4215.384277, 4194.358887, 4232.820313, 4203.076660, 3401.000000, 8227.000000, 8165.000000, 0.000000, 0.000000, 0.000000, -20640.000000, 344.102570, 4.000000, 4.000000, 4.000000, 4.000000, 4.000000, 4.000000, 4.000000, 4.000000, 4.000000, 4.000000, 4.000000, 4.000000, 4.000000, 4.000000, 4.000000, 4.000000
106.000000, 0.000000, 4233.333008, 4219.487305, 4189.230469, 4206.153809, 4196.922852, 4203.589844, 4195.384277, 4193.846191, 4209.743652, 4303.076660, 4217.436035, 4193.846191, 4228.717773, 4203.076660, 3756.000000, 8227.000000, 8165.000000, 0.000000, 0.000000, 0.000000, -20640.000000, 351.794861, 4.000000, 4.000000, 4.000000, 4.000000, 4.000000, 4.000000, 4.000000, 4.000000, 4.000000, 4.000000, 4.000000, 4.000000, 4.000000, 4.000000, 4.000000, 4.000000
107.000000, 0.000000, 4232.820313, 4223.076660, 4188.205078, 4209.230469, 4193.846191, 4207.692383, 4202.563965, 4208.205078, 4226.666504, 4298.974121, 4218.974121, 4195.384277, 4227.692383, 4206.666504, 430.000000, 8235.000000, 8167.000000, 0.000000, 0.000000, 0.000000, -20640.000000, 359.487183, 4.000000, 4.000000, 4.000000, 4.000000, 4.000000, 4.000000, 4.000000, 4.000000, 4.000000, 4.000000, 4.000000, 4.000000, 4.000000, 4.000000, 4.000000, 4.000000
108.000000, 0.000000, 4227.692383, 4218.974121, 4183.589844, 4208.717773, 4205.641113, 4215.384277, 4209.230469, 4214.358887, 4227.692383, 4295.897461, 4217.436035, 4197.436035, 4225.641113, 4203.076660, 3706.000000, 8235.000000, 8167.000000, 0.000000, 0.000000, 0.000000, -20640.000000, 367.692291, 4.000000, 4.000000, 4.000000, 4.000000, 4.000000, 4.000000, 4.000000, 4.000000, 4.000000, 4.000000, 4.000000, 4.000000, 4.000000, 4.000000, 4.000000, 4.000000
109.000000, 0.000000, 4225.127930, 4208.717773, 4174.358887, 4202.051270, 4205.641113, 4210.256348, 4207.692383, 4207.179199, 4216.410156, 4298.461426, 4212.307617, 4192.307617, 4217.948730, 4202.563965, 3401.000000, 8239.000000, 8168.000000, 0.000000, 0.000000, 0.000000, -20640.000000, 375.384613, 4.000000, 4.000000, 4.000000, 4.000000, 4.000000, 4.000000, 4.000000, 4.000000, 4.000000, 4.000000, 4.000000, 4.000000, 4.000000, 4.000000, 4.000000, 4.000000
110.000000, 0.000000, 4213.846191, 4209.230469, 4168.717773, 4196.410156, 4196.410156, 4203.589844, 4205.641113, 4214.871582, 4222.563965, 4295.384277, 4211.281738, 4189.743652, 4218.974121, 4208.717773, 3756.000000, 8239.000000, 8168.000000, 0.000000, 0.000000, 0.000000, -20640.000000, 383.076904, 4.000000, 4.000000, 4.000000, 4.000000, 4.000000, 4.000000, 4.000000, 4.000000, 4.000000, 4.000000, 4.000000, 4.000000, 4.000000, 4.000000, 4.000000, 4.000000
111.000000, 0.000000, 4216.922852, 4218.461426, 4171.281738, 4198.974121, 4199.487305, 4204.615234, 4206.153809, 4234.871582, 4245.641113, 4286.153809, 4213.846191, 4193.333008, 4227.692383, 4203.589844, 430.000000, 8244.000000, 8175.000000, 0.000000, 0.000000, 0.000000, -20640.000000, 391.282043, 4.000000, 4.000000, 4.000000, 4.000000, 4.000000, 4.000000, 4.000000, 4.000000, 4.000000, 4.000000, 4.000000, 4.000000, 4.000000, 4.000000, 4.000000, 4.000000
112.000000, 0.000000, 4210.769043, 4215.384277, 4171.281738, 4199.487305, 4189.230469, 4200.000000, 4206.153809, 4237.948730, 4248.717773, 4272.820313, 4209.743652, 4191.281738, 4223.076660, 4203.076660, 3706.000000, 8244.000000, 8175.000000, 0.000000, 0.000000, 0.000000, -20640.000000, 398.974335, 4.000000, 4.000000, 4.000000, 4.000000, 4.000000, 4.000000, 4.000000, 4.000000, 4.000000, 4.000000, 4.000000, 4.000000, 4.000000, 4.000000, 4.000000, 4.000000
113.000000, 0.000000, 4202.563965, 4206.153809, 4177.948730, 4194.871582, 4171.794922, 4195.897461, 4205.641113, 4221.538574, 4231.281738, 4245.641113, 4207.692383, 4191.281738, 4216.410156, 4201.025391, 3401.000000, 8243.000000, 8179.000000, 0.000000, 0.000000, 0.000000, -20640.000000, 407.179474, 4.000000, 4.000000, 4.000000, 4.000000, 4.000000, 4.000000, 4.000000, 4.000000, 4.000000, 4.000000, 4.000000, 4.000000, 4.000000, 4.000000, 4.000000, 4.000000
114.000000, 0.000000, 4214.871582, 4205.641113, 4192.820313, 4196.410156, 4188.717773, 4205.127930, 4206.153809, 4222.051270, 4233.846191, 4206.666504, 4220.000000, 4207.692383, 4225.641113, 4195.897461, 3756.000000, 8243.000000, 8179.000000, 0.000000, 0.000000, 0.000000, -20640.000000, 414.871796, 4.000000, 4.000000, 4.000000, 4.000000, 4.000000, 4.000000, 4.000000, 4.000000, 4.000000, 4.000000, 4.000000, 4.000000, 4.000000, 4.000000, 4.000000, 4.000000
115.000000, 0.000000, 4216.922852, 4207.692383, 4193.846191, 4199.487305, 4209.743652, 4213.333008, 4204.615234, 4235.384277, 4244.615234, 4166.153809, 4228.717773, 4219.487305, 4228.205078, 4200.000000, 430.000000, 8233.000000, 8178.000000, 0.000000, 0.000000, 0.000000, -20640.000000, 422.564087, 4.000000, 4.000000, 4.000000, 4.000000, 4.000000, 4.000000, 4.000000, 4.000000, 4.000000, 4.000000, 4.000000, 4.000000, 4.000000, 4.000000, 4.000000, 4.000000
116.000000, 0.000000, 4215.384277, 4206.153809, 4185.641113, 4199.487305, 4203.076660, 4207.179199, 4201.025391, 4219.487305, 4226.153809, 4128.717773, 4213.333008, 4204.615234, 4213.846191, 4197.948730, 3706.000000, 8233.000000, 8178.000000, 0.000000, 0.000000, 0.000000, -20640.000000, 430.769226, 4.000000, 4.000000, 4.000000, 4.000000, 4.000000, 4.000000, 4.000000, 4.000000, 4.000000, 4.000000, 4.000000, 4.000000, 4.000000, 4.000000, 4.000000, 4.000000
117.000000, 0.000000, 4209.743652, 4199.487305, 4186.666504, 4195.384277, 4196.410156, 4200.512695, 4201.538574, 4198.461426, 4211.281738, 4106.153809, 4201.538574, 4190.769043, 4204.102539, 4196.410156, 3401.000000, 8226.000000, 8179.000000, 0.000000, 0.000000, 0.000000, -20640.000000, 438.461517, 4.000000, 4.000000, 4.000000, 4.000000, 4.000000, 4.000000, 4.000000, 4.000000, 4.000000, 4.000000, 4.000000, 4.000000, 4.000000, 4.000000, 4.000000, 4.000000
118.000000, 0.000000, 4213.846191, 4202.563965, 4188.717773, 4195.384277, 4198.461426, 4202.563965, 4198.974121, 4209.230469, 4223.589844, 4099.487305, 4207.179199, 4191.794922, 4207.692383, 4196.410156, 3756.000000, 8226.000000, 8179.000000, 0.000000, 0.000000, 0.000000, -20640.000000, 446.153839, 4.000000, 4.000000, 4.000000, 4.000000, 4.000000, 4.000000, 4.000000, 4.000000, 4.000000, 4.000000, 4.000000, 4.000000, 4.000000, 4.000000, 4.000000, 4.000000
119.000000, 0.000000, 4227.179199, 4213.846191, 4189.230469, 4207.692383, 4191.281738, 4202.563965, 4192.820313, 4223.076660, 4229.743652, 4094.871582, 4209.230469, 4192.307617, 4214.358887, 4195.384277, 430.000000, 8224.000000, 8181.000000, 0.000000, 0.000000, 0.000000, -20640.000000, 453.846130, 4.000000, 4.000000, 4.000000, 4.000000, 4.000000, 4.000000, 4.000000, 4.000000, 4.000000, 4.000000, 4.000000, 4.000000, 4.000000, 4.000000, 4.000000, 4.000000
120.000000, 0.000000, 4221.025391, 4213.846191, 4189.230469, 4213.333008, 4191.281738, 4201.538574, 4193.846191, 4214.871582, 4216.410156, 4092.307617, 4206.153809, 4192.820313, 4215.384277, 4198.974121, 3706.000000, 8224.000000, 8181.000000, 0.000000, 0.000000, 0.000000, -20640.000000, 462.051270, 4.000000, 4.000000, 4.000000, 4.000000, 4.000000, 4.000000, 4.000000, 4.000000, 4.000000, 4.000000, 4.000000, 4.000000, 4.000000, 4.000000, 4.000000, 4.000000
121.000000, 0.000000, 4226.153809, 4212.307617, 4190.769043, 4205.641113, 4192.307617, 4202.051270, 4201.025391, 4209.743652, 4210.256348, 4093.845947, 4213.333008, 4197.436035, 4214.871582, 4197.948730, 3401.000000, 8206.000000, 8183.000000, 0.000000, 0.000000, 0.000000, -20640.000000, 470.256409, 4.000000, 4.000000, 4.000000, 4.000000, 4.000000, 4.000000, 4.000000, 4.000000, 4.000000, 4.000000, 4.000000, 4.000000, 4.000000, 4.000000, 4.000000, 4.000000
122.000000, 0.000000, 4232.820313, 4213.846191, 4196.922852, 4207.692383, 4183.076660, 4198.974121, 4203.076660, 4217.436035, 4224.102539, 4087.692139, 4221.538574, 4204.615234, 4221.025391, 4201.025391, 3756.000000, 8206.000000, 8183.000000, 0.000000, 0.000000, 0.000000, -20640.000000, 477.948700, 4.000000, 4.000000, 4.000000, 4.000000, 4.000000, 4.000000, 4.000000, 4.000000, 4.000000, 4.000000, 4.000000, 4.000000, 4.000000, 4.000000, 4.000000, 4.000000
123.000000, 0.000000, 4231.794922, 4211.794922, 4209.230469, 4220.000000, 4193.846191, 4203.589844, 4200.000000, 4229.743652, 4247.179199, 4077.435791, 4218.974121, 4213.333008, 4226.153809, 4203.076660, 430.000000, 8200.000000, 8179.000000, 0.000000, 0.000000, 0.000000, -20640.000000, 485.641022, 4.000000, 4.000000, 4.000000, 4.000000, 4.000000, 4.000000, 4.000000, 4.000000, 4.000000, 4.000000, 4.000000, 4.000000, 4.000000, 4.000000, 4.000000, 4.000000
124.000000, 0.000000, 4232.820313, 4210.256348, 4212.820313, 4216.410156, 4197.948730, 4210.256348, 4203.076660, 4240.000000, 4249.230469, 4062.051270, 4217.948730, 4219.487305, 4223.589844, 4201.025391, 3706.000000, 8200.000000, 8179.000000, 0.000000, 0.000000, 0.000000, -20640.000000, 493.333313, 4.000000, 4.000000, 4.000000, 4.000000, 4.000000, 4.000000, 4.000000, 4.000000, 4.000000, 4.000000, 4.000000, 4.000000, 4.000000, 4.000000, 4.000000, 4.000000
125.000000, 0.000000, 4220.512695, 4208.717773, 4197.436035, 4199.487305, 4186.666504, 4205.127930, 4203.589844, 4233.333008, 4233.846191, 4035.384521, 4219.487305, 4213.333008, 4218.461426, 4206.153809, 3401.000000, 8184.000000, 8177.000000, 0.000000, 0.000000, 0.000000, -20640.000000, 501.538452, 4.000000, 4.000000, 4.000000, 4.000000, 4.000000, 4.000000, 4.000000, 4.000000, 4.000000, 4.000000, 4.000000, 4.000000, 4.000000, 4.000000, 4.000000, 4.000000
126.000000, 0.000000, 4217.948730, 4203.076660, 4186.153809, 4190.256348, 4192.820313, 4198.974121, 4197.948730, 4218.461426, 4225.641113, 4005.128174, 4216.410156, 4196.922852, 4217.948730, 4203.076660, 3756.000000, 8184.000000, 8177.000000, 0.000000, 0.000000, 0.000000, -20640.000000, 509.230743, 4.000000, 4.000000, 4.000000, 4.000000, 4.000000, 4.000000, 4.000000, 4.000000, 4.000000, 4.000000, 4.000000, 4.000000, 4.000000, 4.000000, 4.000000, 4.000000
127.000000, 0.000000, 4218.974121, 4200.512695, 4190.256348, 4190.256348, 4200.000000, 4201.025391, 4198.461426, 4215.384277, 4226.153809, 3984.102539, 4215.384277, 4191.281738, 4217.948730, 4202.051270, 54.000000, 8176.000000, 8184.000000, 0.000000, 0.000000, 0.000000, -20640.000000, 516.923035, 4.000000, 4.000000, 4.000000, 4.000000, 4.000000, 4.000000, 4.000000, 4.000000, 4.000000, 4.000000, 4.000000, 4.000000, 4.000000, 4.000000, 4.000000, 4.000000
0.000000, 0.000000, 4209.230469, 4200.000000, 4188.205078, 4187.692383, 4186.666504, 4204.102539, 4204.615234, 4220.000000, 4221.538574, 3970.256348, 4205.641113, 4188.717773, 4208.205078, 4203.076660, 3359.000000, 8176.000000, 8184.000000, 0.000000, 0.000000, 0.000000, -20640.000000, 525.128174, 4.000000, 4.000000, 4.000000, 4.000000, 4.000000, 4.000000, 4.000000, 4.000000, 4.000000, 4.000000, 4.000000, 4.000000, 4.000000, 4.000000, 4.000000, 4.000000
1.000000, 0.000000, 4207.179199, 4197.436035, 4180.512695, 4186.153809, 4171.794922, 4201.538574, 4201.538574, 4209.743652, 4211.794922, 3943.076904, 4187.692383, 4180.000000, 4192.820313, 4199.487305, 3508.000000, 8172.000000, 8189.000000, 0.000000, 0.000000, 0.000000, -20640.000000, 532.820496, 4.000000, 4.000000, 4.000000, 4.000000, 4.000000, 4.000000, 4.000000, 4.000000, 4.000000, 4.000000, 4.000000, 4.000000, 4.000000, 4.000000, 4.000000, 4.000000
2.000000, 0.000000, 4202.563965, 4202.051270, 4181.538574, 4193.333008, 4177.948730, 4199.487305, 4194.358887, 4193.333008, 4205.127930, 3908.717773, 4189.230469, 4180.000000, 4191.281738, 4203.589844, 2519.000000, 8172.000000, 8189.000000, 0.000000, 0.000000, 0.000000, -20640.000000, 540.512817, 4.000000, 4.000000, 4.000000, 4.000000, 4.000000, 4.000000, 4.000000, 4.000000, 4.000000, 4.000000, 4.000000, 4.000000, 4.000000, 4.000000, 4.000000, 4.000000
3.000000, 0.000000, 4207.179199, 4211.281738, 4191.281738, 4202.051270, 4194.871582, 4204.615234, 4195.897461, 4207.179199, 4213.846191, 3909.743408, 4206.153809, 4189.743652, 4201.538574, 4200.000000, 2195.000000, 8170.000000, 8199.000000, 0.000000, 0.000000, 0.000000, -20640.000000, 548.205139, 4.000000, 4.000000, 4.000000, 4.000000, 4.000000, 4.000000, 4.000000, 4.000000, 4.000000, 4.000000, 4.000000, 4.000000, 4.000000, 4.000000, 4.000000, 4.000000
4.000000, 0.000000, 4207.692383, 4209.743652, 4194.358887, 4203.076660, 4205.127930, 4213.846191, 4201.025391, 4233.333008, 4225.641113, 3928.205078, 4209.743652, 4192.820313, 4206.666504, 4200.000000, 3534.000000, 8170.000000, 8199.000000, 0.000000, 0.000000, 0.000000, -20640.000000, 556.410217, 4.000000, 4.000000, 4.000000, 4.000000, 4.000000, 4.000000, 4.000000, 4.000000, 4.000000, 4.000000, 4.000000, 4.000000, 4.000000, 4.000000, 4.000000, 4.000000
5.000000, 0.000000, 4195.897461, 4203.076660, 4188.205078, 4196.922852, 4203.076660, 4216.922852, 4200.000000, 4218.974121, 4215.897461, 3908.717773, 4196.410156, 4185.127930, 4199.487305, 4204.102539, 3539.000000, 8169.000000, 8200.000000, 0.000000, 0.000000, 0.000000, -20640.000000, 564.615356, 4.000000, 4.000000, 4.000000, 4.000000, 4.000000, 4.000000, 4.000000, 4.000000, 4.000000, 4.000000, 4.000000, 4.000000, 4.000000, 4.000000, 4.000000, 4.000000
6.000000, 0.000000, 4201.025391, 4206.153809, 4188.205078, 4192.820313, 4193.333008, 4214.871582, 4197.948730, 4195.384277, 4210.769043, 3887.692139, 4187.692383, 4184.615234, 4194.871582, 4198.461426, 3127.000000, 8169.000000, 8200.000000, 0.000000, 0.000000, 0.000000, -20640.000000, 572.307678, 4.000000, 4.000000, 4.000000, 4.000000, 4.000000, 4.000000, 4.000000, 4.000000, 4.000000, 4.000000, 4.000000, 4.000000, 4.000000, 4.000000, 4.000000, 4.000000
7.000000, 0.000000, 4200.000000, 4207.692383, 4189.743652, 4190.769043, 4181.025391, 4209.743652, 4200.512695, 4200.000000, 4213.333008, 3892.307617, 4187.179199, 4188.717773, 4194.871582, 4198.974121, 3566.000000, 8161.000000, 8215.000000, 0.000000, 0.000000, 0.000000, -20640.000000, 580.000000, 4.000000, 4.000000, 4.000000, 4.000000, 4.000000, 4.000000, 4.000000, 4.000000, 4.000000, 4.000000, 4.000000, 4.000000, 4.000000, 4.000000, 4.000000, 4.000000
8.000000, 0.000000, 4198.974121, 4204.102539, 4190.769043, 4186.666504, 4175.384277, 4206.666504, 4202.563965, 4206.666504, 4204.102539, 3882.563965, 4185.641113, 4185.127930, 4189.230469, 4199.487305, 3524.000000, 8161.000000, 8215.000000, 0.000000, 0.000000, 0.000000, -20640.000000, 587.692322, 4.000000, 4.000000, 4.000000, 4.000000, 4.000000, 4.000000, 4.000000, 4.000000, 4.000000, 4.000000, 4.000000, 4.000000, 4.000000, 4.000000, 4.000000, 4.000000
9.000000, 0.000000, 4202.563965, 4204.615234, 4194.358887, 4189.230469, 4178.461426, 4213.333008, 4200.512695, 4200.512695, 4198.974121, 3873.333252, 4186.153809, 4184.615234, 4184.102539, 4198.461426, 3559.000000, 8161.000000, 8225.000000, 0.000000, 0.000000, 0.000000, -20640.000000, 595.897400, 4.000000, 4.000000, 4.000000, 4.000000, 4.000000, 4.000000, 4.000000, 4.000000, 4.000000, 4.000000, 4.000000, 4.000000, 4.000000, 4.000000, 4.000000, 4.000000
10.000000, 0.000000, 4198.974121, 4210.769043, 4193.846191, 4193.333008, 4182.563965, 4213.846191, 4195.384277, 4198.974121, 4202.563965, 3876.410156, 4185.641113, 4186.153809, 4188.205078, 4199.487305, 3597.000000, 8161.000000, 8225.000000, 0.000000, 0.000000, 0.000000, -20640.000000, 603.589722, 4.000000, 4.000000, 4.000000, 4.000000, 4.000000, 4.000000, 4.000000, 4.000000, 4.000000, 4.000000, 4.000000, 4.000000, 4.000000, 4.000000, 4.000000, 4.000000
11.000000, 0.000000, 4204.102539, 4214.871582, 4194.358887, 4193.846191, 4199.487305, 4205.641113, 4192.820313, 4201.025391, 4202.563965, 3867.179443, 4186.153809, 4184.615234, 4192.307617, 4197.948730, 426.000000, 8167.000000, 8233.000000, 0.000000, 0.000000, 0.000000, -20640.000000, 611.282043, 4.000000, 4.000000, 4.000000, 4.000000, 4.000000, 4.000000, 4.000000, 4.000000, 4.000000, 4.000000, 4.000000, 4.000000, 4.000000, 4.000000, 4.000000, 4.000000
12.000000, 0.000000, 4196.922852, 4211.794922, 4194.871582, 4195.897461, 4212.820313, 4204.615234, 4200.512695, 4199.487305, 4198.974121, 3857.948730, 4188.205078, 4186.153809, 4187.692383, 4201.538574, 3533.000000, 8167.000000, 8233.000000, 0.000000, 0.000000, 0.000000, -20640.000000, 619.487183, 4.000000, 4.000000, 4.000000, 4.000000, 4.000000, 4.000000, 4.000000, 4.000000, 4.000000, 4.000000, 4.000000, 4.000000, 4.000000, 4.000000, 4.000000, 4.000000
13.000000, 0.000000, 4193.333008, 4214.358887, 4193.846191, 4198.461426, 4198.974121, 4202.051270, 4197.948730, 4199.487305, 4200.512695, 3858.461426, 4185.127930, 4187.692383, 4180.000000, 4199.487305, 3400.000000, 8165.000000, 8243.000000, 0.000000, 0.000000, 0.000000, -20640.000000, 627.692322, 4.000000, 4.000000, 4.000000, 4.000000, 4.000000, 4.000000, 4.000000, 4.000000, 4.000000, 4.000000, 4.000000, 4.000000, 4.000000, 4.000000, 4.000000, 4.000000
14.000000, 0.000000, 4202.563965, 4226.666504, 4193.333008, 4200.000000, 4193.846191, 4197.436035, 4184.615234, 4197.948730, 4201.538574, 3864.102539, 4184.102539, 4186.666504, 4187.179199, 4198.974121, 3597.000000, 8165.000000, 8243.000000, 0.000000, 0.000000, 0.000000, -20640.000000, 635.384583, 4.000000, 4.000000, 4.000000, 4.000000, 4.000000, 4.000000, 4.000000, 4.000000, 4.000000, 4.000000, 4.000000, 4.000000, 4.000000, 4.000000, 4.000000, 4.000000
15.000000, 0.000000, 4200.000000, 4227.692383, 4193.333008, 4198.974121, 4205.127930, 4206.666504, 4194.871582, 4195.897461, 4199.487305, 3869.743408, 4192.820313, 4191.281738, 4200.000000, 4206.666504, 426.000000, 8165.000000, 8241.000000, 0.000000, 0.000000, 0.000000, -20640.000000, 643.076904, 4.000000, 4.000000, 4.000000, 4.000000, 4.000000, 4.000000, 4.000000, 4.000000, 4.000000, 4.000000, 4.000000, 4.000000, 4.000000, 4.000000, 4.000000, 4.000000
16.000000, 0.000000, 4202.563965, 4223.589844, 4195.384277, 4194.871582, 4193.333008, 4210.769043, 4214.871582, 4203.076660, 4200.512695, 3866.153809, 4197.436035, 4194.358887, 4201.538574, 4203.076660, 0.000000, 8165.000000, 8241.000000, 0.000000, 0.000000, 0.000000, -20640.000000, 650.769226, 4.000000, 4.000000, 4.000000, 4.000000, 4.000000, 4.000000, 4.000000, 4.000000, 4.000000, 4.000000, 4.000000, 4.000000, 4.000000, 4.000000, 4.000000, 4.000000
17.000000, 0.000000, 4202.563965, 4230.256348, 4198.461426, 4193.846191, 4178.461426, 4205.641113, 4209.743652, 4216.410156, 4211.794922, 3869.230713, 4198.974121, 4194.358887, 4204.102539, 4203.076660, 0.000000, 8161.000000, 8239.000000, 0.000000, 0.000000, 0.000000, -20640.000000, 658.974365, 4.000000, 4.000000, 4.000000, 4.000000, 4.000000, 4.000000, 4.000000, 4.000000, 4.000000, 4.000000, 4.000000, 4.000000, 4.000000, 4.000000, 4.000000, 4.000000
18.000000, 0.000000, 4207.692383, 4241.538574, 4203.589844, 4202.051270, 4190.256348, 4208.717773, 4197.948730, 4221.538574, 4221.025391, 3889.743408, 4206.666504, 4196.922852, 4215.897461, 4205.641113, 0.000000, 8161.000000, 8239.000000, 0.000000, 0.000000, 0.000000, -20640.000000, 666.666626, 4.000000, 4.000000, 4.000000, 4.000000, 4.000000, 4.000000, 4.000000, 4.000000, 4.000000, 4.000000, 4.000000, 4.000000, 4.000000, 4.000000, 4.000000, 4.000000
19.000000, 0.000000, 4215.897461, 4242.051270, 4207.179199, 4205.641113, 4205.127930, 4210.256348, 4202.051270, 4214.871582, 4217.436035, 3899.487061, 4211.281738, 4198.974121, 4219.487305, 4202.563965, 0.000000, 8152.000000, 8225.000000, 0.000000, 0.000000, 0.000000, -20640.000000, 674.358948, 4.000000, 4.000000, 4.000000, 4.000000, 4.000000, 4.000000, 4.000000, 4.000000, 4.000000, 4.000000, 4.000000, 4.000000, 4.000000, 4.000000, 4.000000, 4.000000
20.000000, 0.000000, 4208.717773, 4235.897461, 4208.717773, 4199.487305, 4198.461426, 4209.230469, 4213.333008, 4215.384277, 4223.076660, 3892.820313, 4212.307617, 4207.692383, 4220.000000, 4202.051270, 0.000000, 8152.000000, 8225.000000, 0.000000, 0.000000, 0.000000, -20640.000000, 682.564087, 4.000000, 4.000000, 4.000000, 4.000000, 4.000000, 4.000000, 4.000000, 4.000000, 4.000000, 4.000000, 4.000000, 4.000000, 4.000000, 4.000000, 4.000000, 4.000000
21.000000, 0.000000, 4216.922852, 4239.487305, 4213.333008, 4203.076660, 4188.717773, 4216.410156, 4217.436035, 4223.589844, 4234.871582, 3892.820313, 4218.461426, 4213.846191, 4230.256348, 4200.512695, 0.000000, 8151.000000, 8207.000000, 0.000000, 0.000000, 0.000000, -20640.000000, 690.256409, 4.000000, 4.000000, 4.000000, 4.000000, 4.000000, 4.000000, 4.000000, 4.000000, 4.000000, 4.000000, 4.000000, 4.000000, 4.000000, 4.000000, 4.000000, 4.000000
22.000000, 0.000000, 4219.487305, 4243.589844, 4213.333008, 4212.307617, 4195.897461, 4220.000000, 4215.384277, 4216.410156, 4226.666504, 3898.461426, 4220.512695, 4208.717773, 4235.384277, 4206.153809, 0.000000, 8151.000000, 8207.000000, 0.000000, 0.000000, 0.000000, -20640.000000, 698.461548, 4.000000, 4.000000, 4.000000, 4.000000, 4.000000, 4.000000, 4.000000, 4.000000, 4.000000, 4.000000, 4.000000, 4.000000, 4.000000, 4.000000, 4.000000, 4.000000
23.000000, 0.000000, 4214.871582, 4242.051270, 4211.794922, 4210.769043, 4192.820313, 4212.307617, 4209.743652, 4201.538574, 4208.205078, 3895.384521, 4217.436035, 4203.076660, 4234.871582, 4206.666504, 0.000000, 8155.000000, 8198.000000, 0.000000, 0.000000, 0.000000, -20640.000000, 706.153809, 4.000000, 4.000000, 4.000000, 4.000000, 4.000000, 4.000000, 4.000000, 4.000000, 4.000000, 4.000000, 4.000000, 4.000000, 4.000000, 4.000000, 4.000000, 4.000000
24.000000, 0.000000, 4223.589844, 4245.127930, 4213.846191, 4202.051270, 4178.461426, 4205.641113, 4206.153809, 4200.512695, 4204.102539, 3883.589600, 4216.922852, 4204.102539, 4232.820313, 4203.589844, 0.000000, 8155.000000, 8198.000000, 0.000000, 0.000000, 0.000000, -20640.000000, 713.846130, 4.000000, 4.000000, 4.000000, 4.000000, 4.000000, 4.000000, 4.000000, 4.000000, 4.000000, 4.000000, 4.000000, 4.000000, 4.000000, 4.000000, 4.000000, 4.000000
25.000000, 0.000000, 4220.000000, 4243.589844, 4206.666504, 4202.051270, 4186.666504, 4201.025391, 4203.076660, 4202.563965, 4201.538574, 3879.487061, 4210.769043, 4205.641113, 4224.102539, 4207.692383, 0.000000, 8156.000000, 8188.000000, 0.000000, 0.000000, 0.000000, -20640.000000, 722.051270, 4.000000, 4.000000, 4.000000, 4.000000, 4.000000, 4.000000, 4.000000, 4.000000, 4.000000, 4.000000, 4.000000, 4.000000, 4.000000, 4.000000, 4.000000, 4.000000
26.000000, 0.000000, 4216.922852, 4238.461426, 4192.820313, 4203.076660, 4210.769043, 4198.974121, 4189.743652, 4189.743652, 4185.641113, 3878.974365, 4195.897461, 4194.358887, 4208.717773, 4202.563965, 0.000000, 8156.000000, 8188.000000, 0.000000, 0.000000, 0.000000, -20640.000000, 729.743591, 4.000000, 4.000000, 4.000000, 4.000000, 4.000000, 4.000000, 4.000000, 4.000000, 4.000000, 4.000000, 4.000000, 4.000000, 4.000000, 4.000000, 4.000000, 4.000000
27.000000, 0.000000, 4209.743652, 4235.897461, 4186.153809, 4191.281738, 4214.871582, 4207.692383, 4185.127930, 4174.358887, 4164.102539, 3860.000000, 4183.589844, 4176.410156, 4191.281738, 4200.512695, 0.000000, 8152.000000, 8170.000000, 0.000000, 0.000000, 0.000000, -20640.000000, 737.435852, 4.000000, 4.000000, 4.000000, 4.000000, 4.000000, 4.000000, 4.000000, 4.000000, 4.000000, 4.000000, 4.000000, 4.000000, 4.000000, 4.000000, 4.000000, 4.000000
28.000000, 0.000000, 4205.641113, 4238.461426, 4189.743652, 4189.743652, 4203.076660, 4218.461426, 4195.384277, 4185.127930, 4166.666504, 3851.794678, 4175.384277, 4168.717773, 4182.563965, 4200.000000, 0.000000, 8152.000000, 8170.000000, 0.000000, 0.000000, 0.000000, -20640.000000, 745.640991, 4.000000, 4.000000, 4.000000, 4.000000, 4.000000, 4.000000, 4.000000, 4.000000, 4.000000, 4.000000, 4.000000, 4.000000, 4.000000, 4.000000, 4.000000, 4.000000
29.000000, 0.000000, 4217.948730, 4240.000000, 4196.922852, 4197.948730, 4201.025391, 4216.922852, 4200.000000, 4210.769043, 4201.025391, 3881.538330, 4184.615234, 4178.974121, 4195.384277, 4198.461426, 0.000000, 8154.000000, 8166.000000, 0.000000, 0.000000, 0.000000, -20640.000000, 753.333313, 4.000000, 4.000000, 4.000000, 4.000000, 4.000000, 4.000000, 4.000000, 4.000000, 4.000000, 4.000000, 4.000000, 4.000000, 4.000000, 4.000000, 4.000000, 4.000000
30.000000, 0.000000, 4221.025391, 4240.000000, 4204.102539, 4196.922852, 4207.179199, 4204.102539, 4196.922852, 4217.948730, 4227.692383, 3907.692139, 4212.820313, 4196.922852, 4221.538574, 4204.615234, 0.000000, 8154.000000, 8166.000000, 0.000000, 0.000000, 0.000000, -20640.000000, 761.538452, 4.000000, 4.000000, 4.000000, 4.000000, 4.000000, 4.000000, 4.000000, 4.000000, 4.000000, 4.000000, 4.000000, 4.000000, 4.000000, 4.000000, 4.000000, 4.000000
31.000000, 0.000000, 4232.307617, 4247.179199, 4216.410156, 4199.487305, 4197.436035, 4199.487305, 4199.487305, 4201.538574, 4220.512695, 3913.333252, 4231.794922, 4210.256348, 4240.000000, 4202.051270, 0.000000, 8161.000000, 8154.000000, 0.000000, 0.000000, 0.000000, -20640.000000, 769.230774, 4.000000, 4.000000, 4.000000, 4.000000, 4.000000, 4.000000, 4.000000, 4.000000, 4.000000, 4.000000, 4.000000, 4.000000, 4.000000, 4.000000, 4.000000, 4.000000
32.000000, 0.000000, 4244.615234, 4258.461426, 4226.153809, 4213.333008, 4187.179199, 4207.692383, 4210.769043, 4203.589844, 4218.461426, 3931.281982, 4242.563965, 4228.717773, 4255.384277, 4202.051270, 0.000000, 8161.000000, 8154.000000, 0.000000, 0.000000, 0.000000, -20640.000000, 776.923035, 4.000000, 4.000000, 4.000000, 4.000000, 4.000000, 4.000000, 4.000000, 4.000000, 4.000000, 4.000000, 4.000000, 4.000000, 4.000000, 4.000000, 4.000000, 4.000000
33.000000, 0.000000, 4247.692383, 4264.615234, 4233.333008, 4223.589844, 4202.563965, 4217.948730, 4216.922852, 4236.922852, 4241.538574, 3951.281982, 4249.230469, 4243.076660, 4265.127930, 4206.666504, 0.000000, 8165.000000, 8153.000000, 0.000000, 0.000000, 0.000000, -20640.000000, 784.615356, 4.000000, 4.000000, 4.000000, 4.000000, 4.000000, 4.000000, 4.000000, 4.000000, 4.000000, 4.000000, 4.000000, 4.000000, 4.000000, 4.000000, 4.000000, 4.000000
34.000000, 0.000000, 4258.461426, 4266.153809, 4240.512695, 4223.589844, 4223.589844, 4222.563965, 4217.948730, 4255.897461, 4254.871582, 3956.410156, 4252.307617, 4241.538574, 4267.179199, 4203.076660, 0.000000, 8165.000000, 8153.000000, 0.000000, 0.000000, 0.000000, -20640.000000, 792.820496, 4.000000, 4.000000, 4.000000, 4.000000, 4.000000, 4.000000, 4.000000, 4.000000, 4.000000, 4.000000, 4.000000, 4.000000, 4.000000, 4.000000, 4.000000, 4.000000
35.000000, 0.000000, 4256.410156, 4265.127930, 4239.487305, 4220.000000, 4219.487305, 4224.102539, 4222.563965, 4253.846191, 4254.871582, 3960.000000, 4254.871582, 4238.974121, 4271.794922, 4205.641113, 0.000000, 8166.000000, 8149.000000, 0.000000, 0.000000, 0.000000, -20640.000000, 800.512817, 4.000000, 4.000000, 4.000000, 4.000000, 4.000000, 4.000000, 4.000000, 4.000000, 4.000000, 4.000000, 4.000000, 4.000000, 4.000000, 4.000000, 4.000000, 4.000000
36.000000, 0.000000, 4252.820313, 4261.538574, 4230.256348, 4219.487305, 4202.051270, 4222.051270, 4221.025391, 4255.897461, 4253.846191, 3952.307617, 4241.025391, 4231.281738, 4258.974121, 4207.179199, 0.000000, 8166.000000, 8149.000000, 0.000000, 0.000000, 0.000000, -20640.000000, 808.205078, 4.000000, 4.000000, 4.000000, 4.000000, 4.000000, 4.000000, 4.000000, 4.000000, 4.000000, 4.000000, 4.000000, 4.000000, 4.000000, 4.000000, 4.000000, 4.000000
37.000000, 0.000000, 4243.589844, 4255.897461, 4216.410156, 4214.871582, 4201.025391, 4212.307617, 4207.179199, 4247.692383, 4242.051270, 3931.281982, 4217.436035, 4213.333008, 4232.820313, 4205.641113, 0.000000, 8163.000000, 8147.000000, 0.000000, 0.000000, 0.000000, -20640.000000, 816.410217, 4.000000, 4.000000, 4.000000, 4.000000, 4.000000, 4.000000, 4.000000, 4.000000, 4.000000, 4.000000, 4.000000, 4.000000, 4.000000, 4.000000, 4.000000, 4.000000
38.000000, 0.000000, 4230.256348, 4252.820313, 4200.000000, 4202.051270, 4205.127930, 4201.538574, 4196.922852, 4221.538574, 4223.076660, 3924.102539, 4213.333008, 4200.512695, 4230.769043, 4202.051270, 0.000000, 8163.000000, 8147.000000, 0.000000, 0.000000, 0.000000, -20640.000000, 824.102539, 4.000000, 4.000000, 4.000000, 4.000000, 4.000000, 4.000000, 4.000000, 4.000000, 4.000000, 4.000000, 4.000000, 4.000000, 4.000000, 4.000000, 4.000000, 4.000000
39.000000, 0.000000, 4229.230469, 4247.179199, 4190.256348, 4190.256348, 4190.769043, 4199.487305, 4197.948730, 4204.102539, 4207.179199, 3916.410156, 4202.563965, 4188.717773, 4216.922852, 4194.358887, 0.000000, 8163.000000, 8145.000000, 0.000000, 0.000000, 0.000000, -20640.000000, 831.794861, 4.000000, 4.000000, 4.000000, 4.000000, 4.000000, 4.000000, 4.000000, 4.000000, 4.000000, 4.000000, 4.000000, 4.000000, 4.000000, 4.000000, 4.000000, 4.000000
40.000000, 0.000000, 4209.743652, 4232.820313, 4187.692383, 4184.102539, 4176.410156, 4197.436035, 4194.358887, 4189.230469, 4184.615234, 3885.128174, 4167.692383, 4172.820313, 4166.666504, 4196.410156, 0.000000, 8163.000000, 8145.000000, 0.000000, 0.000000, 0.000000, -20640.000000, 840.000000, 4.000000, 4.000000, 4.000000, 4.000000, 4.000000, 4.000000, 4.000000, 4.000000, 4.000000, 4.000000, 4.000000, 4.000000, 4.000000, 4.000000, 4.000000, 4.000000
41.000000, 0.000000, 4206.666504, 4229.743652, 4189.743652, 4187.179199, 4188.205078, 4191.281738, 4181.538574, 4171.794922, 4168.717773, 3867.179443, 4161.538574, 4167.179199, 4160.512695, 4197.948730, 0.000000, 8148.000000, 8147.000000, 0.000000, 0.000000, 0.000000, -20640.000000, 848.205078, 4.000000, 4.000000, 4.000000, 4.000000, 4.000000, 4.000000, 4.000000, 4.000000, 4.000000, 4.000000, 4.000000, 4.000000, 4.000000, 4.000000, 4.000000, 4.000000
42.000000, 0.000000, 4227.179199, 4242.563965, 4192.820313, 4193.846191, 4203.076660, 4191.794922, 4182.563965, 4178.461426, 4180.512695, 3887.179443, 4187.179199, 4177.436035, 4208.205078, 4200.000000, 0.000000, 8148.000000, 8147.000000, 0.000000, 0.000000, 0.000000, -20640.000000, 855.897400, 4.000000, 4.000000, 4.000000, 4.000000, 4.000000, 4.000000, 4.000000, 4.000000, 4.000000, 4.000000, 4.000000, 4.000000, 4.000000, 4.000000, 4.000000, 4.000000
43.000000, 0.000000, 4233.846191, 4245.127930, 4197.948730, 4199.487305, 4201.538574, 4201.538574, 4199.487305, 4195.384277, 4197.948730, 3912.307617, 4205.641113, 4190.769043, 4236.410156, 4203.076660, 0.000000, 8135.000000, 8152.000000, 0.000000, 0.000000, 0.000000, -20640.000000, 863.589722, 4.000000, 4.000000, 4.000000, 4.000000, 4.000000, 4.000000, 4.000000, 4.000000, 4.000000, 4.000000, 4.000000, 4.000000, 4.000000, 4.000000, 4.000000, 4.000000
44.000000, 0.000000, 4241.538574, 4240.512695, 4203.589844, 4203.589844, 4202.563965, 4206.666504, 4202.051270, 4207.179199, 4208.717773, 3924.102539, 4220.000000, 4205.127930, 4248.717773, 4200.512695, 0.000000, 8135.000000, 8152.000000, 0.000000, 0.000000, 0.000000, -20640.000000, 871.794861, 4.000000, 4.000000, 4.000000, 4.000000, 4.000000, 4.000000, 4.000000, 4.000000, 4.000000, 4.000000, 4.000000, 4.000000, 4.000000, 4.000000, 4.000000, 4.000000
45.000000, 0.000000, 4236.922852, 4235.897461, 4203.589844, 4201.025391, 4202.563965, 4201.538574, 4187.692383, 4214.871582, 4218.461426, 3934.358887, 4232.820313, 4212.307617, 4267.692383, 4205.641113, 0.000000, 8119.000000, 8165.000000, 0.000000, 0.000000, 0.000000, -20640.000000, 879.487183, 4.000000, 4.000000, 4.000000, 4.000000, 4.000000, 4.000000, 4.000000, 4.000000, 4.000000, 4.000000, 4.000000, 4.000000, 4.000000, 4.000000, 4.000000, 4.000000
46.000000, 0.000000, 4241.025391, 4237.436035, 4209.743652, 4198.461426, 4203.076660, 4198.974121, 4190.256348, 4218.974121, 4227.179199, 3950.769043, 4240.000000, 4211.794922, 4282.051270, 4204.102539, 0.000000, 8119.000000, 8165.000000, 0.000000, 0.000000, 0.000000, -20640.000000, 887.179443, 4.000000, 4.000000, 4.000000, 4.000000, 4.000000, 4.000000, 4.000000, 4.000000, 4.000000, 4.000000, 4.000000, 4.000000, 4.000000, 4.000000, 4.000000, 4.000000
47.000000, 0.000000, 4258.974121, 4246.666504, 4231.281738, 4209.743652, 4214.358887, 4211.794922, 4212.307617, 4227.692383, 4238.974121, 3967.179443, 4254.358887, 4222.563965, 4305.127930, 4201.538574, 0.000000, 8103.000000, 8185.000000, 0.000000, 0.000000, 0.000000, -20640.000000, 894.871765, 4.000000, 4.000000, 4.000000, 4.000000, 4.000000, 4.000000, 4.000000, 4.000000, 4.000000, 4.000000, 4.000000, 4.000000, 4.000000, 4.000000, 4.000000, 4.000000
48.000000, 0.000000, 4255.897461, 4249.743652, 4243.076660, 4222.563965, 4213.846191, 4223.076660, 4227.692383, 4243.076660, 4246.153809, 3967.179443, 4266.666504, 4235.897461, 4322.051270, 4205.641113, 0.000000, 8103.000000, 8185.000000, 0.000000, 0.000000, 0.000000, -20640.000000, 903.076904, 4.000000, 4.000000, 4.000000, 4.000000, 4.000000, 4.000000, 4.000000, 4.000000, 4.000000, 4.000000, 4.000000, 4.000000, 4.000000, 4.000000, 4.000000, 4.000000
49.000000, 0.000000, 4254.871582, 4247.692383, 4240.000000, 4221.538574, 4202.563965, 4220.000000, 4225.127930, 4253.846191, 4248.717773, 3968.205078, 4265.641113, 4236.922852, 4314.871582, 4204.102539, 0.000000, 8093.000000, 8189.000000, 0.000000, 0.000000, 0.000000, -20640.000000, 911.282043, 4.000000, 4.000000, 4.000000, 4.000000, 4.000000, 4.000000, 4.000000, 4.000000, 4.000000, 4.000000, 4.000000, 4.000000, 4.000000, 4.000000, 4.000000, 4.000000
50.000000, 0.000000, 4257.436035, 4248.205078, 4236.922852, 4214.358887, 4205.641113, 4225.127930, 4222.563965, 4250.769043, 4250.769043, 3983.076904, 4266.666504, 4238.461426, 4312.820313, 4206.153809, 0.000000, 8093.000000, 8189.000000, 0.000000, 0.000000, 0.000000, -20640.000000, 918.974365, 4.000000, 4.000000, 4.000000, 4.000000, 4.000000, 4.000000, 4.000000, 4.000000, 4.000000, 4.000000, 4.000000, 4.000000, 4.000000, 4.000000, 4.000000, 4.000000
51.000000, 0.000000, 4255.897461, 4248.717773, 4228.717773, 4204.102539, 4199.487305, 4238.461426, 4228.205078, 4236.410156, 4240.000000, 3979.487061, 4263.589844, 4237.948730, 4315.384277, 4203.589844, 0.000000, 8075.000000, 8178.000000, 0.000000, 0.000000, 0.000000, -20640.000000, 926.666626, 4.000000, 4.000000, 4.000000, 4.000000, 4.000000, 4.000000, 4.000000, 4.000000, 4.000000, 4.000000, 4.000000, 4.000000, 4.000000, 4.000000, 4.000000, 4.000000
52.000000, 0.000000, 4241.025391, 4237.948730, 4206.153809, 4183.076660, 4181.025391, 4230.769043, 4228.205078, 4217.948730, 4222.051270, 3962.563965, 4255.897461, 4224.615234, 4304.102539, 4200.000000, 0.000000, 8075.000000, 8178.000000, 0.000000, 0.000000, 0.000000, -20640.000000, 934.358948, 4.000000, 4.000000, 4.000000, 4.000000, 4.000000, 4.000000, 4.000000, 4.000000, 4.000000, 4.000000, 4.000000, 4.000000, 4.000000, 4.000000, 4.000000, 4.000000
53.000000, 0.000000, 4215.384277, 4219.487305, 4183.076660, 4160.512695, 4186.666504, 4217.948730, 4216.410156, 4207.692383, 4210.256348, 3955.897461, 4245.641113, 4211.281738, 4284.102539, 4201.538574, 0.000000, 8066.000000, 8178.000000, 0.000000, 0.000000, 0.000000, -20640.000000, 942.564087, 4.000000, 4.000000, 4.000000, 4.000000, 4.000000, 4.000000, 4.000000, 4.000000, 4.000000, 4.000000, 4.000000, 4.000000, 4.000000, 4.000000, 4.000000, 4.000000
54.000000, 0.000000, 4212.307617, 4216.410156, 4184.615234, 4154.871582, 4204.102539, 4217.436035, 4211.281738, 4204.615234, 4201.025391, 3948.717773, 4230.769043, 4206.153809, 4268.205078, 4195.897461, 0.000000, 8066.000000, 8178.000000, 0.000000, 0.000000, 0.000000, -20640.000000, 950.256409, 4.000000, 4.000000, 4.000000, 4.000000, 4.000000, 4.000000, 4.000000, 4.000000, 4.000000, 4.000000, 4.000000, 4.000000, 4.000000, 4.000000, 4.000000, 4.000000
55.000000, 0.000000, 4210.769043, 4224.615234, 4205.127930, 4176.410156, 4200.512695, 4209.230469, 4209.743652, 4203.589844, 4196.922852, 3943.589600, 4225.641113, 4207.179199, 4265.127930, 4199.487305, 0.000000, 8056.000000, 8156.000000, 0.000000, 0.000000, 0.000000, -20640.000000, 957.948669, 4.000000, 4.000000, 4.000000, 4.000000, 4.000000, 4.000000, 4.000000, 4.000000, 4.000000, 4.000000, 4.000000, 4.000000, 4.000000, 4.000000, 4.000000, 4.000000
56.000000, 0.000000, 4206.666504, 4225.127930, 4214.871582, 4190.769043, 4190.256348, 4193.846191, 4198.461426, 4205.127930, 4200.000000, 3942.563965, 4222.563965, 4204.615234, 4263.076660, 4201.538574, 0.000000, 8056.000000, 8156.000000, 0.000000, 0.000000, 0.000000, -20640.000000, 966.153809, 4.000000, 4.000000, 4.000000, 4.000000, 4.000000, 4.000000, 4.000000, 4.000000, 4.000000, 4.000000, 4.000000, 4.000000, 4.000000, 4.000000, 4.000000, 4.000000
57.000000, 0.000000, 4208.205078, 4221.025391, 4206.153809, 4175.897461, 4192.307617, 4196.922852, 4195.384277, 4204.615234, 4195.897461, 3936.923096, 4209.743652, 4195.384277, 4251.794922, 4193.846191, 0.000000, 8059.000000, 8146.000000, 0.000000, 0.000000, 0.000000, -20640.000000, 973.846130, 4.000000, 4.000000, 4.000000, 4.000000, 4.000000, 4.000000, 4.000000, 4.000000, 4.000000, 4.000000, 4.000000, 4.000000, 4.000000, 4.000000, 4.000000, 4.000000
58.000000, 0.000000, 4192.307617, 4219.487305, 4191.281738, 4165.127930, 4187.692383, 4202.051270, 4202.563965, 4196.922852, 4181.538574, 3930.256348, 4196.922852, 4183.589844, 4243.076660, 4194.358887, 0.000000, 8059.000000, 8146.000000, 0.000000, 0.000000, 0.000000, -20640.000000, 982.051270, 4.000000, 4.000000, 4.000000, 4.000000, 4.000000, 4.000000, 4.000000, 4.000000, 4.000000, 4.000000, 4.000000, 4.000000, 4.000000, 4.000000, 4.000000, 4.000000
59.000000, 0.000000, 4189.743652, 4220.512695, 4190.769043, 4177.948730, 4176.922852, 4190.256348, 4196.922852, 4189.230469, 4174.358887, 3927.692139, 4194.358887, 4178.974121, 4245.127930, 4195.384277, 0.000000, 8060.000000, 8140.000000, 0.000000, 0.000000, 0.000000, -20640.000000, 989.743591, 4.000000, 4.000000, 4.000000, 4.000000, 4.000000, 4.000000, 4.000000, 4.000000, 4.000000, 4.000000, 4.000000, 4.000000, 4.000000, 4.000000, 4.000000, 4.000000
60.000000, 0.000000, 4194.871582, 4224.102539, 4201.538574, 4186.666504, 4186.153809, 4186.153809, 4193.846191, 4188.717773, 4175.897461, 3930.769043, 4206.153809, 4189.230469, 4253.333008, 4197.948730, 0.000000, 8060.000000, 8140.000000, 0.000000, 0.000000, 0.000000, -20640.000000, 997.435852, 4.000000, 4.000000, 4.000000, 4.000000, 4.000000, 4.000000, 4.000000, 4.000000, 4.000000, 4.000000, 4.000000, 4.000000, 4.000000, 4.000000, 4.000000, 4.000000
61.000000, 0.000000, 4196.410156, 4233.333008, 4206.153809, 4186.153809, 4209.743652, 4200.000000, 4198.974121, 4183.589844, 4171.281738, 3934.358887, 4214.358887, 4196.410156, 4255.897461, 4198.974121, 0.000000, 8064.000000, 8138.000000, 0.000000, 0.000000, 0.000000, -20639.000000, 5.641026, 4.000000, 4.000000, 4.000000, 4.000000, 4.000000, 4.000000, 4.000000, 4.000000, 4.000000, 4.000000, 4.000000, 4.000000, 4.000000, 4.000000, 4.000000, 4.000000
62.000000, 0.000000, 4202.563965, 4245.127930, 4209.743652, 4195.897461, 4211.794922, 4205.127930, 4198.974121, 4178.974121, 4166.153809, 3930.769043, 4204.615234, 4184.615234, 4250.769043, 4196.922852, 0.000000, 8064.000000, 8138.000000, 0.000000, 0.000000, 0.000000, -20639.000000, 13.333333, 4.000000, 4.000000, 4.000000, 4.000000, 4.000000, 4.000000, 4.000000, 4.000000, 4.000000, 4.000000, 4.000000, 4.000000, 4.000000, 4.000000, 4.000000, 4.000000
63.000000, 0.000000, 4193.333008, 4243.589844, 4214.871582, 4205.641113, 4197.948730, 4200.000000, 4206.666504, 4195.384277, 4175.897461, 3930.256348, 4194.871582, 4175.384277, 4248.205078, 4201.025391, 0.000000, 8072.000000, 8141.000000, 0.000000, 0.000000, 0.000000, -20639.000000, 21.025640, 4.000000, 4.000000, 4.000000, 4.000000, 4.000000, 4.000000, 4.000000, 4.000000, 4.000000, 4.000000, 4.000000, 4.000000, 4.000000, 4.000000, 4.000000, 4.000000
64.000000, 0.000000, 4193.846191, 4239.487305, 4212.820313, 4202.563965, 4206.153809, 4208.717773, 4220.512695, 4203.589844, 4184.615234, 3938.461426, 4201.538574, 4176.922852, 4258.461426, 4197.436035, 3358.000000, 8072.000000, 8141.000000, 0.000000, 0.000000, 0.000000, -20639.000000, 29.230768, 4.000000, 4.000000, 4.000000, 4.000000, 4.000000, 4.000000, 4.000000, 4.000000, 4.000000, 4.000000, 4.000000, 4.000000, 4.000000, 4.000000, 4.000000, 4.000000
65.000000, 0.000000, 4193.846191, 4242.563965, 4201.538574, 4196.410156, 4224.615234, 4218.974121, 4215.897461, 4189.743652, 4184.615234, 3945.640869, 4206.153809, 4177.436035, 4265.127930, 4194.871582, 3504.000000, 8080.000000, 8120.000000, 0.000000, 0.000000, 0.000000, -20639.000000, 36.923077, 4.000000, 4.000000, 4.000000, 4.000000, 4.000000, 4.000000, 4.000000, 4.000000, 4.000000, 4.000000, 4.000000, 4.000000, 4.000000, 4.000000, 4.000000, 4.000000
66.000000, 0.000000, 4185.641113, 4244.615234, 4190.769043, 4190.256348, 4212.820313, 4209.743652, 4208.205078, 4188.205078, 4187.692383, 3950.256348, 4204.102539, 4173.846191, 4258.974121, 4194.871582, 2519.000000, 8080.000000, 8120.000000, 0.000000, 0.000000, 0.000000, -20639.000000, 45.128204, 4.000000, 4.000000, 4.000000, 4.000000, 4.000000, 4.000000, 4.000000, 4.000000, 4.000000, 4.000000, 4.000000, 4.000000, 4.000000, 4.000000, 4.000000, 4.000000
67.000000, 0.000000, 4193.333008, 4247.179199, 4186.153809, 4187.179199, 4191.281738, 4199.487305, 4210.256348, 4201.538574, 4193.333008, 3955.384521, 4212.307617, 4177.436035, 4265.127930, 4195.897461, 2196.000000, 8086.000000, 8109.000000, 0.000000, 0.000000, 0.000000, -20639.000000, 52.820511, 4.000000, 4.000000, 4.000000, 4.000000, 4.000000, 4.000000, 4.000000, 4.000000, 4.000000, 4.000000, 4.000000, 4.000000, 4.000000, 4.000000, 4.000000, 4.000000
68.000000, 0.000000, 4194.358887, 4252.820313, 4190.769043, 4192.307617, 4202.563965, 4203.076660, 4208.205078, 4204.615234, 4201.538574, 3965.640869, 4221.025391, 4194.358887, 4281.025391, 4205.127930, 3532.000000, 8086.000000, 8109.000000, 0.000000, 0.000000, 0.000000, -20639.000000, 61.025639, 4.000000, 4.000000, 4.000000, 4.000000, 4.000000, 4.000000, 4.000000, 4.000000, 4.000000, 4.000000, 4.000000, 4.000000, 4.000000, 4.000000, 4.000000, 4.000000
69.000000, 0.000000, 4201.538574, 4261.025391, 4203.076660, 4197.948730, 4222.051270, 4206.153809, 4202.563965, 4195.384277, 4206.153809, 3981.538330, 4218.974121, 4201.025391, 4283.589844, 4201.025391, 3541.000000, 8086.000000, 8107.000000, 0.000000, 0.000000, 0.000000, -20639.000000, 68.717949, 4.000000, 4.000000, 4.000000, 4.000000, 4.000000, 4.000000, 4.000000, 4.000000, 4.000000, 4.000000, 4.000000, 4.000000, 4.000000, 4.000000, 4.000000, 4.000000
70.000000, 0.000000, 4204.615234, 4257.948730, 4202.051270, 4192.820313, 4209.743652, 4197.948730, 4203.076660, 4192.820313, 4202.051270, 3985.640869, 4217.436035, 4192.307617, 4278.974121, 4196.410156, 3128.000000, 8086.000000, 8107.000000, 0.000000, 0.000000, 0.000000, -20639.000000, 76.410255, 4.000000, 4.000000, 4.000000, 4.000000, 4.000000, 4.000000, 4.000000, 4.000000, 4.000000, 4.000000, 4.000000, 4.000000, 4.000000, 4.000000, 4.000000, 4.000000
71.000000, 0.000000, 4195.897461, 4250.769043, 4196.922852, 4193.846191, 4191.281738, 4192.307617, 4204.102539, 4200.000000, 4205.127930, 3982.051270, 4227.692383, 4190.256348, 4288.717773, 4202.051270, 3511.000000, 8096.000000, 8110.000000, 0.000000, 0.000000, 0.000000, -20639.000000, 84.102562, 4.000000, 4.000000, 4.000000, 4.000000, 4.000000, 4.000000, 4.000000, 4.000000, 4.000000, 4.000000, 4.000000, 4.000000, 4.000000, 4.000000, 4.000000, 4.000000
72.000000, 0.000000, 4198.974121, 4256.922852, 4205.127930, 4205.641113, 4194.358887, 4194.871582, 4198.974121, 4202.051270, 4213.846191, 3986.666504, 4235.384277, 4200.000000, 4297.436035, 4201.538574, 3517.000000, 8096.000000, 8110.000000, 0.000000, 0.000000, 0.000000, -20639.000000, 92.307693, 4.000000, 4.000000, 4.000000, 4.000000, 4.000000, 4.000000, 4.000000, 4.000000, 4.000000, 4.000000, 4.000000, 4.000000, 4.000000, 4.000000, 4.000000, 4.000000
73.000000, 0.000000, 4197.948730, 4266.666504, 4204.102539, 4199.487305, 4204.102539, 4200.512695, 4203.076660, 4206.666504, 4215.897461, 3995.384521, 4230.769043, 4210.256348, 4292.307617, 4202.051270, 3566.000000, 8101.000000, 8101.000000, 0.000000, 0.000000, 0.000000, -20639.000000, 100.000000, 4.000000, 4.000000, 4.000000, 4.000000, 4.000000, 4.000000, 4.000000, 4.000000, 4.000000, 4.000000, 4.000000, 4.000000, 4.000000, 4.000000, 4.000000, 4.000000
74.000000, 0.000000, 4202.563965, 4271.794922, 4200.512695, 4192.820313, 4206.153809, 4203.589844, 4210.256348, 4218.974121, 4221.025391, 4001.538330, 4231.281738, 4215.384277, 4289.230469, 4201.538574, 3542.000000, 8101.000000, 8101.000000, 0.000000, 0.000000, 0.000000, -20639.000000, 107.692307, 4.000000, 4.000000, 4.000000, 4.000000, 4.000000, 4.000000, 4.000000, 4.000000, 4.000000, 4.000000, 4.000000, 4.000000, 4.000000, 4.000000, 4.000000, 4.000000
75.000000, 0.000000, 4202.563965, 4271.281738, 4211.794922, 4216.410156, 4200.512695, 4203.076660, 4206.666504, 4215.384277, 4218.461426, 3997.435791, 4239.487305, 4213.846191, 4287.692383, 4202.051270, 430.000000, 8107.000000, 8096.000000, 0.000000, 0.000000, 0.000000, -20639.000000, 115.897430, 4.000000, 4.000000, 4.000000, 4.000000, 4.000000, 4.000000, 4.000000, 4.000000, 4.000000, 4.000000, 4.000000, 4.000000, 4.000000, 4.000000, 4.000000, 4.000000
76.000000, 0.000000, 4188.205078, 4264.102539, 4212.307617, 4215.384277, 4195.897461, 4198.461426, 4197.948730, 4196.410156, 4197.948730, 3987.179443, 4231.281738, 4201.025391, 4281.538574, 4201.538574, 3486.000000, 8107.000000, 8096.000000, 0.000000, 0.000000, 0.000000, -20639.000000, 123.589737, 4.000000, 4.000000, 4.000000, 4.000000, 4.000000, 4.000000, 4.000000, 4.000000, 4.000000, 4.000000, 4.000000, 4.000000, 4.000000, 4.000000, 4.000000, 4.000000
77.000000, 0.000000, 4189.743652, 4261.025391, 4202.563965, 4177.436035, 4205.127930, 4196.922852, 4197.948730, 4200.000000, 4195.384277, 3995.384521, 4213.846191, 4195.897461, 4284.615234, 4196.922852, 3397.000000, 8109.000000, 8100.000000, 0.000000, 0.000000, 0.000000, -20639.000000, 131.794876, 4.000000, 4.000000, 4.000000, 4.000000, 4.000000, 4.000000, 4.000000, 4.000000, 4.000000, 4.000000, 4.000000, 4.000000, 4.000000, 4.000000, 4.000000, 4.000000
78.000000, 0.000000, 4192.820313, 4271.794922, 4205.641113, 4177.436035, 4208.205078, 4201.538574, 4206.666504, 4209.743652, 4205.641113, 4003.076904, 4218.974121, 4209.743652, 4309.230469, 4206.153809, 3542.000000, 8109.000000, 8100.000000, 0.000000, 0.000000, 0.000000, -20639.000000, 139.487183, 4.000000, 4.000000, 4.000000, 4.000000, 4.000000, 4.000000, 4.000000, 4.000000, 4.000000, 4.000000, 4.000000, 4.000000, 4.000000, 4.000000, 4.000000, 4.000000
79.000000, 0.000000, 4199.487305, 4290.256348, 4209.230469, 4206.666504, 4190.256348, 4197.436035, 4201.025391, 4193.846191, 4195.384277, 3988.717773, 4231.281738, 4216.410156, 4334.871582, 4207.179199, 430.000000, 8109.000000, 8085.000000, 0.000000, 0.000000, 0.000000, -20639.000000, 147.179489, 4.000000, 4.000000, 4.000000, 4.000000, 4.000000, 4.000000, 4.000000, 4.000000, 4.000000, 4.000000, 4.000000, 4.000000, 4.000000, 4.000000, 4.000000, 4.000000
80.000000, 0.000000, 4201.538574, 4298.974121, 4206.666504, 4205.127930, 4184.615234, 4189.743652, 4193.333008, 4186.153809, 4189.743652, 3995.897217, 4224.615234, 4207.179199, 4339.487305, 4202.563965, 3486.000000, 8109.000000, 8085.000000, 0.000000, 0.000000, 0.000000, -20639.000000, 155.384613, 4.000000, 4.000000, 4.000000, 4.000000, 4.000000, 4.000000, 4.000000, 4.000000, 4.000000, 4.000000, 4.000000, 4.000000, 4.000000, 4.000000, 4.000000, 4.000000
81.000000, 0.000000, 4189.743652, 4297.948730, 4205.641113, 4192.820313, 4207.692383, 4200.000000, 4207.179199, 4197.436035, 4198.974121, 4014.871582, 4213.846191, 4201.538574, 4329.743652, 4208.205078, 3397.000000, 8112.000000, 8085.000000, 0.000000, 0.000000, 0.000000, -20639.000000, 163.076920, 4.000000, 4.000000, 4.000000, 4.000000, 4.000000, 4.000000, 4.000000, 4.000000, 4.000000, 4.000000, 4.000000, 4.000000, 4.000000, 4.000000, 4.000000, 4.000000
82.000000, 0.000000, 4197.436035, 4311.281738, 4209.230469, 4199.487305, 4223.076660, 4213.333008, 4215.897461, 4203.589844, 4200.512695, 4007.179443, 4216.922852, 4202.563965, 4327.692383, 4207.692383, 3542.000000, 8112.000000, 8085.000000, 0.000000, 0.000000, 0.000000, -20639.000000, 170.769226, 4.000000, 4.000000, 4.000000, 4.000000, 4.000000, 4.000000, 4.000000, 4.000000, 4.000000, 4.000000, 4.000000, 4.000000, 4.000000, 4.000000, 4.000000, 4.000000
83.000000, 0.000000, 4201.025391, 4333.333008, 4210.256348, 4213.333008, 4219.487305, 4206.153809, 4201.538574, 4199.487305, 4197.948730, 4001.538330, 4218.461426, 4198.974121, 4336.922852, 4207.692383, 430.000000, 8112.000000, 8080.000000, 0.000000, 0.000000, 0.000000, -20639.000000, 178.974350, 4.000000, 4.000000, 4.000000, 4.000000, 4.000000, 4.000000, 4.000000, 4.000000, 4.000000, 4.000000, 4.000000, 4.000000, 4.000000, 4.000000, 4.000000, 4.000000
84.000000, 0.000000, 4197.948730, 4342.051270, 4206.666504, 4211.794922, 4220.000000, 4196.922852, 4192.820313, 4199.487305, 4203.076660, 4013.845947, 4213.333008, 4194.871582, 4341.538574, 4206.153809, 3486.000000, 8112.000000, 8080.000000, 0.000000, 0.000000, 0.000000, -20639.000000, 186.666656, 4.000000, 4.000000, 4.000000, 4.000000, 4.000000, 4.000000, 4.000000, 4.000000, 4.000000, 4.000000, 4.000000, 4.000000, 4.000000, 4.000000, 4.000000, 4.000000
85.000000, 0.000000, 4197.948730, 4339.487305, 4198.461426, 4194.358887, 4223.076660, 4203.589844, 4204.615234, 4203.076660, 4203.589844, 4017.948730, 4214.358887, 4193.846191, 4343.076660, 4203.076660, 3397.000000, 8106.000000, 8075.000000, 0.000000, 0.000000, 0.000000, -20639.000000, 194.871796, 4.000000, 4.000000, 4.000000, 4.000000, 4.000000, 4.000000, 4.000000, 4.000000, 4.000000, 4.000000, 4.000000, 4.000000, 4.000000, 4.000000, 4.000000, 4.000000
86.000000, 0.000000, 4192.820313, 4341.025391, 4192.307617, 4187.692383, 4217.948730, 4205.641113, 4209.230469, 4204.102539, 4198.974121, 4012.820313, 4215.897461, 4195.384277, 4345.641113, 4208.205078, 3542.000000, 8106.000000, 8075.000000, 0.000000, 0.000000, 0.000000, -20639.000000, 202.564102, 4.000000, 4.000000, 4.000000, 4.000000, 4.000000, 4.000000, 4.000000, 4.000000, 4.000000, 4.000000, 4.000000, 4.000000, 4.000000, 4.000000, 4.000000, 4.000000
87.000000, 0.000000, 4206.153809, 4359.487305, 4205.127930, 4207.692383, 4214.871582, 4197.436035, 4208.205078, 4218.461426, 4209.743652, 4024.615234, 4215.384277, 4201.025391, 4343.589844, 4206.666504, 430.000000, 8102.000000, 8072.000000, 0.000000, 0.000000, 0.000000, -20639.000000, 210.256409, 4.000000, 4.000000, 4.000000, 4.000000, 4.000000, 4.000000, 4.000000, 4.000000, 4.000000, 4.000000, 4.000000, 4.000000, 4.000000, 4.000000, 4.000000, 4.000000
88.000000, 0.000000, 4206.666504, 4362.563965, 4215.384277, 4211.794922, 4215.897461, 4204.102539, 4221.538574, 4233.846191, 4221.538574, 4032.820313, 4214.871582, 4206.153809, 4330.769043, 4207.692383, 3486.000000, 8102.000000, 8072.000000, 0.000000, 0.000000, 0.000000, -20639.000000, 218.461533, 4.000000, 4.000000, 4.000000, 4.000000, 4.000000, 4.000000, 4.000000, 4.000000, 4.000000, 4.000000, 4.000000, 4.000000, 4.000000, 4.000000, 4.000000, 4.000000
89.000000, 0.000000, 4200.512695, 4347.692383, 4212.820313, 4194.871582, 4218.974121, 4215.897461, 4221.025391, 4225.641113, 4216.410156, 4024.615234, 4216.922852, 4210.256348, 4327.179199, 4208.205078, 3397.000000, 8102.000000, 8050.000000, 0.000000, 0.000000, 0.000000, -20639.000000, 226.666656, 4.000000, 4.000000, 4.000000, 4.000000, 4.000000, 4.000000, 4.000000, 4.000000, 4.000000, 4.000000, 4.000000, 4.000000, 4.000000, 4.000000, 4.000000, 4.000000
90.000000, 0.000000, 4209.743652, 4349.743652, 4212.307617, 4192.820313, 4221.538574, 4208.205078, 4199.487305, 4213.333008, 4211.794922, 4021.025635, 4214.358887, 4212.820313, 4330.769043, 4206.666504, 3542.000000, 8102.000000, 8050.000000, 0.000000, 0.000000, 0.000000, -20639.000000, 234.358963, 4.000000, 4.000000, 4.000000, 4.000000, 4.000000, 4.000000, 4.000000, 4.000000, 4.000000, 4.000000, 4.000000, 4.000000, 4.000000, 4.000000, 4.000000, 4.000000
91.000000, 0.000000, 4200.000000, 4353.333008, 4210.256348, 4194.358887, 4222.051270, 4201.538574, 4201.025391, 4219.487305, 4218.461426, 4030.256348, 4204.102539, 4207.692383, 4311.281738, 4209.230469, 430.000000, 8102.000000, 8044.000000, 0.000000, 0.000000, 0.000000, -20639.000000, 242.051270, 4.000000, 4.000000, 4.000000, 4.000000, 4.000000, 4.000000, 4.000000, 4.000000, 4.000000, 4.000000, 4.000000, 4.000000, 4.000000, 4.000000, 4.000000, 4.000000
92.000000, 0.000000, 4192.307617, 4347.179199, 4206.666504, 4192.820313, 4215.897461, 4205.641113, 4213.846191, 4216.922852, 4208.205078, 4028.717773, 4194.871582, 4196.922852, 4290.769043, 4205.641113, 3486.000000, 8102.000000, 8044.000000, 0.000000, 0.000000, 0.000000, -20639.000000, 250.256409, 4.000000, 4.000000, 4.000000, 4.000000, 4.000000, 4.000000, 4.000000, 4.000000, 4.000000, 4.000000, 4.000000, 4.000000, 4.000000, 4.000000, 4.000000, 4.000000
93.000000, 0.000000, 4198.974121, 4355.384277, 4206.153809, 4205.641113, 4208.717773, 4203.589844, 4202.563965, 4195.384277, 4185.127930, 4012.307617, 4196.922852, 4190.769043, 4301.538574, 4210.769043, 3397.000000, 8099.000000, 8047.000000, 0.000000, 0.000000, 0.000000, -20639.000000, 257.948700, 4.000000, 4.000000, 4.000000, 4.000000, 4.000000, 4.000000, 4.000000, 4.000000, 4.000000, 4.000000, 4.000000, 4.000000, 4.000000, 4.000000, 4.000000, 4.000000
94.000000, 0.000000, 4214.358887, 4373.846191, 4212.820313, 4217.436035, 4217.436035, 4205.641113, 4199.487305, 4196.922852, 4189.743652, 4011.794678, 4205.127930, 4191.281738, 4322.051270, 4214.358887, 3542.000000, 8099.000000, 8047.000000, 0.000000, 0.000000, 0.000000, -20639.000000, 265.641022, 4.000000, 4.000000, 4.000000, 4.000000, 4.000000, 4.000000, 4.000000, 4.000000, 4.000000, 4.000000, 4.000000, 4.000000, 4.000000, 4.000000, 4.000000, 4.000000
95.000000, 0.000000, 4227.179199, 4375.897461, 4220.000000, 4210.769043, 4226.153809, 4214.358887, 4218.974121, 4205.127930, 4199.487305, 4027.692139, 4212.820313, 4198.461426, 4332.307617, 4211.281738, 430.000000, 8100.000000, 8040.000000, 0.000000, 0.000000, 0.000000, -20639.000000, 273.846161, 4.000000, 4.000000, 4.000000, 4.000000, 4.000000, 4.000000, 4.000000, 4.000000, 4.000000, 4.000000, 4.000000, 4.000000, 4.000000, 4.000000, 4.000000, 4.000000
96.000000, 0.000000, 4224.102539, 4373.333008, 4220.512695, 4209.230469, 4220.512695, 4206.666504, 4212.307617, 4190.769043, 4186.153809, 4035.897217, 4223.076660, 4207.692383, 4343.589844, 4217.436035, 3486.000000, 8100.000000, 8040.000000, 0.000000, 0.000000, 0.000000, -20639.000000, 281.538452, 4.000000, 4.000000, 4.000000, 4.000000, 4.000000, 4.000000, 4.000000, 4.000000, 4.000000, 4.000000, 4.000000, 4.000000, 4.000000, 4.000000, 4.000000, 4.000000
97.000000, 0.000000, 4233.846191, 4378.461426, 4220.512695, 4216.922852, 4214.358887, 4196.922852, 4192.307617, 4184.615234, 4181.538574, 4030.256348, 4228.717773, 4209.743652, 4352.307617, 4215.384277, 3397.000000, 8095.000000, 8045.000000, 0.000000, 0.000000, 0.000000, -20639.000000, 289.743591, 4.000000, 4.000000, 4.000000, 4.000000, 4.000000, 4.000000, 4.000000, 4.000000, 4.000000, 4.000000, 4.000000, 4.000000, 4.000000, 4.000000, 4.000000, 4.000000
98.000000, 0.000000, 4238.461426, 4370.769043, 4222.051270, 4208.205078, 4216.922852, 4205.127930, 4203.589844, 4203.589844, 4198.461426, 4037.948730, 4236.410156, 4213.846191, 4361.538574, 4216.922852, 3542.000000, 8095.000000, 8045.000000, 0.000000, 0.000000, 0.000000, -20639.000000, 297.435883, 4.000000, 4.000000, 4.000000, 4.000000, 4.000000, 4.000000, 4.000000, 4.000000, 4.000000, 4.000000, 4.000000, 4.000000, 4.000000, 4.000000, 4.000000, 4.000000
99.000000, 0.000000, 4238.461426, 4360.512695, 4223.076660, 4201.025391, 4219.487305, 4207.692383, 4211.281738, 4212.820313, 4205.641113, 4061.025635, 4249.230469, 4224.615234, 4376.410156, 4226.153809, 430.000000, 8098.000000, 8067.000000, 0.000000, 0.000000, 0.000000, -20639.000000, 305.128204, 4.000000, 4.000000, 4.000000, 4.000000, 4.000000, 4.000000, 4.000000, 4.000000, 4.000000, 4.000000, 4.000000, 4.000000, 4.000000, 4.000000, 4.000000, 4.000000
100.000000, 0.000000, 4252.820313, 4361.538574, 4223.076660, 4203.076660, 4215.384277, 4202.051270, 4202.563965, 4201.538574, 4200.512695, 4071.794678, 4253.333008, 4227.692383, 4382.051270, 4228.205078, 3486.000000, 8098.000000, 8067.000000, 0.000000, 0.000000, 0.000000, -20639.000000, 313.333313, 4.000000, 4.000000, 4.000000, 4.000000, 4.000000, 4.000000, 4.000000, 4.000000, 4.000000, 4.000000, 4.000000, 4.000000, 4.000000, 4.000000, 4.000000, 4.000000
101.000000, 0.000000, 4253.333008, 4357.948730, 4222.563965, 4204.102539, 4204.615234, 4195.897461, 4201.025391, 4194.358887, 4197.436035, 4062.563965, 4247.692383, 4221.538574, 4380.000000, 4233.333008, 3397.000000, 8102.000000, 8065.000000, 0.000000, 0.000000, 0.000000, -20639.000000, 321.025635, 4.000000, 4.000000, 4.000000, 4.000000, 4.000000, 4.000000, 4.000000, 4.000000, 4.000000, 4.000000, 4.000000, 4.000000, 4.000000, 4.000000, 4.000000, 4.000000
102.000000, 0.000000, 4255.384277, 4350.769043, 4222.051270, 4205.127930, 4196.410156, 4189.743652, 4200.512695, 4198.461426, 4196.410156, 4057.948730, 4246.153809, 4215.897461, 4381.538574, 4233.846191, 3542.000000, 8102.000000, 8065.000000, 0.000000, 0.000000, 0.000000, -20639.000000, 329.230774, 4.000000, 4.000000, 4.000000, 4.000000, 4.000000, 4.000000, 4.000000, 4.000000, 4.000000, 4.000000, 4.000000, 4.000000, 4.000000, 4.000000, 4.000000, 4.000000
103.000000, 0.000000, 4260.512695, 4348.717773, 4215.897461, 4202.563965, 4200.512695, 4193.333008, 4201.538574, 4202.051270, 4197.436035, 4068.205078, 4251.281738, 4218.461426, 4378.461426, 4235.897461, 430.000000, 8102.000000, 8058.000000, 0.000000, 0.000000, 0.000000, -20639.000000, 336.923065, 4.000000, 4.000000, 4.000000, 4.000000, 4.000000, 4.000000, 4.000000, 4.000000, 4.000000, 4.000000, 4.000000, 4.000000, 4.000000, 4.000000, 4.000000, 4.000000
104.000000, 0.000000, 4255.897461, 4349.230469, 4212.307617, 4200.000000, 4202.563965, 4199.487305, 4201.538574, 4188.717773, 4194.358887, 4070.769043, 4246.666504, 4222.051270, 4366.153809, 4237.436035, 3486.000000, 8102.000000, 8058.000000, 0.000000, 0.000000, 0.000000, -20639.000000, 344.615387, 4.000000, 4.000000, 4.000000, 4.000000, 4.000000, 4.000000, 4.000000, 4.000000, 4.000000, 4.000000, 4.000000, 4.000000, 4.000000, 4.000000, 4.000000, 4.000000
105.000000, 0.000000, 4256.410156, 4349.743652, 4219.487305, 4205.641113, 4202.563965, 4198.974121, 4189.743652, 4177.948730, 4195.897461, 4077.948730, 4246.153809, 4224.102539, 4367.179199, 4223.589844, 3397.000000, 8101.000000, 8071.000000, 0.000000, 0.000000, 0.000000, -20639.000000, 352.820496, 4.000000, 4.000000, 4.000000, 4.000000, 4.000000, 4.000000, 4.000000, 4.000000, 4.000000, 4.000000, 4.000000, 4.000000, 4.000000, 4.000000, 4.000000, 4.000000
106.000000, 0.000000, 4247.692383, 4345.127930, 4222.563965, 4210.256348, 4204.615234, 4196.922852, 4183.589844, 4193.846191, 4208.205078, 4098.974121, 4260.512695, 4228.717773, 4378.974121, 4214.358887, 3542.000000, 8101.000000, 8071.000000, 0.000000, 0.000000, 0.000000, -20639.000000, 360.512817, 4.000000, 4.000000, 4.000000, 4.000000, 4.000000, 4.000000, 4.000000, 4.000000, 4.000000, 4.000000, 4.000000, 4.000000, 4.000000, 4.000000, 4.000000, 4.000000
107.000000, 0.000000, 4240.512695, 4335.384277, 4212.307617, 4204.615234, 4198.974121, 4192.820313, 4189.230469, 4202.563965, 4203.589844, 4095.897217, 4259.487305, 4220.000000, 4366.153809, 4203.076660, 430.000000, 8103.000000, 8078.000000, 0.000000, 0.000000, 0.000000, -20639.000000, 368.205109, 4.000000, 4.000000, 4.000000, 4.000000, 4.000000, 4.000000, 4.000000, 4.000000, 4.000000, 4.000000, 4.000000, 4.000000, 4.000000, 4.000000, 4.000000, 4.000000
108.000000, 0.000000, 4238.461426, 4331.281738, 4209.230469, 4202.051270, 4194.871582, 4184.615234, 4187.179199, 4191.281738, 4190.769043, 4081.538330, 4245.641113, 4207.179199, 4348.717773, 4194.871582, 3486.000000, 8103.000000, 8078.000000, 0.000000, 0.000000, 0.000000, -20639.000000, 376.410248, 4.000000, 4.000000, 4.000000, 4.000000, 4.000000, 4.000000, 4.000000, 4.000000, 4.000000, 4.000000, 4.000000, 4.000000, 4.000000, 4.000000, 4.000000, 4.000000
109.000000, 0.000000, 4234.358887, 4331.281738, 4215.897461, 4204.615234, 4200.512695, 4186.153809, 4183.589844, 4194.358887, 4197.436035, 4096.922852, 4246.666504, 4211.281738, 4355.384277, 4198.461426, 3397.000000, 8109.000000, 8088.000000, 0.000000, 0.000000, 0.000000, -20639.000000, 384.102570, 4.000000, 4.000000, 4.000000, 4.000000, 4.000000, 4.000000, 4.000000, 4.000000, 4.000000, 4.000000, 4.000000, 4.000000, 4.000000, 4.000000, 4.000000, 4.000000
110.000000, 0.000000, 4238.461426, 4327.692383, 4213.333008, 4204.615234, 4200.000000, 4196.410156, 4197.948730, 4205.641113, 4202.563965, 4107.692383, 4248.717773, 4214.871582, 4357.435547, 4197.436035, 3542.000000, 8109.000000, 8088.000000, 0.000000, 0.000000, 0.000000, -20639.000000, 392.307678, 4.000000, 4.000000, 4.000000, 4.000000, 4.000000, 4.000000, 4.000000, 4.000000, 4.000000, 4.000000, 4.000000, 4.000000, 4.000000, 4.000000, 4.000000, 4.000000
111.000000, 0.000000, 4231.794922, 4321.025391, 4208.717773, 4204.615234, 4200.000000, 4201.538574, 4208.205078, 4202.563965, 4196.410156, 4089.743408, 4243.076660, 4214.358887, 4346.153809, 4200.512695, 430.000000, 8108.000000, 8106.000000, 0.000000, 0.000000, 0.000000, -20639.000000, 400.000000, 4.000000, 4.000000, 4.000000, 4.000000, 4.000000, 4.000000, 4.000000, 4.000000, 4.000000, 4.000000, 4.000000, 4.000000, 4.000000, 4.000000, 4.000000, 4.000000
112.000000, 0.000000, 4233.846191, 4318.974121, 4217.436035, 4207.692383, 4205.127930, 4202.563965, 4202.563965, 4206.666504, 4200.000000, 4088.205078, 4245.641113, 4220.512695, 4346.153809, 4202.051270, 3486.000000, 8108.000000, 8106.000000, 0.000000, 0.000000, 0.000000, -20639.000000, 408.205109, 4.000000, 4.000000, 4.000000, 4.000000, 4.000000, 4.000000, 4.000000, 4.000000, 4.000000, 4.000000, 4.000000, 4.000000, 4.000000, 4.000000, 4.000000, 4.000000
113.000000, 0.000000, 4234.358887, 4313.333008, 4217.948730, 4202.051270, 4194.358887, 4195.897461, 4197.436035, 4213.846191, 4200.000000, 4091.281982, 4242.051270, 4217.948730, 4344.615234, 4200.000000, 3397.000000, 8105.000000, 8119.000000, 0.000000, 0.000000, 0.000000, -20639.000000, 415.897430, 4.000000, 4.000000, 4.000000, 4.000000, 4.000000, 4.000000, 4.000000, 4.000000, 4.000000, 4.000000, 4.000000, 4.000000, 4.000000, 4.000000, 4.000000, 4.000000
114.000000, 0.000000, 4214.871582, 4296.922852, 4200.000000, 4186.666504, 4181.538574, 4185.641113, 4199.487305, 4194.871582, 4183.076660, 4072.820313, 4220.512695, 4202.563965, 4322.563965, 4202.563965, 3542.000000, 8105.000000, 8119.000000, 0.000000, 0.000000, 0.000000, -20639.000000, 423.589722, 4.000000, 4.000000, 4.000000, 4.000000, 4.000000, 4.000000, 4.000000, 4.000000, 4.000000, 4.000000, 4.000000, 4.000000, 4.000000, 4.000000, 4.000000, 4.000000
115.000000, 0.000000, 4216.922852, 4294.358887, 4196.922852, 4187.179199, 4192.820313, 4188.717773, 4201.025391, 4183.076660, 4181.025391, 4071.794678, 4212.820313, 4194.358887, 4312.307617, 4201.025391, 430.000000, 8103.000000, 8120.000000, 0.000000, 0.000000, 0.000000, -20639.000000, 431.794861, 4.000000, 4.000000, 4.000000, 4.000000, 4.000000, 4.000000, 4.000000, 4.000000, 4.000000, 4.000000, 4.000000, 4.000000, 4.000000, 4.000000, 4.000000, 4.000000
116.000000, 0.000000, 4218.974121, 4304.615234, 4202.051270, 4204.102539, 4200.000000, 4197.436035, 4204.102539, 4203.589844, 4190.769043, 4091.794678, 4227.692383, 4196.410156, 4327.179199, 4205.127930, 3486.000000, 8103.000000, 8120.000000, 0.000000, 0.000000, 0.000000, -20639.000000, 439.487183, 4.000000, 4.000000, 4.000000, 4.000000, 4.000000, 4.000000, 4.000000, 4.000000, 4.000000, 4.000000, 4.000000, 4.000000, 4.000000, 4.000000, 4.000000, 4.000000
117.000000, 0.000000, 4210.769043, 4297.948730, 4194.358887, 4203.076660, 4187.692383, 4198.461426, 4205.641113, 4209.743652, 4186.153809, 4091.794678, 4227.692383, 4191.281738, 4326.153809, 4204.102539, 3397.000000, 8106.000000, 8135.000000, 0.000000, 0.000000, 0.000000, -20639.000000, 447.692291, 4.000000, 4.000000, 4.000000, 4.000000, 4.000000, 4.000000, 4.000000, 4.000000, 4.000000, 4.000000, 4.000000, 4.000000, 4.000000, 4.000000, 4.000000, 4.000000
118.000000, 0.000000, 4210.769043, 4282.051270, 4189.743652, 4187.179199, 4189.230469, 4191.794922, 4200.512695, 4188.717773, 4182.563965, 4089.230713, 4218.461426, 4187.692383, 4312.307617, 4203.076660, 3542.000000, 8106.000000, 8135.000000, 0.000000, 0.000000, 0.000000, -20639.000000, 455.384613, 4.000000, 4.000000, 4.000000, 4.000000, 4.000000, 4.000000, 4.000000, 4.000000, 4.000000, 4.000000, 4.000000, 4.000000, 4.000000, 4.000000, 4.000000, 4.000000
119.000000, 0.000000, 4213.846191, 4280.512695, 4195.384277, 4189.743652, 4198.461426, 4189.743652, 4200.512695, 4179.487305, 4189.230469, 4101.025391, 4221.538574, 4189.743652, 4314.358887, 4207.692383, 430.000000, 8100.000000, 8171.000000, 0.000000, 0.000000, 0.000000, -20639.000000, 463.076904, 4.000000, 4.000000, 4.000000, 4.000000, 4.000000, 4.000000, 4.000000, 4.000000, 4.000000, 4.000000, 4.000000, 4.000000, 4.000000, 4.000000, 4.000000, 4.000000
120.000000, 0.000000, 4220.000000, 4286.153809, 4200.000000, 4200.512695, 4192.820313, 4193.333008, 4198.461426, 4183.589844, 4184.615234, 4098.461426, 4219.487305, 4186.153809, 4314.358887, 4202.051270, 3486.000000, 8100.000000, 8171.000000, 0.000000, 0.000000, 0.000000, -20639.000000, 471.282043, 4.000000, 4.000000, 4.000000, 4.000000, 4.000000, 4.000000, 4.000000, 4.000000, 4.000000, 4.000000, 4.000000, 4.000000, 4.000000, 4.000000, 4.000000, 4.000000
121.000000, 0.000000, 4210.256348, 4278.461426, 4200.000000, 4198.461426, 4189.743652, 4192.307617, 4187.692383, 4185.641113, 4182.563965, 4094.871582, 4213.333008, 4183.589844, 4305.641113, 4206.153809, 3397.000000, 8099.000000, 8180.000000, 0.000000, 0.000000, 0.000000, -20639.000000, 478.974335, 4.000000, 4.000000, 4.000000, 4.000000, 4.000000, 4.000000, 4.000000, 4.000000, 4.000000, 4.000000, 4.000000, 4.000000, 4.000000, 4.000000, 4.000000, 4.000000
122.000000, 0.000000, 4211.281738, 4280.512695, 4204.102539, 4203.589844, 4198.461426, 4187.692383, 4186.666504, 4184.615234, 4190.256348, 4102.563965, 4220.512695, 4189.230469, 4309.743652, 4209.743652, 3542.000000, 8099.000000, 8180.000000, 0.000000, 0.000000, 0.000000, -20639.000000, 486.666656, 4.000000, 4.000000, 4.000000, 4.000000, 4.000000, 4.000000, 4.000000, 4.000000, 4.000000, 4.000000, 4.000000, 4.000000, 4.000000, 4.000000, 4.000000, 4.000000
123.000000, 0.000000, 4222.563965, 4288.717773, 4211.281738, 4215.384277, 4201.025391, 4192.307617, 4197.948730, 4188.717773, 4190.256348, 4106.666504, 4229.743652, 4196.922852, 4316.922852, 4202.051270, 430.000000, 8102.000000, 8202.000000, 0.000000, 0.000000, 0.000000, -20639.000000, 494.358948, 4.000000, 4.000000, 4.000000, 4.000000, 4.000000, 4.000000, 4.000000, 4.000000, 4.000000, 4.000000, 4.000000, 4.000000, 4.000000, 4.000000, 4.000000, 4.000000
124.000000, 0.000000, 4214.358887, 4279.487305, 4216.922852, 4215.897461, 4198.974121, 4200.512695, 4204.102539, 4202.051270, 4194.871582, 4121.538574, 4232.307617, 4206.666504, 4318.974121, 4201.538574, 3486.000000, 8102.000000, 8202.000000, 0.000000, 0.000000, 0.000000, -20639.000000, 502.564087, 4.000000, 4.000000, 4.000000, 4.000000, 4.000000, 4.000000, 4.000000, 4.000000, 4.000000, 4.000000, 4.000000, 4.000000, 4.000000, 4.000000, 4.000000, 4.000000
125.000000, 0.000000, 4223.589844, 4280.512695, 4223.589844, 4216.410156, 4202.051270, 4197.948730, 4198.461426, 4201.025391, 4197.948730, 4134.871582, 4237.948730, 4212.820313, 4325.641113, 4202.563965, 3397.000000, 8106.000000, 8200.000000, 0.000000, 0.000000, 0.000000, -20639.000000, 510.769226, 4.000000, 4.000000, 4.000000, 4.000000, 4.000000, 4.000000, 4.000000, 4.000000, 4.000000, 4.000000, 4.000000, 4.000000, 4.000000, 4.000000, 4.000000, 4.000000
126.000000, 0.000000, 4226.666504, 4287.692383, 4223.076660, 4221.025391, 4201.538574, 4195.897461, 4190.256348, 4188.205078, 4188.717773, 4122.563965, 4237.436035, 4208.205078, 4321.025391, 4207.179199, 3542.000000, 8106.000000, 8200.000000, 0.000000, 0.000000, 0.000000, -20639.000000, 518.461548, 4.000000, 4.000000, 4.000000, 4.000000, 4.000000, 4.000000, 4.000000, 4.000000, 4.000000, 4.000000, 4.000000, 4.000000, 4.000000, 4.000000, 4.000000, 4.000000
127.000000, 0.000000, 4213.846191, 4275.897461, 4214.358887, 4217.436035, 4198.974121, 4198.974121, 4188.717773, 4185.127930, 4190.256348, 4119.487305, 4227.692383, 4200.000000, 4306.153809, 4202.051270, 54.000000, 8105.000000, 8205.000000, 0.000000, 0.000000, 0.000000, -20639.000000, 526.153809, 4.000000, 4.000000, 4.000000, 4.000000, 4.000000, 4.000000, 4.000000, 4.000000, 4.000000, 4.000000, 4.000000, 4.000000, 4.000000, 4.000000, 4.000000, 4.000000
0.000000, 0.000000, 4216.410156, 4267.692383, 4212.820313, 4210.769043, 4199.487305, 4198.461426, 4195.384277, 4189.230469, 4199.487305, 4136.410156, 4226.666504, 4201.025391, 4308.205078, 4196.922852, 3362.000000, 8105.000000, 8205.000000, 0.000000, 0.000000, 0.000000, -20639.000000, 533.846130, 4.000000, 4.000000, 4.000000, 4.000000, 4.000000, 4.000000, 4.000000, 4.000000, 4.000000, 4.000000, 4.000000, 4.000000, 4.000000, 4.000000, 4.000000, 4.000000
1.000000, 0.000000, 4214.871582, 4274.871582, 4220.000000, 4215.384277, 4200.000000, 4196.922852, 4201.025391, 4193.846191, 4196.922852, 4141.538574, 4238.461426, 4214.871582, 4322.563965, 4205.127930, 3516.000000, 8106.000000, 8195.000000, 0.000000, 0.000000, 0.000000, -20639.000000, 542.051270, 4.000000, 4.000000, 4.000000, 4.000000, 4.000000, 4.000000, 4.000000, 4.000000, 4.000000, 4.000000, 4.000000, 4.000000, 4.000000, 4.000000, 4.000000, 4.000000
2.000000, 0.000000, 4223.589844, 4281.025391, 4228.717773, 4227.692383, 4201.025391, 4200.512695, 4199.487305, 4203.589844, 4196.410156, 4144.102539, 4248.717773, 4226.666504, 4331.281738, 4202.051270, 2515.000000, 8106.000000, 8195.000000, 0.000000, 0.000000, 0.000000, -20639.000000, 549.743591, 4.000000, 4.000000, 4.000000, 4.000000, 4.000000, 4.000000, 4.000000, 4.000000, 4.000000, 4.000000, 4.000000, 4.000000, 4.000000, 4.000000, 4.000000, 4.000000
3.000000, 0.000000, 4223.589844, 4271.281738, 4227.692383, 4226.153809, 4203.589844, 4204.102539, 4197.436035, 4209.230469, 4203.076660, 4145.127930, 4240.512695, 4219.487305, 4316.922852, 4196.410156, 2199.000000, 8109.000000, 8197.000000, 0.000000, 0.000000, 0.000000, -20639.000000, 557.435913, 4.000000, 4.000000, 4.000000, 4.000000, 4.000000, 4.000000, 4.000000, 4.000000, 4.000000, 4.000000, 4.000000, 4.000000, 4.000000, 4.000000, 4.000000, 4.000000
4.000000, 0.000000, 4205.641113, 4256.922852, 4216.922852, 4213.333008, 4202.051270, 4197.948730, 4193.846191, 4202.563965, 4199.487305, 4133.846191, 4223.589844, 4202.051270, 4291.794922, 4197.436035, 3534.000000, 8109.000000, 8197.000000, 0.000000, 0.000000, 0.000000, -20639.000000, 565.640991, 4.000000, 4.000000, 4.000000, 4.000000, 4.000000, 4.000000, 4.000000, 4.000000, 4.000000, 4.000000, 4.000000, 4.000000, 4.000000, 4.000000, 4.000000, 4.000000
