title:winkLeft20, recorded:17.05.18 22.12.13, timestamp started:2018-05-12T20:28:52.032863+02:00            , sampling:128, subject:Noé, labels:COUNTER INTERPOLATED AF3 F7 F3 FC5 T7 P7 O1 O2 P8 T8 FC6 F4 F8 AF4 RAW_CQ GYROX GYROY MARKER MARKER_HARDWARE SYNC TIME_STAMP_s TIME_STAMP_ms CQ_AF3 CQ_F7 CQ_F3 CQ_FC5 CQ_T7 CQ_P7 CQ_O1 CQ_O2 CQ_P8 CQ_T8 CQ_FC6 CQ_F4 CQ_F8 CQ_AF4 CQ_CMS CQ_DRL, chan:40, samples:2072, units:emotiv
32.000000, 0.000000, 4209.230469, 4192.820313, 4189.743652, 4185.641113, 4185.641113, 4209.743652, 4201.025391, 4177.436035, 4185.641113, 4182.051270, 4183.589844, 4194.871582, 4190.256348, 4203.076660, 0.000000, 8302.000000, 8156.000000, 0.000000, 0.000000, 0.000000, -20551.000000, 562.051270, 4.000000, 4.000000, 4.000000, 4.000000, 4.000000, 4.000000, 4.000000, 4.000000, 4.000000, 4.000000, 4.000000, 4.000000, 4.000000, 4.000000, 4.000000, 4.000000
33.000000, 0.000000, 4214.358887, 4192.307617, 4200.512695, 4190.769043, 4203.589844, 4220.000000, 4205.641113, 4192.820313, 4196.922852, 4178.974121, 4187.692383, 4201.025391, 4198.461426, 4202.563965, 0.000000, 8304.000000, 8148.000000, 0.000000, 0.000000, 0.000000, -20551.000000, 569.743591, 4.000000, 4.000000, 4.000000, 4.000000, 4.000000, 4.000000, 4.000000, 4.000000, 4.000000, 4.000000, 4.000000, 4.000000, 4.000000, 4.000000, 4.000000, 4.000000
34.000000, 0.000000, 4215.897461, 4193.846191, 4203.589844, 4194.871582, 4218.974121, 4219.487305, 4207.179199, 4206.153809, 4203.076660, 4180.000000, 4196.922852, 4204.102539, 4203.076660, 4204.615234, 0.000000, 8304.000000, 8148.000000, 0.000000, 0.000000, 0.000000, -20551.000000, 577.435913, 4.000000, 4.000000, 4.000000, 4.000000, 4.000000, 4.000000, 4.000000, 4.000000, 4.000000, 4.000000, 4.000000, 4.000000, 4.000000, 4.000000, 4.000000, 4.000000
35.000000, 0.000000, 4209.230469, 4195.384277, 4191.281738, 4194.871582, 4204.102539, 4207.179199, 4203.076660, 4197.436035, 4197.436035, 4186.666504, 4200.000000, 4204.102539, 4200.512695, 4204.615234, 0.000000, 8303.000000, 8142.000000, 0.000000, 0.000000, 0.000000, -20551.000000, 585.128174, 4.000000, 4.000000, 4.000000, 4.000000, 4.000000, 4.000000, 4.000000, 4.000000, 4.000000, 4.000000, 4.000000, 4.000000, 4.000000, 4.000000, 4.000000, 4.000000
36.000000, 0.000000, 4214.358887, 4194.871582, 4185.641113, 4190.769043, 4193.846191, 4198.461426, 4193.846191, 4195.897461, 4202.051270, 4197.436035, 4197.436035, 4206.666504, 4203.589844, 4197.436035, 0.000000, 8303.000000, 8142.000000, 0.000000, 0.000000, 0.000000, -20551.000000, 593.333313, 4.000000, 4.000000, 4.000000, 4.000000, 4.000000, 4.000000, 4.000000, 4.000000, 4.000000, 4.000000, 4.000000, 4.000000, 4.000000, 4.000000, 4.000000, 4.000000
37.000000, 0.000000, 4209.230469, 4192.307617, 4190.256348, 4188.717773, 4202.051270, 4200.000000, 4193.846191, 4201.538574, 4204.102539, 4211.794922, 4199.487305, 4209.743652, 4207.179199, 4202.051270, 0.000000, 8309.000000, 8136.000000, 0.000000, 0.000000, 0.000000, -20551.000000, 601.025635, 4.000000, 4.000000, 4.000000, 4.000000, 4.000000, 4.000000, 4.000000, 4.000000, 4.000000, 4.000000, 4.000000, 4.000000, 4.000000, 4.000000, 4.000000, 4.000000
38.000000, 0.000000, 4207.692383, 4192.307617, 4195.384277, 4190.256348, 4193.333008, 4201.025391, 4200.512695, 4194.358887, 4190.256348, 4205.641113, 4198.461426, 4208.205078, 4196.922852, 4204.615234, 0.000000, 8309.000000, 8136.000000, 0.000000, 0.000000, 0.000000, -20551.000000, 608.717957, 4.000000, 4.000000, 4.000000, 4.000000, 4.000000, 4.000000, 4.000000, 4.000000, 4.000000, 4.000000, 4.000000, 4.000000, 4.000000, 4.000000, 4.000000, 4.000000
39.000000, 0.000000, 4212.307617, 4191.281738, 4196.922852, 4190.769043, 4180.512695, 4197.436035, 4197.436035, 4185.641113, 4181.025391, 4186.666504, 4187.692383, 4202.051270, 4190.256348, 4202.563965, 0.000000, 8307.000000, 8136.000000, 0.000000, 0.000000, 0.000000, -20551.000000, 616.410217, 4.000000, 4.000000, 4.000000, 4.000000, 4.000000, 4.000000, 4.000000, 4.000000, 4.000000, 4.000000, 4.000000, 4.000000, 4.000000, 4.000000, 4.000000, 4.000000
40.000000, 0.000000, 4206.666504, 4185.127930, 4197.436035, 4190.256348, 4192.307617, 4196.410156, 4193.333008, 4190.256348, 4185.641113, 4190.256348, 4180.512695, 4200.000000, 4194.871582, 4205.641113, 0.000000, 8307.000000, 8136.000000, 0.000000, 0.000000, 0.000000, -20551.000000, 624.615356, 4.000000, 4.000000, 4.000000, 4.000000, 4.000000, 4.000000, 4.000000, 4.000000, 4.000000, 4.000000, 4.000000, 4.000000, 4.000000, 4.000000, 4.000000, 4.000000
41.000000, 0.000000, 4213.846191, 4189.743652, 4201.025391, 4196.410156, 4206.666504, 4200.512695, 4199.487305, 4204.102539, 4199.487305, 4212.307617, 4191.281738, 4205.641113, 4203.076660, 4204.102539, 0.000000, 8307.000000, 8145.000000, 0.000000, 0.000000, 0.000000, -20551.000000, 632.820496, 4.000000, 4.000000, 4.000000, 4.000000, 4.000000, 4.000000, 4.000000, 4.000000, 4.000000, 4.000000, 4.000000, 4.000000, 4.000000, 4.000000, 4.000000, 4.000000
42.000000, 0.000000, 4218.974121, 4200.512695, 4203.589844, 4202.563965, 4203.076660, 4202.051270, 4205.127930, 4212.820313, 4211.794922, 4225.127930, 4209.743652, 4214.871582, 4213.846191, 4205.127930, 0.000000, 8307.000000, 8145.000000, 0.000000, 0.000000, 0.000000, -20551.000000, 640.512817, 4.000000, 4.000000, 4.000000, 4.000000, 4.000000, 4.000000, 4.000000, 4.000000, 4.000000, 4.000000, 4.000000, 4.000000, 4.000000, 4.000000, 4.000000, 4.000000
43.000000, 0.000000, 4218.974121, 4195.384277, 4205.127930, 4196.922852, 4196.410156, 4201.538574, 4201.025391, 4215.897461, 4219.487305, 4232.307617, 4217.436035, 4218.974121, 4220.512695, 4200.000000, 0.000000, 8305.000000, 8140.000000, 0.000000, 0.000000, 0.000000, -20551.000000, 648.205139, 4.000000, 4.000000, 4.000000, 4.000000, 4.000000, 4.000000, 4.000000, 4.000000, 4.000000, 4.000000, 4.000000, 4.000000, 4.000000, 4.000000, 4.000000, 4.000000
44.000000, 0.000000, 4216.410156, 4183.076660, 4202.563965, 4192.307617, 4205.641113, 4208.205078, 4200.000000, 4218.461426, 4225.127930, 4237.948730, 4217.948730, 4223.076660, 4218.461426, 4199.487305, 0.000000, 8305.000000, 8140.000000, 0.000000, 0.000000, 0.000000, -20551.000000, 656.410217, 4.000000, 4.000000, 4.000000, 4.000000, 4.000000, 4.000000, 4.000000, 4.000000, 4.000000, 4.000000, 4.000000, 4.000000, 4.000000, 4.000000, 4.000000, 4.000000
45.000000, 0.000000, 4213.333008, 4193.846191, 4200.000000, 4199.487305, 4214.871582, 4217.436035, 4203.589844, 4214.871582, 4220.000000, 4231.794922, 4216.922852, 4221.538574, 4216.410156, 4206.666504, 0.000000, 8306.000000, 8145.000000, 0.000000, 0.000000, 0.000000, -20551.000000, 664.102539, 4.000000, 4.000000, 4.000000, 4.000000, 4.000000, 4.000000, 4.000000, 4.000000, 4.000000, 4.000000, 4.000000, 4.000000, 4.000000, 4.000000, 4.000000, 4.000000
46.000000, 0.000000, 4223.076660, 4206.666504, 4202.563965, 4203.076660, 4211.281738, 4213.333008, 4197.436035, 4207.692383, 4207.692383, 4222.563965, 4203.076660, 4203.076660, 4213.333008, 4203.076660, 0.000000, 8306.000000, 8145.000000, 0.000000, 0.000000, 0.000000, -20551.000000, 671.794861, 4.000000, 4.000000, 4.000000, 4.000000, 4.000000, 4.000000, 4.000000, 4.000000, 4.000000, 4.000000, 4.000000, 4.000000, 4.000000, 4.000000, 4.000000, 4.000000
47.000000, 0.000000, 4215.897461, 4200.000000, 4197.948730, 4200.000000, 4198.974121, 4202.563965, 4190.256348, 4196.922852, 4202.563965, 4213.846191, 4187.179199, 4188.205078, 4202.051270, 4202.563965, 0.000000, 8311.000000, 8148.000000, 0.000000, 0.000000, 0.000000, -20551.000000, 679.487183, 4.000000, 4.000000, 4.000000, 4.000000, 4.000000, 4.000000, 4.000000, 4.000000, 4.000000, 4.000000, 4.000000, 4.000000, 4.000000, 4.000000, 4.000000, 4.000000
48.000000, 0.000000, 4211.794922, 4199.487305, 4190.256348, 4198.461426, 4190.256348, 4202.563965, 4191.281738, 4184.102539, 4197.948730, 4203.076660, 4187.179199, 4186.666504, 4195.384277, 4201.538574, 0.000000, 8311.000000, 8148.000000, 0.000000, 0.000000, 0.000000, -20551.000000, 687.692261, 4.000000, 4.000000, 4.000000, 4.000000, 4.000000, 4.000000, 4.000000, 4.000000, 4.000000, 4.000000, 4.000000, 4.000000, 4.000000, 4.000000, 4.000000, 4.000000
49.000000, 0.000000, 4225.641113, 4212.307617, 4193.333008, 4202.563965, 4200.512695, 4203.589844, 4188.717773, 4183.589844, 4191.794922, 4202.051270, 4192.820313, 4191.281738, 4201.538574, 4200.000000, 0.000000, 8309.000000, 8149.000000, 0.000000, 0.000000, 0.000000, -20551.000000, 695.384583, 4.000000, 4.000000, 4.000000, 4.000000, 4.000000, 4.000000, 4.000000, 4.000000, 4.000000, 4.000000, 4.000000, 4.000000, 4.000000, 4.000000, 4.000000, 4.000000
50.000000, 0.000000, 4224.615234, 4215.897461, 4204.615234, 4211.281738, 4217.948730, 4202.051270, 4186.666504, 4194.871582, 4198.974121, 4202.563965, 4192.307617, 4198.974121, 4202.051270, 4205.127930, 0.000000, 8309.000000, 8149.000000, 0.000000, 0.000000, 0.000000, -20551.000000, 703.589722, 4.000000, 4.000000, 4.000000, 4.000000, 4.000000, 4.000000, 4.000000, 4.000000, 4.000000, 4.000000, 4.000000, 4.000000, 4.000000, 4.000000, 4.000000, 4.000000
51.000000, 0.000000, 4220.512695, 4208.717773, 4205.641113, 4215.897461, 4217.948730, 4208.205078, 4194.358887, 4205.127930, 4205.641113, 4197.436035, 4190.769043, 4197.948730, 4190.769043, 4198.461426, 0.000000, 8309.000000, 8151.000000, 0.000000, 0.000000, 0.000000, -20551.000000, 711.282043, 4.000000, 4.000000, 4.000000, 4.000000, 4.000000, 4.000000, 4.000000, 4.000000, 4.000000, 4.000000, 4.000000, 4.000000, 4.000000, 4.000000, 4.000000, 4.000000
52.000000, 0.000000, 4215.897461, 4203.076660, 4196.922852, 4210.769043, 4203.589844, 4212.307617, 4200.512695, 4203.076660, 4195.897461, 4195.384277, 4189.743652, 4189.230469, 4184.102539, 4195.897461, 0.000000, 8309.000000, 8151.000000, 0.000000, 0.000000, 0.000000, -20551.000000, 718.974365, 4.000000, 4.000000, 4.000000, 4.000000, 4.000000, 4.000000, 4.000000, 4.000000, 4.000000, 4.000000, 4.000000, 4.000000, 4.000000, 4.000000, 4.000000, 4.000000
53.000000, 0.000000, 4211.794922, 4204.102539, 4196.922852, 4209.743652, 4195.897461, 4203.589844, 4196.922852, 4190.256348, 4188.205078, 4191.794922, 4177.948730, 4183.589844, 4184.615234, 4196.410156, 0.000000, 8311.000000, 8158.000000, 0.000000, 0.000000, 0.000000, -20551.000000, 727.179443, 4.000000, 4.000000, 4.000000, 4.000000, 4.000000, 4.000000, 4.000000, 4.000000, 4.000000, 4.000000, 4.000000, 4.000000, 4.000000, 4.000000, 4.000000, 4.000000
54.000000, 0.000000, 4213.333008, 4208.717773, 4205.641113, 4217.436035, 4202.051270, 4203.589844, 4194.358887, 4185.641113, 4194.871582, 4188.717773, 4168.717773, 4182.051270, 4183.076660, 4190.769043, 0.000000, 8311.000000, 8158.000000, 0.000000, 0.000000, 0.000000, -20551.000000, 734.871765, 4.000000, 4.000000, 4.000000, 4.000000, 4.000000, 4.000000, 4.000000, 4.000000, 4.000000, 4.000000, 4.000000, 4.000000, 4.000000, 4.000000, 4.000000, 4.000000
55.000000, 0.000000, 4210.256348, 4208.205078, 4204.615234, 4217.948730, 4210.769043, 4214.358887, 4199.487305, 4197.948730, 4202.051270, 4197.436035, 4177.436035, 4183.076660, 4182.563965, 4194.358887, 0.000000, 8305.000000, 8158.000000, 0.000000, 0.000000, 0.000000, -20551.000000, 743.076904, 4.000000, 4.000000, 4.000000, 4.000000, 4.000000, 4.000000, 4.000000, 4.000000, 4.000000, 4.000000, 4.000000, 4.000000, 4.000000, 4.000000, 4.000000, 4.000000
56.000000, 0.000000, 4208.205078, 4203.076660, 4193.333008, 4207.179199, 4200.512695, 4211.794922, 4198.461426, 4206.153809, 4203.589844, 4207.179199, 4182.563965, 4186.666504, 4185.127930, 4184.102539, 0.000000, 8305.000000, 8158.000000, 0.000000, 0.000000, 0.000000, -20551.000000, 750.769226, 4.000000, 4.000000, 4.000000, 4.000000, 4.000000, 4.000000, 4.000000, 4.000000, 4.000000, 4.000000, 4.000000, 4.000000, 4.000000, 4.000000, 4.000000, 4.000000
57.000000, 0.000000, 4198.461426, 4196.922852, 4189.230469, 4197.436035, 4183.076660, 4199.487305, 4192.307617, 4195.897461, 4204.102539, 4198.974121, 4173.846191, 4187.179199, 4180.512695, 4176.410156, 0.000000, 8309.000000, 8176.000000, 0.000000, 0.000000, 0.000000, -20551.000000, 758.974365, 4.000000, 4.000000, 4.000000, 4.000000, 4.000000, 4.000000, 4.000000, 4.000000, 4.000000, 4.000000, 4.000000, 4.000000, 4.000000, 4.000000, 4.000000, 4.000000
58.000000, 0.000000, 4202.051270, 4197.436035, 4195.897461, 4198.974121, 4192.307617, 4200.000000, 4193.846191, 4182.563965, 4196.410156, 4190.769043, 4167.179199, 4180.000000, 4171.794922, 4190.769043, 0.000000, 8309.000000, 8176.000000, 0.000000, 0.000000, 0.000000, -20551.000000, 766.666626, 4.000000, 4.000000, 4.000000, 4.000000, 4.000000, 4.000000, 4.000000, 4.000000, 4.000000, 4.000000, 4.000000, 4.000000, 4.000000, 4.000000, 4.000000, 4.000000
59.000000, 0.000000, 4214.871582, 4201.538574, 4197.948730, 4202.051270, 4207.179199, 4205.127930, 4197.436035, 4185.641113, 4188.205078, 4196.922852, 4167.179199, 4172.820313, 4168.205078, 4202.563965, 0.000000, 8308.000000, 8179.000000, 0.000000, 0.000000, 0.000000, -20551.000000, 774.871765, 4.000000, 4.000000, 4.000000, 4.000000, 4.000000, 4.000000, 4.000000, 4.000000, 4.000000, 4.000000, 4.000000, 4.000000, 4.000000, 4.000000, 4.000000, 4.000000
60.000000, 0.000000, 4201.025391, 4194.871582, 4192.820313, 4194.871582, 4201.025391, 4203.076660, 4195.897461, 4194.871582, 4193.333008, 4205.641113, 4164.102539, 4172.307617, 4167.692383, 4204.102539, 0.000000, 8308.000000, 8179.000000, 0.000000, 0.000000, 0.000000, -20551.000000, 782.564087, 4.000000, 4.000000, 4.000000, 4.000000, 4.000000, 4.000000, 4.000000, 4.000000, 4.000000, 4.000000, 4.000000, 4.000000, 4.000000, 4.000000, 4.000000, 4.000000
61.000000, 0.000000, 4200.000000, 4187.692383, 4195.897461, 4190.769043, 4194.358887, 4203.589844, 4201.538574, 4204.102539, 4202.051270, 4211.281738, 4166.666504, 4177.436035, 4171.281738, 4199.487305, 0.000000, 8312.000000, 8186.000000, 0.000000, 0.000000, 0.000000, -20551.000000, 790.769226, 4.000000, 4.000000, 4.000000, 4.000000, 4.000000, 4.000000, 4.000000, 4.000000, 4.000000, 4.000000, 4.000000, 4.000000, 4.000000, 4.000000, 4.000000, 4.000000
62.000000, 0.000000, 4210.769043, 4193.333008, 4202.051270, 4198.461426, 4203.589844, 4214.358887, 4214.871582, 4213.333008, 4205.641113, 4218.974121, 4177.948730, 4185.641113, 4181.538574, 4204.615234, 0.000000, 8312.000000, 8186.000000, 0.000000, 0.000000, 0.000000, -20551.000000, 798.461548, 4.000000, 4.000000, 4.000000, 4.000000, 4.000000, 4.000000, 4.000000, 4.000000, 4.000000, 4.000000, 4.000000, 4.000000, 4.000000, 4.000000, 4.000000, 4.000000
63.000000, 0.000000, 4205.127930, 4197.436035, 4198.461426, 4200.000000, 4207.692383, 4220.512695, 4211.794922, 4217.436035, 4203.589844, 4225.127930, 4182.563965, 4185.641113, 4187.692383, 4206.153809, 0.000000, 8313.000000, 8199.000000, 0.000000, 0.000000, 0.000000, -20551.000000, 806.153809, 4.000000, 4.000000, 4.000000, 4.000000, 4.000000, 4.000000, 4.000000, 4.000000, 4.000000, 4.000000, 4.000000, 4.000000, 4.000000, 4.000000, 4.000000, 4.000000
64.000000, 0.000000, 4201.538574, 4191.794922, 4195.897461, 4190.769043, 4193.333008, 4210.769043, 4199.487305, 4214.358887, 4201.538574, 4223.589844, 4183.076660, 4181.025391, 4185.127930, 4197.948730, 3358.000000, 8313.000000, 8199.000000, 0.000000, 0.000000, 0.000000, -20551.000000, 814.358948, 4.000000, 4.000000, 4.000000, 4.000000, 4.000000, 4.000000, 4.000000, 4.000000, 4.000000, 4.000000, 4.000000, 4.000000, 4.000000, 4.000000, 4.000000, 4.000000
65.000000, 0.000000, 4200.512695, 4191.794922, 4198.974121, 4189.743652, 4185.641113, 4203.076660, 4202.051270, 4214.358887, 4209.230469, 4219.487305, 4186.153809, 4186.153809, 4184.615234, 4206.666504, 3513.000000, 8308.000000, 8203.000000, 0.000000, 0.000000, 0.000000, -20551.000000, 822.051270, 4.000000, 4.000000, 4.000000, 4.000000, 4.000000, 4.000000, 4.000000, 4.000000, 4.000000, 4.000000, 4.000000, 4.000000, 4.000000, 4.000000, 4.000000, 4.000000
66.000000, 0.000000, 4206.153809, 4192.820313, 4202.563965, 4195.384277, 4198.461426, 4211.281738, 4208.205078, 4213.846191, 4214.871582, 4210.256348, 4185.641113, 4196.410156, 4186.666504, 4208.205078, 2513.000000, 8308.000000, 8203.000000, 0.000000, 0.000000, 0.000000, -20551.000000, 829.743591, 4.000000, 4.000000, 4.000000, 4.000000, 4.000000, 4.000000, 4.000000, 4.000000, 4.000000, 4.000000, 4.000000, 4.000000, 4.000000, 4.000000, 4.000000, 4.000000
67.000000, 0.000000, 4206.153809, 4187.692383, 4201.025391, 4192.307617, 4208.205078, 4216.410156, 4205.127930, 4204.615234, 4209.230469, 4205.127930, 4186.666504, 4202.563965, 4190.256348, 4202.051270, 2461.000000, 8305.000000, 8199.000000, 0.000000, 0.000000, 0.000000, -20551.000000, 837.948669, 4.000000, 4.000000, 4.000000, 4.000000, 4.000000, 4.000000, 4.000000, 4.000000, 4.000000, 4.000000, 4.000000, 4.000000, 4.000000, 4.000000, 4.000000, 4.000000
68.000000, 0.000000, 4202.051270, 4189.230469, 4201.538574, 4194.871582, 4202.051270, 4205.641113, 4200.512695, 4200.000000, 4205.641113, 4210.256348, 4197.436035, 4205.127930, 4199.487305, 4204.102539, 3294.000000, 8305.000000, 8199.000000, 0.000000, 0.000000, 0.000000, -20551.000000, 845.640991, 4.000000, 4.000000, 4.000000, 4.000000, 4.000000, 4.000000, 4.000000, 4.000000, 4.000000, 4.000000, 4.000000, 4.000000, 4.000000, 4.000000, 4.000000, 4.000000
69.000000, 0.000000, 4203.589844, 4190.769043, 4204.102539, 4198.974121, 4198.461426, 4201.538574, 4202.051270, 4203.076660, 4210.769043, 4207.179199, 4201.538574, 4208.717773, 4200.000000, 4203.076660, 3541.000000, 8298.000000, 8199.000000, 0.000000, 0.000000, 0.000000, -20551.000000, 853.846130, 4.000000, 4.000000, 4.000000, 4.000000, 4.000000, 4.000000, 4.000000, 4.000000, 4.000000, 4.000000, 4.000000, 4.000000, 4.000000, 4.000000, 4.000000, 4.000000
70.000000, 0.000000, 4192.820313, 4178.974121, 4201.538574, 4190.256348, 4200.512695, 4206.666504, 4205.641113, 4200.512695, 4205.127930, 4194.871582, 4187.692383, 4205.641113, 4185.127930, 4203.589844, 3106.000000, 8298.000000, 8199.000000, 0.000000, 0.000000, 0.000000, -20551.000000, 861.538452, 4.000000, 4.000000, 4.000000, 4.000000, 4.000000, 4.000000, 4.000000, 4.000000, 4.000000, 4.000000, 4.000000, 4.000000, 4.000000, 4.000000, 4.000000, 4.000000
71.000000, 0.000000, 4192.820313, 4178.974121, 4200.000000, 4190.256348, 4202.563965, 4203.076660, 4196.922852, 4185.641113, 4188.205078, 4194.871582, 4181.538574, 4198.461426, 4184.615234, 4196.410156, 3519.000000, 8285.000000, 8198.000000, 0.000000, 0.000000, 0.000000, -20551.000000, 869.230774, 4.000000, 4.000000, 4.000000, 4.000000, 4.000000, 4.000000, 4.000000, 4.000000, 4.000000, 4.000000, 4.000000, 4.000000, 4.000000, 4.000000, 4.000000, 4.000000
72.000000, 0.000000, 4201.538574, 4195.384277, 4204.615234, 4203.589844, 4203.589844, 4196.922852, 4186.666504, 4179.487305, 4183.589844, 4200.512695, 4188.717773, 4197.948730, 4203.076660, 4195.384277, 3529.000000, 8285.000000, 8198.000000, 0.000000, 0.000000, 0.000000, -20551.000000, 877.435852, 4.000000, 4.000000, 4.000000, 4.000000, 4.000000, 4.000000, 4.000000, 4.000000, 4.000000, 4.000000, 4.000000, 4.000000, 4.000000, 4.000000, 4.000000, 4.000000
73.000000, 0.000000, 4197.436035, 4194.871582, 4206.666504, 4205.641113, 4202.051270, 4200.000000, 4185.641113, 4185.641113, 4189.230469, 4191.794922, 4188.205078, 4199.487305, 4203.076660, 4201.538574, 3538.000000, 8273.000000, 8198.000000, 0.000000, 0.000000, 0.000000, -20551.000000, 885.128174, 4.000000, 4.000000, 4.000000, 4.000000, 4.000000, 4.000000, 4.000000, 4.000000, 4.000000, 4.000000, 4.000000, 4.000000, 4.000000, 4.000000, 4.000000, 4.000000
74.000000, 0.000000, 4201.025391, 4190.769043, 4207.179199, 4203.076660, 4205.127930, 4202.051270, 4185.127930, 4185.127930, 4188.717773, 4184.615234, 4187.692383, 4198.974121, 4196.410156, 4197.436035, 3549.000000, 8273.000000, 8198.000000, 0.000000, 0.000000, 0.000000, -20551.000000, 892.820496, 4.000000, 4.000000, 4.000000, 4.000000, 4.000000, 4.000000, 4.000000, 4.000000, 4.000000, 4.000000, 4.000000, 4.000000, 4.000000, 4.000000, 4.000000, 4.000000
75.000000, 0.000000, 4203.076660, 4197.436035, 4207.692383, 4204.102539, 4197.948730, 4199.487305, 4191.281738, 4187.692383, 4190.256348, 4189.743652, 4197.436035, 4203.589844, 4207.692383, 4203.589844, 400.000000, 8253.000000, 8198.000000, 0.000000, 0.000000, 0.000000, -20551.000000, 901.025635, 4.000000, 4.000000, 4.000000, 4.000000, 4.000000, 4.000000, 4.000000, 4.000000, 4.000000, 4.000000, 4.000000, 4.000000, 4.000000, 4.000000, 4.000000, 4.000000
76.000000, 0.000000, 4201.025391, 4196.410156, 4204.615234, 4197.436035, 4189.743652, 4206.153809, 4202.563965, 4199.487305, 4201.538574, 4202.563965, 4200.512695, 4203.589844, 4210.256348, 4205.127930, 3478.000000, 8253.000000, 8198.000000, 0.000000, 0.000000, 0.000000, -20551.000000, 908.717957, 4.000000, 4.000000, 4.000000, 4.000000, 4.000000, 4.000000, 4.000000, 4.000000, 4.000000, 4.000000, 4.000000, 4.000000, 4.000000, 4.000000, 4.000000, 4.000000
77.000000, 0.000000, 4203.076660, 4189.743652, 4206.153809, 4197.436035, 4209.743652, 4219.487305, 4208.205078, 4209.743652, 4206.666504, 4233.333008, 4202.563965, 4201.538574, 4205.641113, 4202.051270, 3399.000000, 8243.000000, 8199.000000, 0.000000, 0.000000, 0.000000, -20551.000000, 916.923035, 4.000000, 4.000000, 4.000000, 4.000000, 4.000000, 4.000000, 4.000000, 4.000000, 4.000000, 4.000000, 4.000000, 4.000000, 4.000000, 4.000000, 4.000000, 4.000000
78.000000, 0.000000, 4197.436035, 4192.820313, 4205.127930, 4202.563965, 4221.538574, 4216.922852, 4203.076660, 4203.589844, 4200.000000, 4256.410156, 4201.538574, 4199.487305, 4205.127930, 4203.589844, 3549.000000, 8243.000000, 8199.000000, 0.000000, 0.000000, 0.000000, -20551.000000, 924.615356, 4.000000, 4.000000, 4.000000, 4.000000, 4.000000, 4.000000, 4.000000, 4.000000, 4.000000, 4.000000, 4.000000, 4.000000, 4.000000, 4.000000, 4.000000, 4.000000
79.000000, 0.000000, 4190.256348, 4190.769043, 4193.846191, 4192.307617, 4201.538574, 4201.025391, 4193.333008, 4192.307617, 4197.948730, 4255.384277, 4188.205078, 4188.205078, 4191.794922, 4194.871582, 400.000000, 8230.000000, 8191.000000, 0.000000, 0.000000, 0.000000, -20551.000000, 932.307678, 4.000000, 4.000000, 4.000000, 4.000000, 4.000000, 4.000000, 4.000000, 4.000000, 4.000000, 4.000000, 4.000000, 4.000000, 4.000000, 4.000000, 4.000000, 4.000000
80.000000, 0.000000, 4184.102539, 4182.563965, 4188.717773, 4188.205078, 4195.897461, 4195.897461, 4186.153809, 4190.769043, 4203.076660, 4264.615234, 4187.179199, 4184.102539, 4189.743652, 4197.436035, 3478.000000, 8230.000000, 8191.000000, 0.000000, 0.000000, 0.000000, -20551.000000, 940.512817, 4.000000, 4.000000, 4.000000, 4.000000, 4.000000, 4.000000, 4.000000, 4.000000, 4.000000, 4.000000, 4.000000, 4.000000, 4.000000, 4.000000, 4.000000, 4.000000
81.000000, 0.000000, 4188.205078, 4185.641113, 4197.948730, 4194.871582, 4201.538574, 4201.538574, 4186.153809, 4192.307617, 4199.487305, 4273.333008, 4195.897461, 4191.281738, 4206.666504, 4201.538574, 3399.000000, 8213.000000, 8184.000000, 0.000000, 0.000000, 0.000000, -20551.000000, 948.205078, 4.000000, 4.000000, 4.000000, 4.000000, 4.000000, 4.000000, 4.000000, 4.000000, 4.000000, 4.000000, 4.000000, 4.000000, 4.000000, 4.000000, 4.000000, 4.000000
82.000000, 0.000000, 4188.717773, 4186.153809, 4200.512695, 4191.281738, 4186.666504, 4199.487305, 4185.127930, 4184.615234, 4187.692383, 4258.974121, 4189.743652, 4188.205078, 4206.666504, 4198.974121, 3549.000000, 8213.000000, 8184.000000, 0.000000, 0.000000, 0.000000, -20551.000000, 956.410217, 4.000000, 4.000000, 4.000000, 4.000000, 4.000000, 4.000000, 4.000000, 4.000000, 4.000000, 4.000000, 4.000000, 4.000000, 4.000000, 4.000000, 4.000000, 4.000000
83.000000, 0.000000, 4178.974121, 4180.512695, 4192.820313, 4185.641113, 4186.153809, 4195.897461, 4181.025391, 4177.948730, 4184.615234, 4247.692383, 4186.153809, 4183.589844, 4197.436035, 4201.538574, 400.000000, 8204.000000, 8179.000000, 0.000000, 0.000000, 0.000000, -20551.000000, 964.102539, 4.000000, 4.000000, 4.000000, 4.000000, 4.000000, 4.000000, 4.000000, 4.000000, 4.000000, 4.000000, 4.000000, 4.000000, 4.000000, 4.000000, 4.000000, 4.000000
84.000000, 0.000000, 4187.692383, 4187.179199, 4194.871582, 4195.384277, 4213.333008, 4203.076660, 4184.615234, 4192.820313, 4202.563965, 4255.897461, 4200.512695, 4191.281738, 4206.153809, 4198.974121, 3478.000000, 8204.000000, 8179.000000, 0.000000, 0.000000, 0.000000, -20551.000000, 971.794861, 4.000000, 4.000000, 4.000000, 4.000000, 4.000000, 4.000000, 4.000000, 4.000000, 4.000000, 4.000000, 4.000000, 4.000000, 4.000000, 4.000000, 4.000000, 4.000000
85.000000, 0.000000, 4190.256348, 4196.410156, 4198.974121, 4200.512695, 4216.410156, 4206.153809, 4194.871582, 4207.179199, 4218.974121, 4265.641113, 4205.641113, 4198.974121, 4214.358887, 4204.615234, 3399.000000, 8193.000000, 8172.000000, 0.000000, 0.000000, 0.000000, -20551.000000, 980.000000, 4.000000, 4.000000, 4.000000, 4.000000, 4.000000, 4.000000, 4.000000, 4.000000, 4.000000, 4.000000, 4.000000, 4.000000, 4.000000, 4.000000, 4.000000, 4.000000
86.000000, 0.000000, 4187.179199, 4196.410156, 4198.461426, 4195.897461, 4199.487305, 4200.000000, 4196.922852, 4203.076660, 4208.205078, 4269.743652, 4197.948730, 4196.410156, 4209.230469, 4208.205078, 3549.000000, 8193.000000, 8172.000000, 0.000000, 0.000000, 0.000000, -20551.000000, 987.692261, 4.000000, 4.000000, 4.000000, 4.000000, 4.000000, 4.000000, 4.000000, 4.000000, 4.000000, 4.000000, 4.000000, 4.000000, 4.000000, 4.000000, 4.000000, 4.000000
87.000000, 0.000000, 4198.461426, 4196.922852, 4202.563965, 4198.461426, 4208.205078, 4205.127930, 4199.487305, 4204.102539, 4204.615234, 4274.871582, 4205.127930, 4200.000000, 4215.897461, 4206.666504, 400.000000, 8193.000000, 8166.000000, 0.000000, 0.000000, 0.000000, -20551.000000, 995.897400, 4.000000, 4.000000, 4.000000, 4.000000, 4.000000, 4.000000, 4.000000, 4.000000, 4.000000, 4.000000, 4.000000, 4.000000, 4.000000, 4.000000, 4.000000, 4.000000
88.000000, 0.000000, 4201.025391, 4203.589844, 4209.743652, 4205.641113, 4219.487305, 4216.922852, 4210.769043, 4218.974121, 4226.666504, 4276.410156, 4218.974121, 4214.358887, 4229.743652, 4211.794922, 3478.000000, 8193.000000, 8166.000000, 0.000000, 0.000000, 0.000000, -20550.000000, 3.589744, 4.000000, 4.000000, 4.000000, 4.000000, 4.000000, 4.000000, 4.000000, 4.000000, 4.000000, 4.000000, 4.000000, 4.000000, 4.000000, 4.000000, 4.000000, 4.000000
89.000000, 0.000000, 4202.051270, 4204.102539, 4210.256348, 4207.179199, 4203.076660, 4210.769043, 4211.794922, 4223.076660, 4230.256348, 4276.922852, 4221.538574, 4217.436035, 4230.256348, 4209.230469, 3399.000000, 8183.000000, 8166.000000, 0.000000, 0.000000, 0.000000, -20550.000000, 11.794871, 4.000000, 4.000000, 4.000000, 4.000000, 4.000000, 4.000000, 4.000000, 4.000000, 4.000000, 4.000000, 4.000000, 4.000000, 4.000000, 4.000000, 4.000000, 4.000000
90.000000, 0.000000, 4196.922852, 4198.974121, 4200.512695, 4201.025391, 4191.281738, 4195.897461, 4195.897461, 4207.692383, 4207.179199, 4270.769043, 4214.871582, 4206.666504, 4218.461426, 4206.666504, 3549.000000, 8183.000000, 8166.000000, 0.000000, 0.000000, 0.000000, -20550.000000, 19.487179, 4.000000, 4.000000, 4.000000, 4.000000, 4.000000, 4.000000, 4.000000, 4.000000, 4.000000, 4.000000, 4.000000, 4.000000, 4.000000, 4.000000, 4.000000, 4.000000
91.000000, 0.000000, 4192.820313, 4197.436035, 4197.436035, 4196.922852, 4208.717773, 4198.974121, 4190.769043, 4203.589844, 4204.102539, 4260.512695, 4209.743652, 4200.512695, 4210.769043, 4205.641113, 400.000000, 8182.000000, 8167.000000, 0.000000, 0.000000, 0.000000, -20550.000000, 27.179487, 4.000000, 4.000000, 4.000000, 4.000000, 4.000000, 4.000000, 4.000000, 4.000000, 4.000000, 4.000000, 4.000000, 4.000000, 4.000000, 4.000000, 4.000000, 4.000000
92.000000, 0.000000, 4202.051270, 4200.512695, 4207.692383, 4203.589844, 4223.589844, 4211.794922, 4201.538574, 4216.410156, 4221.025391, 4258.974121, 4214.871582, 4208.205078, 4218.461426, 4202.563965, 3478.000000, 8182.000000, 8167.000000, 0.000000, 0.000000, 0.000000, -20550.000000, 35.384613, 4.000000, 4.000000, 4.000000, 4.000000, 4.000000, 4.000000, 4.000000, 4.000000, 4.000000, 4.000000, 4.000000, 4.000000, 4.000000, 4.000000, 4.000000, 4.000000
93.000000, 0.000000, 4197.436035, 4202.051270, 4209.230469, 4201.538574, 4212.820313, 4209.230469, 4208.205078, 4215.384277, 4220.000000, 4260.000000, 4217.948730, 4214.358887, 4221.025391, 4208.205078, 3399.000000, 8177.000000, 8168.000000, 0.000000, 0.000000, 0.000000, -20550.000000, 43.076923, 4.000000, 4.000000, 4.000000, 4.000000, 4.000000, 4.000000, 4.000000, 4.000000, 4.000000, 4.000000, 4.000000, 4.000000, 4.000000, 4.000000, 4.000000, 4.000000
94.000000, 0.000000, 4193.846191, 4196.922852, 4202.563965, 4193.333008, 4201.538574, 4201.025391, 4209.230469, 4202.051270, 4214.871582, 4263.589844, 4216.922852, 4212.820313, 4214.871582, 4206.153809, 3549.000000, 8177.000000, 8168.000000, 0.000000, 0.000000, 0.000000, -20550.000000, 50.769230, 4.000000, 4.000000, 4.000000, 4.000000, 4.000000, 4.000000, 4.000000, 4.000000, 4.000000, 4.000000, 4.000000, 4.000000, 4.000000, 4.000000, 4.000000, 4.000000
95.000000, 0.000000, 4192.820313, 4188.717773, 4207.692383, 4193.846191, 4204.102539, 4202.563965, 4208.717773, 4207.179199, 4220.512695, 4267.692383, 4213.333008, 4217.436035, 4216.410156, 4205.641113, 400.000000, 8179.000000, 8181.000000, 0.000000, 0.000000, 0.000000, -20550.000000, 58.974358, 4.000000, 4.000000, 4.000000, 4.000000, 4.000000, 4.000000, 4.000000, 4.000000, 4.000000, 4.000000, 4.000000, 4.000000, 4.000000, 4.000000, 4.000000, 4.000000
96.000000, 0.000000, 4186.666504, 4186.153809, 4211.281738, 4192.820313, 4196.410156, 4205.127930, 4202.051270, 4216.922852, 4220.512695, 4266.666504, 4205.641113, 4218.461426, 4214.358887, 4209.230469, 3478.000000, 8179.000000, 8181.000000, 0.000000, 0.000000, 0.000000, -20550.000000, 66.666664, 4.000000, 4.000000, 4.000000, 4.000000, 4.000000, 4.000000, 4.000000, 4.000000, 4.000000, 4.000000, 4.000000, 4.000000, 4.000000, 4.000000, 4.000000, 4.000000
97.000000, 0.000000, 4187.179199, 4186.666504, 4205.127930, 4185.127930, 4186.153809, 4201.025391, 4197.948730, 4205.641113, 4214.871582, 4261.538574, 4196.410156, 4206.153809, 4201.025391, 4204.102539, 3399.000000, 8180.000000, 8181.000000, 0.000000, 0.000000, 0.000000, -20550.000000, 74.358971, 4.000000, 4.000000, 4.000000, 4.000000, 4.000000, 4.000000, 4.000000, 4.000000, 4.000000, 4.000000, 4.000000, 4.000000, 4.000000, 4.000000, 4.000000, 4.000000
98.000000, 0.000000, 4182.563965, 4184.615234, 4200.512695, 4184.102539, 4195.897461, 4196.922852, 4198.974121, 4201.538574, 4214.358887, 4261.538574, 4198.461426, 4202.563965, 4194.871582, 4207.179199, 3549.000000, 8180.000000, 8181.000000, 0.000000, 0.000000, 0.000000, -20550.000000, 82.564102, 4.000000, 4.000000, 4.000000, 4.000000, 4.000000, 4.000000, 4.000000, 4.000000, 4.000000, 4.000000, 4.000000, 4.000000, 4.000000, 4.000000, 4.000000, 4.000000
99.000000, 0.000000, 4185.641113, 4183.589844, 4203.589844, 4187.692383, 4206.153809, 4200.512695, 4198.974121, 4216.922852, 4218.461426, 4272.307617, 4206.153809, 4211.281738, 4205.641113, 4207.692383, 400.000000, 8181.000000, 8175.000000, 0.000000, 0.000000, 0.000000, -20550.000000, 90.256409, 4.000000, 4.000000, 4.000000, 4.000000, 4.000000, 4.000000, 4.000000, 4.000000, 4.000000, 4.000000, 4.000000, 4.000000, 4.000000, 4.000000, 4.000000, 4.000000
100.000000, 0.000000, 4188.205078, 4186.666504, 4210.256348, 4192.820313, 4207.179199, 4210.256348, 4204.615234, 4227.692383, 4221.025391, 4283.076660, 4211.794922, 4212.307617, 4217.436035, 4204.102539, 3478.000000, 8181.000000, 8175.000000, 0.000000, 0.000000, 0.000000, -20550.000000, 97.948715, 4.000000, 4.000000, 4.000000, 4.000000, 4.000000, 4.000000, 4.000000, 4.000000, 4.000000, 4.000000, 4.000000, 4.000000, 4.000000, 4.000000, 4.000000, 4.000000
101.000000, 0.000000, 4181.538574, 4186.666504, 4213.333008, 4200.512695, 4210.256348, 4211.281738, 4206.666504, 4216.922852, 4219.487305, 4277.436035, 4209.743652, 4209.743652, 4213.846191, 4205.641113, 3399.000000, 8182.000000, 8178.000000, 0.000000, 0.000000, 0.000000, -20550.000000, 106.153847, 4.000000, 4.000000, 4.000000, 4.000000, 4.000000, 4.000000, 4.000000, 4.000000, 4.000000, 4.000000, 4.000000, 4.000000, 4.000000, 4.000000, 4.000000, 4.000000
102.000000, 0.000000, 4188.205078, 4188.205078, 4214.871582, 4203.076660, 4213.333008, 4202.051270, 4200.512695, 4207.179199, 4216.410156, 4264.102539, 4205.641113, 4210.769043, 4206.666504, 4207.179199, 3549.000000, 8182.000000, 8178.000000, 0.000000, 0.000000, 0.000000, -20550.000000, 113.846153, 4.000000, 4.000000, 4.000000, 4.000000, 4.000000, 4.000000, 4.000000, 4.000000, 4.000000, 4.000000, 4.000000, 4.000000, 4.000000, 4.000000, 4.000000, 4.000000
103.000000, 0.000000, 4189.230469, 4195.384277, 4211.794922, 4199.487305, 4203.076660, 4200.000000, 4200.000000, 4208.717773, 4218.461426, 4260.000000, 4209.230469, 4213.846191, 4209.230469, 4210.256348, 400.000000, 8183.000000, 8180.000000, 0.000000, 0.000000, 0.000000, -20550.000000, 122.051277, 4.000000, 4.000000, 4.000000, 4.000000, 4.000000, 4.000000, 4.000000, 4.000000, 4.000000, 4.000000, 4.000000, 4.000000, 4.000000, 4.000000, 4.000000, 4.000000
104.000000, 0.000000, 4188.205078, 4198.461426, 4209.230469, 4200.000000, 4195.384277, 4207.179199, 4200.512695, 4207.179199, 4220.512695, 4261.025391, 4211.281738, 4211.794922, 4211.794922, 4205.127930, 3478.000000, 8183.000000, 8180.000000, 0.000000, 0.000000, 0.000000, -20550.000000, 129.743591, 4.000000, 4.000000, 4.000000, 4.000000, 4.000000, 4.000000, 4.000000, 4.000000, 4.000000, 4.000000, 4.000000, 4.000000, 4.000000, 4.000000, 4.000000, 4.000000
105.000000, 0.000000, 4192.820313, 4200.000000, 4212.307617, 4207.179199, 4207.692383, 4209.230469, 4196.922852, 4205.127930, 4218.974121, 4260.512695, 4208.205078, 4208.717773, 4210.256348, 4206.666504, 3399.000000, 8182.000000, 8188.000000, 0.000000, 0.000000, 0.000000, -20550.000000, 137.948715, 4.000000, 4.000000, 4.000000, 4.000000, 4.000000, 4.000000, 4.000000, 4.000000, 4.000000, 4.000000, 4.000000, 4.000000, 4.000000, 4.000000, 4.000000, 4.000000
106.000000, 0.000000, 4192.820313, 4199.487305, 4213.846191, 4209.743652, 4223.589844, 4205.127930, 4197.948730, 4212.820313, 4219.487305, 4256.922852, 4211.794922, 4211.794922, 4212.820313, 4211.281738, 3549.000000, 8182.000000, 8188.000000, 0.000000, 0.000000, 0.000000, -20550.000000, 145.641022, 4.000000, 4.000000, 4.000000, 4.000000, 4.000000, 4.000000, 4.000000, 4.000000, 4.000000, 4.000000, 4.000000, 4.000000, 4.000000, 4.000000, 4.000000, 4.000000
107.000000, 0.000000, 4193.333008, 4192.307617, 4209.743652, 4202.051270, 4217.436035, 4204.102539, 4202.051270, 4221.025391, 4223.076660, 4255.897461, 4218.974121, 4217.436035, 4217.948730, 4204.102539, 400.000000, 8183.000000, 8184.000000, 0.000000, 0.000000, 0.000000, -20550.000000, 153.333328, 4.000000, 4.000000, 4.000000, 4.000000, 4.000000, 4.000000, 4.000000, 4.000000, 4.000000, 4.000000, 4.000000, 4.000000, 4.000000, 4.000000, 4.000000, 4.000000
108.000000, 0.000000, 4187.179199, 4190.256348, 4204.615234, 4197.436035, 4199.487305, 4203.589844, 4198.974121, 4215.384277, 4223.076660, 4250.769043, 4220.512695, 4212.307617, 4216.922852, 4206.153809, 3478.000000, 8183.000000, 8184.000000, 0.000000, 0.000000, 0.000000, -20550.000000, 161.538452, 4.000000, 4.000000, 4.000000, 4.000000, 4.000000, 4.000000, 4.000000, 4.000000, 4.000000, 4.000000, 4.000000, 4.000000, 4.000000, 4.000000, 4.000000, 4.000000
109.000000, 0.000000, 4191.794922, 4200.512695, 4204.615234, 4202.563965, 4198.974121, 4199.487305, 4191.281738, 4205.641113, 4211.281738, 4233.846191, 4211.281738, 4197.948730, 4210.256348, 4204.102539, 3399.000000, 8179.000000, 8184.000000, 0.000000, 0.000000, 0.000000, -20550.000000, 169.230759, 4.000000, 4.000000, 4.000000, 4.000000, 4.000000, 4.000000, 4.000000, 4.000000, 4.000000, 4.000000, 4.000000, 4.000000, 4.000000, 4.000000, 4.000000, 4.000000
110.000000, 0.000000, 4196.922852, 4204.615234, 4202.051270, 4203.589844, 4207.179199, 4193.846191, 4183.589844, 4199.487305, 4202.563965, 4229.230469, 4203.076660, 4197.948730, 4208.717773, 4200.512695, 3549.000000, 8179.000000, 8184.000000, 0.000000, 0.000000, 0.000000, -20550.000000, 176.923065, 4.000000, 4.000000, 4.000000, 4.000000, 4.000000, 4.000000, 4.000000, 4.000000, 4.000000, 4.000000, 4.000000, 4.000000, 4.000000, 4.000000, 4.000000, 4.000000
111.000000, 0.000000, 4187.692383, 4197.948730, 4199.487305, 4198.974121, 4197.436035, 4190.769043, 4184.102539, 4200.512695, 4211.281738, 4238.461426, 4206.666504, 4202.563965, 4210.256348, 4206.153809, 400.000000, 8181.000000, 8183.000000, 0.000000, 0.000000, 0.000000, -20550.000000, 185.128204, 4.000000, 4.000000, 4.000000, 4.000000, 4.000000, 4.000000, 4.000000, 4.000000, 4.000000, 4.000000, 4.000000, 4.000000, 4.000000, 4.000000, 4.000000, 4.000000
112.000000, 0.000000, 4190.256348, 4199.487305, 4205.127930, 4198.974121, 4186.153809, 4188.717773, 4189.230469, 4203.589844, 4220.512695, 4240.000000, 4215.384277, 4201.025391, 4211.794922, 4204.102539, 3478.000000, 8181.000000, 8183.000000, 0.000000, 0.000000, 0.000000, -20550.000000, 192.820511, 4.000000, 4.000000, 4.000000, 4.000000, 4.000000, 4.000000, 4.000000, 4.000000, 4.000000, 4.000000, 4.000000, 4.000000, 4.000000, 4.000000, 4.000000, 4.000000
113.000000, 0.000000, 4187.179199, 4204.615234, 4207.179199, 4201.025391, 4201.538574, 4189.743652, 4189.230469, 4197.436035, 4215.897461, 4234.871582, 4213.333008, 4202.051270, 4210.769043, 4205.641113, 3399.000000, 8176.000000, 8177.000000, 0.000000, 0.000000, 0.000000, -20550.000000, 201.025635, 4.000000, 4.000000, 4.000000, 4.000000, 4.000000, 4.000000, 4.000000, 4.000000, 4.000000, 4.000000, 4.000000, 4.000000, 4.000000, 4.000000, 4.000000, 4.000000
114.000000, 0.000000, 4181.538574, 4198.461426, 4200.512695, 4198.974121, 4217.436035, 4196.410156, 4190.256348, 4194.358887, 4211.794922, 4232.820313, 4203.589844, 4200.000000, 4204.102539, 4204.102539, 3549.000000, 8176.000000, 8177.000000, 0.000000, 0.000000, 0.000000, -20550.000000, 208.717941, 4.000000, 4.000000, 4.000000, 4.000000, 4.000000, 4.000000, 4.000000, 4.000000, 4.000000, 4.000000, 4.000000, 4.000000, 4.000000, 4.000000, 4.000000, 4.000000
115.000000, 0.000000, 4181.538574, 4192.307617, 4193.333008, 4190.769043, 4208.717773, 4201.538574, 4197.436035, 4204.102539, 4215.384277, 4232.307617, 4200.512695, 4191.281738, 4198.461426, 4199.487305, 400.000000, 8180.000000, 8172.000000, 0.000000, 0.000000, 0.000000, -20550.000000, 216.410248, 4.000000, 4.000000, 4.000000, 4.000000, 4.000000, 4.000000, 4.000000, 4.000000, 4.000000, 4.000000, 4.000000, 4.000000, 4.000000, 4.000000, 4.000000, 4.000000
116.000000, 0.000000, 4177.436035, 4194.358887, 4194.871582, 4189.230469, 4204.102539, 4202.563965, 4202.563965, 4208.717773, 4217.436035, 4237.948730, 4208.205078, 4191.794922, 4207.179199, 4204.102539, 3478.000000, 8180.000000, 8172.000000, 0.000000, 0.000000, 0.000000, -20550.000000, 224.615372, 4.000000, 4.000000, 4.000000, 4.000000, 4.000000, 4.000000, 4.000000, 4.000000, 4.000000, 4.000000, 4.000000, 4.000000, 4.000000, 4.000000, 4.000000, 4.000000
117.000000, 0.000000, 4184.102539, 4201.538574, 4202.051270, 4198.974121, 4213.333008, 4203.589844, 4200.512695, 4198.461426, 4215.384277, 4249.230469, 4214.358887, 4196.922852, 4215.384277, 4204.615234, 3399.000000, 8176.000000, 8173.000000, 0.000000, 0.000000, 0.000000, -20550.000000, 232.307693, 4.000000, 4.000000, 4.000000, 4.000000, 4.000000, 4.000000, 4.000000, 4.000000, 4.000000, 4.000000, 4.000000, 4.000000, 4.000000, 4.000000, 4.000000, 4.000000
118.000000, 0.000000, 4181.025391, 4199.487305, 4198.974121, 4197.436035, 4208.205078, 4201.538574, 4197.436035, 4191.794922, 4208.205078, 4248.717773, 4206.153809, 4188.717773, 4205.641113, 4207.179199, 3549.000000, 8176.000000, 8173.000000, 0.000000, 0.000000, 0.000000, -20550.000000, 240.000000, 4.000000, 4.000000, 4.000000, 4.000000, 4.000000, 4.000000, 4.000000, 4.000000, 4.000000, 4.000000, 4.000000, 4.000000, 4.000000, 4.000000, 4.000000, 4.000000
119.000000, 0.000000, 4173.846191, 4190.256348, 4191.281738, 4186.153809, 4192.820313, 4195.897461, 4187.179199, 4197.436035, 4200.512695, 4236.410156, 4192.820313, 4178.461426, 4196.410156, 4206.153809, 400.000000, 8185.000000, 8171.000000, 0.000000, 0.000000, 0.000000, -20550.000000, 247.692307, 4.000000, 4.000000, 4.000000, 4.000000, 4.000000, 4.000000, 4.000000, 4.000000, 4.000000, 4.000000, 4.000000, 4.000000, 4.000000, 4.000000, 4.000000, 4.000000
120.000000, 0.000000, 4180.000000, 4192.307617, 4192.820313, 4190.256348, 4199.487305, 4195.384277, 4181.025391, 4206.153809, 4204.102539, 4234.871582, 4194.871582, 4181.538574, 4203.076660, 4203.076660, 3478.000000, 8185.000000, 8171.000000, 0.000000, 0.000000, 0.000000, -20550.000000, 255.897430, 4.000000, 4.000000, 4.000000, 4.000000, 4.000000, 4.000000, 4.000000, 4.000000, 4.000000, 4.000000, 4.000000, 4.000000, 4.000000, 4.000000, 4.000000, 4.000000
121.000000, 0.000000, 4180.000000, 4198.974121, 4195.384277, 4198.461426, 4212.307617, 4199.487305, 4194.871582, 4216.410156, 4216.410156, 4247.692383, 4203.589844, 4192.307617, 4210.769043, 4207.179199, 3399.000000, 8186.000000, 8174.000000, 0.000000, 0.000000, 0.000000, -20550.000000, 263.589752, 4.000000, 4.000000, 4.000000, 4.000000, 4.000000, 4.000000, 4.000000, 4.000000, 4.000000, 4.000000, 4.000000, 4.000000, 4.000000, 4.000000, 4.000000, 4.000000
122.000000, 0.000000, 4182.563965, 4194.358887, 4194.871582, 4193.846191, 4209.230469, 4202.051270, 4201.025391, 4219.487305, 4223.589844, 4253.846191, 4205.641113, 4195.897461, 4211.281738, 4203.589844, 3549.000000, 8186.000000, 8174.000000, 0.000000, 0.000000, 0.000000, -20550.000000, 271.282043, 4.000000, 4.000000, 4.000000, 4.000000, 4.000000, 4.000000, 4.000000, 4.000000, 4.000000, 4.000000, 4.000000, 4.000000, 4.000000, 4.000000, 4.000000, 4.000000
123.000000, 0.000000, 4180.000000, 4187.692383, 4196.922852, 4190.256348, 4201.025391, 4198.461426, 4191.281738, 4209.743652, 4217.948730, 4241.025391, 4198.974121, 4190.769043, 4206.666504, 4204.615234, 400.000000, 8184.000000, 8175.000000, 0.000000, 0.000000, 0.000000, -20550.000000, 278.974365, 4.000000, 4.000000, 4.000000, 4.000000, 4.000000, 4.000000, 4.000000, 4.000000, 4.000000, 4.000000, 4.000000, 4.000000, 4.000000, 4.000000, 4.000000, 4.000000
124.000000, 0.000000, 4175.897461, 4189.743652, 4196.922852, 4190.256348, 4208.717773, 4199.487305, 4194.358887, 4200.000000, 4207.179199, 4217.436035, 4185.127930, 4183.589844, 4191.794922, 4206.666504, 3478.000000, 8184.000000, 8175.000000, 0.000000, 0.000000, 0.000000, -20550.000000, 287.179474, 4.000000, 4.000000, 4.000000, 4.000000, 4.000000, 4.000000, 4.000000, 4.000000, 4.000000, 4.000000, 4.000000, 4.000000, 4.000000, 4.000000, 4.000000, 4.000000
125.000000, 0.000000, 4178.461426, 4188.717773, 4189.743652, 4186.666504, 4219.487305, 4210.769043, 4207.692383, 4192.820313, 4194.871582, 4204.102539, 4172.820313, 4176.922852, 4174.358887, 4202.051270, 3399.000000, 8190.000000, 8171.000000, 0.000000, 0.000000, 0.000000, -20550.000000, 294.871796, 4.000000, 4.000000, 4.000000, 4.000000, 4.000000, 4.000000, 4.000000, 4.000000, 4.000000, 4.000000, 4.000000, 4.000000, 4.000000, 4.000000, 4.000000, 4.000000
126.000000, 0.000000, 4167.179199, 4181.025391, 4183.076660, 4184.102539, 4205.641113, 4211.281738, 4202.051270, 4179.487305, 4184.102539, 4204.102539, 4167.692383, 4169.743652, 4165.127930, 4203.589844, 3549.000000, 8190.000000, 8171.000000, 0.000000, 0.000000, 0.000000, -20550.000000, 303.076904, 4.000000, 4.000000, 4.000000, 4.000000, 4.000000, 4.000000, 4.000000, 4.000000, 4.000000, 4.000000, 4.000000, 4.000000, 4.000000, 4.000000, 4.000000, 4.000000
127.000000, 0.000000, 4166.153809, 4180.000000, 4187.179199, 4183.076660, 4191.794922, 4201.538574, 4186.153809, 4176.410156, 4187.692383, 4214.358887, 4170.256348, 4167.179199, 4167.692383, 4199.487305, 54.000000, 8193.000000, 8169.000000, 0.000000, 0.000000, 0.000000, -20550.000000, 310.769226, 4.000000, 4.000000, 4.000000, 4.000000, 4.000000, 4.000000, 4.000000, 4.000000, 4.000000, 4.000000, 4.000000, 4.000000, 4.000000, 4.000000, 4.000000, 4.000000
0.000000, 0.000000, 4171.794922, 4183.076660, 4197.948730, 4182.051270, 4204.102539, 4198.974121, 4186.666504, 4187.179199, 4200.000000, 4228.205078, 4180.512695, 4177.948730, 4180.000000, 4201.025391, 3358.000000, 8193.000000, 8169.000000, 0.000000, 0.000000, 0.000000, -20550.000000, 318.461517, 4.000000, 4.000000, 4.000000, 4.000000, 4.000000, 4.000000, 4.000000, 4.000000, 4.000000, 4.000000, 4.000000, 4.000000, 4.000000, 4.000000, 4.000000, 4.000000
1.000000, 0.000000, 4179.487305, 4190.769043, 4211.281738, 4190.769043, 4218.974121, 4198.461426, 4190.769043, 4190.769043, 4201.538574, 4232.820313, 4194.871582, 4192.820313, 4196.922852, 4207.179199, 3513.000000, 8201.000000, 8170.000000, 0.000000, 0.000000, 0.000000, -20550.000000, 326.666656, 4.000000, 4.000000, 4.000000, 4.000000, 4.000000, 4.000000, 4.000000, 4.000000, 4.000000, 4.000000, 4.000000, 4.000000, 4.000000, 4.000000, 4.000000, 4.000000
2.000000, 0.000000, 4196.922852, 4203.589844, 4220.512695, 4204.615234, 4218.461426, 4194.871582, 4185.641113, 4183.589844, 4196.922852, 4230.769043, 4205.127930, 4201.025391, 4213.846191, 4205.641113, 2514.000000, 8201.000000, 8170.000000, 0.000000, 0.000000, 0.000000, -20550.000000, 334.358978, 4.000000, 4.000000, 4.000000, 4.000000, 4.000000, 4.000000, 4.000000, 4.000000, 4.000000, 4.000000, 4.000000, 4.000000, 4.000000, 4.000000, 4.000000, 4.000000
3.000000, 0.000000, 4195.897461, 4206.153809, 4214.358887, 4206.153809, 4217.436035, 4196.922852, 4186.666504, 4185.127930, 4197.948730, 4232.820313, 4204.615234, 4202.051270, 4220.000000, 4207.692383, 2461.000000, 8205.000000, 8167.000000, 0.000000, 0.000000, 0.000000, -20550.000000, 342.051270, 4.000000, 4.000000, 4.000000, 4.000000, 4.000000, 4.000000, 4.000000, 4.000000, 4.000000, 4.000000, 4.000000, 4.000000, 4.000000, 4.000000, 4.000000, 4.000000
4.000000, 0.000000, 4190.769043, 4202.563965, 4204.615234, 4202.051270, 4226.666504, 4203.076660, 4192.820313, 4194.871582, 4200.512695, 4232.307617, 4203.076660, 4199.487305, 4217.948730, 4204.615234, 3451.000000, 8205.000000, 8167.000000, 0.000000, 0.000000, 0.000000, -20550.000000, 350.256409, 4.000000, 4.000000, 4.000000, 4.000000, 4.000000, 4.000000, 4.000000, 4.000000, 4.000000, 4.000000, 4.000000, 4.000000, 4.000000, 4.000000, 4.000000, 4.000000
5.000000, 0.000000, 4190.256348, 4202.563965, 4201.538574, 4202.563965, 4221.025391, 4201.538574, 4190.256348, 4193.846191, 4201.538574, 4225.641113, 4206.666504, 4198.461426, 4215.384277, 4205.127930, 3541.000000, 8206.000000, 8166.000000, 0.000000, 0.000000, 0.000000, -20550.000000, 357.948700, 4.000000, 4.000000, 4.000000, 4.000000, 4.000000, 4.000000, 4.000000, 4.000000, 4.000000, 4.000000, 4.000000, 4.000000, 4.000000, 4.000000, 4.000000, 4.000000
6.000000, 0.000000, 4184.102539, 4199.487305, 4197.436035, 4198.461426, 4204.102539, 4199.487305, 4189.230469, 4184.615234, 4198.974121, 4227.692383, 4205.127930, 4196.922852, 4208.717773, 4206.666504, 3342.000000, 8206.000000, 8166.000000, 0.000000, 0.000000, 0.000000, -20550.000000, 365.641022, 4.000000, 4.000000, 4.000000, 4.000000, 4.000000, 4.000000, 4.000000, 4.000000, 4.000000, 4.000000, 4.000000, 4.000000, 4.000000, 4.000000, 4.000000, 4.000000
7.000000, 0.000000, 4184.102539, 4193.333008, 4193.846191, 4192.307617, 4205.127930, 4201.538574, 4196.410156, 4191.281738, 4204.615234, 4235.384277, 4198.461426, 4187.692383, 4202.051270, 4201.025391, 3514.000000, 8210.000000, 8166.000000, 0.000000, 0.000000, 0.000000, -20550.000000, 373.846130, 4.000000, 4.000000, 4.000000, 4.000000, 4.000000, 4.000000, 4.000000, 4.000000, 4.000000, 4.000000, 4.000000, 4.000000, 4.000000, 4.000000, 4.000000, 4.000000
8.000000, 0.000000, 4182.051270, 4195.897461, 4196.410156, 4193.846191, 4218.461426, 4203.076660, 4199.487305, 4203.589844, 4217.436035, 4240.000000, 4200.000000, 4184.615234, 4205.641113, 4207.692383, 3743.000000, 8210.000000, 8166.000000, 0.000000, 0.000000, 0.000000, -20550.000000, 381.538452, 4.000000, 4.000000, 4.000000, 4.000000, 4.000000, 4.000000, 4.000000, 4.000000, 4.000000, 4.000000, 4.000000, 4.000000, 4.000000, 4.000000, 4.000000, 4.000000
9.000000, 0.000000, 4186.153809, 4197.948730, 4202.051270, 4196.410156, 4219.487305, 4202.563965, 4195.897461, 4202.563965, 4213.333008, 4244.615234, 4204.615234, 4192.820313, 4211.794922, 4208.717773, 3536.000000, 8208.000000, 8162.000000, 0.000000, 0.000000, 0.000000, -20550.000000, 389.743591, 4.000000, 4.000000, 4.000000, 4.000000, 4.000000, 4.000000, 4.000000, 4.000000, 4.000000, 4.000000, 4.000000, 4.000000, 4.000000, 4.000000, 4.000000, 4.000000
10.000000, 0.000000, 4187.692383, 4195.384277, 4201.538574, 4193.333008, 4209.230469, 4202.563965, 4196.410156, 4199.487305, 4203.589844, 4244.102539, 4203.589844, 4197.948730, 4209.230469, 4205.127930, 3549.000000, 8208.000000, 8162.000000, 0.000000, 0.000000, 0.000000, -20550.000000, 397.435883, 4.000000, 4.000000, 4.000000, 4.000000, 4.000000, 4.000000, 4.000000, 4.000000, 4.000000, 4.000000, 4.000000, 4.000000, 4.000000, 4.000000, 4.000000, 4.000000
11.000000, 0.000000, 4178.974121, 4192.820313, 4198.461426, 4187.692383, 4213.333008, 4197.436035, 4201.025391, 4196.922852, 4203.076660, 4230.256348, 4196.410156, 4197.948730, 4202.051270, 4206.153809, 398.000000, 8197.000000, 8162.000000, 0.000000, 0.000000, 0.000000, -20550.000000, 405.128204, 4.000000, 4.000000, 4.000000, 4.000000, 4.000000, 4.000000, 4.000000, 4.000000, 4.000000, 4.000000, 4.000000, 4.000000, 4.000000, 4.000000, 4.000000, 4.000000
12.000000, 0.000000, 4185.641113, 4192.820313, 4201.025391, 4188.717773, 4219.487305, 4191.794922, 4196.922852, 4190.769043, 4202.563965, 4220.000000, 4195.897461, 4198.461426, 4202.563965, 4204.102539, 3478.000000, 8197.000000, 8162.000000, 0.000000, 0.000000, 0.000000, -20550.000000, 413.333313, 4.000000, 4.000000, 4.000000, 4.000000, 4.000000, 4.000000, 4.000000, 4.000000, 4.000000, 4.000000, 4.000000, 4.000000, 4.000000, 4.000000, 4.000000, 4.000000
13.000000, 0.000000, 4190.256348, 4194.358887, 4208.717773, 4195.897461, 4208.205078, 4193.846191, 4190.769043, 4194.358887, 4206.153809, 4222.051270, 4206.666504, 4206.153809, 4211.281738, 4208.205078, 3397.000000, 8193.000000, 8163.000000, 0.000000, 0.000000, 0.000000, -20550.000000, 421.025635, 4.000000, 4.000000, 4.000000, 4.000000, 4.000000, 4.000000, 4.000000, 4.000000, 4.000000, 4.000000, 4.000000, 4.000000, 4.000000, 4.000000, 4.000000, 4.000000
14.000000, 0.000000, 4193.846191, 4198.974121, 4218.461426, 4202.051270, 4205.641113, 4198.974121, 4195.897461, 4210.769043, 4217.948730, 4224.102539, 4213.846191, 4208.717773, 4216.410156, 4205.127930, 3549.000000, 8193.000000, 8163.000000, 0.000000, 0.000000, 0.000000, -20550.000000, 428.717926, 4.000000, 4.000000, 4.000000, 4.000000, 4.000000, 4.000000, 4.000000, 4.000000, 4.000000, 4.000000, 4.000000, 4.000000, 4.000000, 4.000000, 4.000000, 4.000000
15.000000, 0.000000, 4198.461426, 4203.076660, 4221.025391, 4202.051270, 4219.487305, 4196.922852, 4200.512695, 4215.384277, 4222.051270, 4231.281738, 4216.410156, 4208.205078, 4215.384277, 4202.051270, 398.000000, 8183.000000, 8173.000000, 0.000000, 0.000000, 0.000000, -20550.000000, 436.410248, 4.000000, 4.000000, 4.000000, 4.000000, 4.000000, 4.000000, 4.000000, 4.000000, 4.000000, 4.000000, 4.000000, 4.000000, 4.000000, 4.000000, 4.000000, 4.000000
16.000000, 0.000000, 4194.871582, 4202.051270, 4218.974121, 4198.974121, 4218.974121, 4190.256348, 4191.794922, 4205.641113, 4212.820313, 4236.410156, 4215.384277, 4213.333008, 4214.358887, 4206.666504, 0.000000, 8183.000000, 8173.000000, 0.000000, 0.000000, 0.000000, -20550.000000, 444.615387, 4.000000, 4.000000, 4.000000, 4.000000, 4.000000, 4.000000, 4.000000, 4.000000, 4.000000, 4.000000, 4.000000, 4.000000, 4.000000, 4.000000, 4.000000, 4.000000
17.000000, 0.000000, 4196.922852, 4200.512695, 4217.948730, 4195.897461, 4201.538574, 4184.102539, 4185.641113, 4198.974121, 4198.974121, 4225.641113, 4206.666504, 4214.358887, 4212.307617, 4203.076660, 0.000000, 8175.000000, 8173.000000, 0.000000, 0.000000, 0.000000, -20550.000000, 452.307678, 4.000000, 4.000000, 4.000000, 4.000000, 4.000000, 4.000000, 4.000000, 4.000000, 4.000000, 4.000000, 4.000000, 4.000000, 4.000000, 4.000000, 4.000000, 4.000000
18.000000, 0.000000, 4193.846191, 4198.461426, 4216.922852, 4197.948730, 4207.179199, 4187.179199, 4195.384277, 4198.461426, 4192.820313, 4219.487305, 4206.666504, 4212.307617, 4211.794922, 4206.666504, 0.000000, 8175.000000, 8173.000000, 0.000000, 0.000000, 0.000000, -20550.000000, 460.000000, 4.000000, 4.000000, 4.000000, 4.000000, 4.000000, 4.000000, 4.000000, 4.000000, 4.000000, 4.000000, 4.000000, 4.000000, 4.000000, 4.000000, 4.000000, 4.000000
19.000000, 0.000000, 4198.974121, 4195.384277, 4218.974121, 4198.974121, 4214.358887, 4194.871582, 4203.076660, 4198.974121, 4197.948730, 4226.666504, 4213.846191, 4212.307617, 4212.307617, 4207.692383, 0.000000, 8169.000000, 8175.000000, 0.000000, 0.000000, 0.000000, -20550.000000, 468.205109, 4.000000, 4.000000, 4.000000, 4.000000, 4.000000, 4.000000, 4.000000, 4.000000, 4.000000, 4.000000, 4.000000, 4.000000, 4.000000, 4.000000, 4.000000, 4.000000
20.000000, 0.000000, 4203.589844, 4193.333008, 4222.051270, 4194.871582, 4190.769043, 4191.281738, 4196.922852, 4197.948730, 4202.051270, 4221.538574, 4207.179199, 4208.717773, 4208.205078, 4204.102539, 0.000000, 8169.000000, 8175.000000, 0.000000, 0.000000, 0.000000, -20550.000000, 475.897430, 4.000000, 4.000000, 4.000000, 4.000000, 4.000000, 4.000000, 4.000000, 4.000000, 4.000000, 4.000000, 4.000000, 4.000000, 4.000000, 4.000000, 4.000000, 4.000000
21.000000, 0.000000, 4194.358887, 4192.307617, 4221.025391, 4196.922852, 4187.179199, 4188.205078, 4194.871582, 4200.000000, 4201.025391, 4213.846191, 4200.000000, 4202.051270, 4201.025391, 4207.179199, 0.000000, 8164.000000, 8180.000000, 0.000000, 0.000000, 0.000000, -20550.000000, 484.102539, 4.000000, 4.000000, 4.000000, 4.000000, 4.000000, 4.000000, 4.000000, 4.000000, 4.000000, 4.000000, 4.000000, 4.000000, 4.000000, 4.000000, 4.000000, 4.000000
22.000000, 0.000000, 4195.897461, 4192.307617, 4218.974121, 4201.538574, 4213.846191, 4194.871582, 4197.436035, 4196.922852, 4199.487305, 4218.974121, 4201.025391, 4197.436035, 4200.512695, 4202.563965, 0.000000, 8164.000000, 8180.000000, 0.000000, 0.000000, 0.000000, -20550.000000, 491.794861, 4.000000, 4.000000, 4.000000, 4.000000, 4.000000, 4.000000, 4.000000, 4.000000, 4.000000, 4.000000, 4.000000, 4.000000, 4.000000, 4.000000, 4.000000, 4.000000
23.000000, 0.000000, 4194.358887, 4194.358887, 4217.436035, 4198.461426, 4222.051270, 4198.974121, 4193.333008, 4188.717773, 4196.410156, 4213.333008, 4195.897461, 4196.922852, 4202.563965, 4203.076660, 0.000000, 8164.000000, 8178.000000, 0.000000, 0.000000, 0.000000, -20550.000000, 499.487152, 4.000000, 4.000000, 4.000000, 4.000000, 4.000000, 4.000000, 4.000000, 4.000000, 4.000000, 4.000000, 4.000000, 4.000000, 4.000000, 4.000000, 4.000000, 4.000000
24.000000, 0.000000, 4192.820313, 4198.461426, 4216.410156, 4200.512695, 4211.794922, 4197.436035, 4188.717773, 4185.641113, 4194.871582, 4203.589844, 4193.333008, 4199.487305, 4199.487305, 4205.641113, 0.000000, 8164.000000, 8178.000000, 0.000000, 0.000000, 0.000000, -20550.000000, 507.692291, 4.000000, 4.000000, 4.000000, 4.000000, 4.000000, 4.000000, 4.000000, 4.000000, 4.000000, 4.000000, 4.000000, 4.000000, 4.000000, 4.000000, 4.000000, 4.000000
25.000000, 0.000000, 4200.000000, 4198.974121, 4217.436035, 4205.127930, 4214.871582, 4197.436035, 4188.717773, 4187.692383, 4197.948730, 4205.641113, 4201.538574, 4206.666504, 4199.487305, 4204.615234, 0.000000, 8168.000000, 8177.000000, 0.000000, 0.000000, 0.000000, -20550.000000, 515.384583, 4.000000, 4.000000, 4.000000, 4.000000, 4.000000, 4.000000, 4.000000, 4.000000, 4.000000, 4.000000, 4.000000, 4.000000, 4.000000, 4.000000, 4.000000, 4.000000
26.000000, 0.000000, 4194.358887, 4194.358887, 4211.794922, 4200.512695, 4220.000000, 4201.538574, 4190.256348, 4191.281738, 4199.487305, 4201.538574, 4204.615234, 4207.692383, 4199.487305, 4208.717773, 0.000000, 8168.000000, 8177.000000, 0.000000, 0.000000, 0.000000, -20550.000000, 523.076904, 4.000000, 4.000000, 4.000000, 4.000000, 4.000000, 4.000000, 4.000000, 4.000000, 4.000000, 4.000000, 4.000000, 4.000000, 4.000000, 4.000000, 4.000000, 4.000000
27.000000, 0.000000, 4189.743652, 4188.717773, 4203.076660, 4196.922852, 4208.205078, 4196.922852, 4191.281738, 4193.333008, 4196.922852, 4197.436035, 4197.436035, 4196.922852, 4193.333008, 4203.589844, 0.000000, 8175.000000, 8172.000000, 0.000000, 0.000000, 0.000000, -20550.000000, 530.769226, 4.000000, 4.000000, 4.000000, 4.000000, 4.000000, 4.000000, 4.000000, 4.000000, 4.000000, 4.000000, 4.000000, 4.000000, 4.000000, 4.000000, 4.000000, 4.000000
28.000000, 0.000000, 4185.127930, 4185.641113, 4197.436035, 4194.871582, 4194.871582, 4189.230469, 4192.820313, 4190.256348, 4194.358887, 4200.512695, 4187.692383, 4188.205078, 4184.615234, 4202.051270, 0.000000, 8175.000000, 8172.000000, 0.000000, 0.000000, 0.000000, -20550.000000, 538.974365, 4.000000, 4.000000, 4.000000, 4.000000, 4.000000, 4.000000, 4.000000, 4.000000, 4.000000, 4.000000, 4.000000, 4.000000, 4.000000, 4.000000, 4.000000, 4.000000
29.000000, 0.000000, 4180.512695, 4186.153809, 4188.717773, 4189.743652, 4198.974121, 4191.281738, 4192.820313, 4185.127930, 4189.230469, 4196.410156, 4184.102539, 4184.102539, 4181.025391, 4202.563965, 0.000000, 8179.000000, 8176.000000, 0.000000, 0.000000, 0.000000, -20550.000000, 547.179443, 4.000000, 4.000000, 4.000000, 4.000000, 4.000000, 4.000000, 4.000000, 4.000000, 4.000000, 4.000000, 4.000000, 4.000000, 4.000000, 4.000000, 4.000000, 4.000000
30.000000, 0.000000, 4185.127930, 4187.692383, 4188.717773, 4187.179199, 4207.692383, 4197.436035, 4197.948730, 4184.615234, 4182.563965, 4201.538574, 4186.666504, 4179.487305, 4180.512695, 4198.974121, 0.000000, 8179.000000, 8176.000000, 0.000000, 0.000000, 0.000000, -20550.000000, 554.871765, 4.000000, 4.000000, 4.000000, 4.000000, 4.000000, 4.000000, 4.000000, 4.000000, 4.000000, 4.000000, 4.000000, 4.000000, 4.000000, 4.000000, 4.000000, 4.000000
31.000000, 0.000000, 4182.563965, 4186.153809, 4193.846191, 4186.666504, 4202.051270, 4198.974121, 4204.102539, 4189.230469, 4188.205078, 4215.897461, 4188.717773, 4181.025391, 4183.076660, 4202.563965, 0.000000, 8183.000000, 8176.000000, 0.000000, 0.000000, 0.000000, -20550.000000, 562.564087, 4.000000, 4.000000, 4.000000, 4.000000, 4.000000, 4.000000, 4.000000, 4.000000, 4.000000, 4.000000, 4.000000, 4.000000, 4.000000, 4.000000, 4.000000, 4.000000
32.000000, 0.000000, 4187.179199, 4186.666504, 4193.846191, 4187.179199, 4206.153809, 4199.487305, 4202.563965, 4196.410156, 4205.641113, 4221.538574, 4189.743652, 4188.205078, 4190.256348, 4201.025391, 0.000000, 8183.000000, 8176.000000, 0.000000, 0.000000, 0.000000, -20550.000000, 570.256409, 4.000000, 4.000000, 4.000000, 4.000000, 4.000000, 4.000000, 4.000000, 4.000000, 4.000000, 4.000000, 4.000000, 4.000000, 4.000000, 4.000000, 4.000000, 4.000000
33.000000, 0.000000, 4190.769043, 4193.846191, 4194.358887, 4192.820313, 4215.897461, 4201.025391, 4201.025391, 4197.948730, 4211.281738, 4229.743652, 4194.871582, 4191.794922, 4191.794922, 4202.051270, 0.000000, 8187.000000, 8171.000000, 0.000000, 0.000000, 0.000000, -20550.000000, 578.461548, 4.000000, 4.000000, 4.000000, 4.000000, 4.000000, 4.000000, 4.000000, 4.000000, 4.000000, 4.000000, 4.000000, 4.000000, 4.000000, 4.000000, 4.000000, 4.000000
34.000000, 0.000000, 4189.743652, 4194.358887, 4197.436035, 4196.410156, 4203.076660, 4198.974121, 4201.025391, 4193.846191, 4203.589844, 4235.384277, 4199.487305, 4189.230469, 4189.743652, 4205.127930, 0.000000, 8187.000000, 8171.000000, 0.000000, 0.000000, 0.000000, -20550.000000, 586.153809, 4.000000, 4.000000, 4.000000, 4.000000, 4.000000, 4.000000, 4.000000, 4.000000, 4.000000, 4.000000, 4.000000, 4.000000, 4.000000, 4.000000, 4.000000, 4.000000
35.000000, 0.000000, 4198.461426, 4188.205078, 4198.461426, 4196.922852, 4198.461426, 4198.974121, 4201.025391, 4204.102539, 4206.666504, 4227.692383, 4198.974121, 4193.333008, 4196.410156, 4203.076660, 0.000000, 8185.000000, 8184.000000, 0.000000, 0.000000, 0.000000, -20550.000000, 593.846130, 4.000000, 4.000000, 4.000000, 4.000000, 4.000000, 4.000000, 4.000000, 4.000000, 4.000000, 4.000000, 4.000000, 4.000000, 4.000000, 4.000000, 4.000000, 4.000000
36.000000, 0.000000, 4196.922852, 4187.179199, 4194.358887, 4194.358887, 4214.871582, 4202.051270, 4205.127930, 4218.461426, 4210.769043, 4225.127930, 4199.487305, 4201.538574, 4202.563965, 4205.127930, 0.000000, 8185.000000, 8184.000000, 0.000000, 0.000000, 0.000000, -20550.000000, 602.051270, 4.000000, 4.000000, 4.000000, 4.000000, 4.000000, 4.000000, 4.000000, 4.000000, 4.000000, 4.000000, 4.000000, 4.000000, 4.000000, 4.000000, 4.000000, 4.000000
37.000000, 0.000000, 4194.358887, 4191.281738, 4191.281738, 4192.820313, 4211.794922, 4202.051270, 4207.179199, 4218.974121, 4210.256348, 4232.307617, 4200.000000, 4197.436035, 4194.871582, 4199.487305, 0.000000, 8193.000000, 8178.000000, 0.000000, 0.000000, 0.000000, -20550.000000, 609.743591, 4.000000, 4.000000, 4.000000, 4.000000, 4.000000, 4.000000, 4.000000, 4.000000, 4.000000, 4.000000, 4.000000, 4.000000, 4.000000, 4.000000, 4.000000, 4.000000
38.000000, 0.000000, 4191.794922, 4188.717773, 4190.256348, 4193.846191, 4197.436035, 4200.000000, 4205.127930, 4215.897461, 4215.384277, 4237.436035, 4195.384277, 4188.717773, 4187.179199, 4198.461426, 0.000000, 8193.000000, 8178.000000, 0.000000, 0.000000, 0.000000, -20550.000000, 617.948730, 4.000000, 4.000000, 4.000000, 4.000000, 4.000000, 4.000000, 4.000000, 4.000000, 4.000000, 4.000000, 4.000000, 4.000000, 4.000000, 4.000000, 4.000000, 4.000000
39.000000, 0.000000, 4187.692383, 4186.153809, 4188.205078, 4195.897461, 4202.051270, 4201.538574, 4208.205078, 4220.000000, 4222.051270, 4236.922852, 4188.205078, 4184.615234, 4191.281738, 4204.102539, 0.000000, 8197.000000, 8180.000000, 0.000000, 0.000000, 0.000000, -20550.000000, 625.640991, 4.000000, 4.000000, 4.000000, 4.000000, 4.000000, 4.000000, 4.000000, 4.000000, 4.000000, 4.000000, 4.000000, 4.000000, 4.000000, 4.000000, 4.000000, 4.000000
40.000000, 0.000000, 4193.846191, 4189.230469, 4189.743652, 4192.820313, 4209.230469, 4203.589844, 4212.820313, 4219.487305, 4217.948730, 4225.641113, 4187.692383, 4183.076660, 4196.410156, 4204.615234, 0.000000, 8197.000000, 8180.000000, 0.000000, 0.000000, 0.000000, -20550.000000, 633.846130, 4.000000, 4.000000, 4.000000, 4.000000, 4.000000, 4.000000, 4.000000, 4.000000, 4.000000, 4.000000, 4.000000, 4.000000, 4.000000, 4.000000, 4.000000, 4.000000
41.000000, 0.000000, 4189.743652, 4186.153809, 4187.692383, 4188.205078, 4201.025391, 4195.897461, 4207.179199, 4206.666504, 4205.127930, 4211.281738, 4186.153809, 4180.000000, 4189.230469, 4206.666504, 0.000000, 8199.000000, 8184.000000, 0.000000, 0.000000, 0.000000, -20550.000000, 641.538452, 4.000000, 4.000000, 4.000000, 4.000000, 4.000000, 4.000000, 4.000000, 4.000000, 4.000000, 4.000000, 4.000000, 4.000000, 4.000000, 4.000000, 4.000000, 4.000000
42.000000, 0.000000, 4189.743652, 4183.589844, 4185.127930, 4189.743652, 4193.846191, 4188.717773, 4196.922852, 4194.358887, 4197.948730, 4204.615234, 4181.538574, 4175.384277, 4184.102539, 4202.563965, 0.000000, 8199.000000, 8184.000000, 0.000000, 0.000000, 0.000000, -20550.000000, 649.743591, 4.000000, 4.000000, 4.000000, 4.000000, 4.000000, 4.000000, 4.000000, 4.000000, 4.000000, 4.000000, 4.000000, 4.000000, 4.000000, 4.000000, 4.000000, 4.000000
43.000000, 0.000000, 4196.922852, 4194.358887, 4188.205078, 4197.436035, 4205.641113, 4197.436035, 4201.025391, 4200.512695, 4198.974121, 4204.102539, 4191.281738, 4183.076660, 4196.410156, 4205.127930, 0.000000, 8202.000000, 8181.000000, 0.000000, 0.000000, 0.000000, -20550.000000, 657.435852, 4.000000, 4.000000, 4.000000, 4.000000, 4.000000, 4.000000, 4.000000, 4.000000, 4.000000, 4.000000, 4.000000, 4.000000, 4.000000, 4.000000, 4.000000, 4.000000
44.000000, 0.000000, 4196.922852, 4201.538574, 4192.820313, 4203.589844, 4222.563965, 4207.692383, 4212.820313, 4209.743652, 4200.000000, 4206.153809, 4203.076660, 4188.205078, 4203.076660, 4209.743652, 0.000000, 8202.000000, 8181.000000, 0.000000, 0.000000, 0.000000, -20550.000000, 665.640991, 4.000000, 4.000000, 4.000000, 4.000000, 4.000000, 4.000000, 4.000000, 4.000000, 4.000000, 4.000000, 4.000000, 4.000000, 4.000000, 4.000000, 4.000000, 4.000000
45.000000, 0.000000, 4200.512695, 4196.410156, 4192.820313, 4200.000000, 4220.000000, 4205.641113, 4216.410156, 4206.666504, 4200.000000, 4208.717773, 4199.487305, 4182.051270, 4197.948730, 4199.487305, 0.000000, 8207.000000, 8188.000000, 0.000000, 0.000000, 0.000000, -20550.000000, 673.333313, 4.000000, 4.000000, 4.000000, 4.000000, 4.000000, 4.000000, 4.000000, 4.000000, 4.000000, 4.000000, 4.000000, 4.000000, 4.000000, 4.000000, 4.000000, 4.000000
46.000000, 0.000000, 4195.897461, 4193.846191, 4194.871582, 4196.922852, 4212.307617, 4204.102539, 4216.922852, 4209.230469, 4203.076660, 4212.307617, 4198.461426, 4188.717773, 4199.487305, 4200.512695, 0.000000, 8207.000000, 8188.000000, 0.000000, 0.000000, 0.000000, -20550.000000, 681.025635, 4.000000, 4.000000, 4.000000, 4.000000, 4.000000, 4.000000, 4.000000, 4.000000, 4.000000, 4.000000, 4.000000, 4.000000, 4.000000, 4.000000, 4.000000, 4.000000
47.000000, 0.000000, 4197.436035, 4200.000000, 4204.615234, 4204.102539, 4214.871582, 4204.615234, 4216.922852, 4214.358887, 4203.589844, 4211.794922, 4204.102539, 4201.025391, 4203.076660, 4203.076660, 0.000000, 8207.000000, 8184.000000, 0.000000, 0.000000, 0.000000, -20550.000000, 689.230774, 4.000000, 4.000000, 4.000000, 4.000000, 4.000000, 4.000000, 4.000000, 4.000000, 4.000000, 4.000000, 4.000000, 4.000000, 4.000000, 4.000000, 4.000000, 4.000000
48.000000, 0.000000, 4202.051270, 4201.025391, 4204.102539, 4204.102539, 4214.871582, 4200.512695, 4211.794922, 4211.281738, 4205.127930, 4202.563965, 4201.025391, 4195.897461, 4204.615234, 4200.512695, 0.000000, 8207.000000, 8184.000000, 0.000000, 0.000000, 0.000000, -20550.000000, 696.923035, 4.000000, 4.000000, 4.000000, 4.000000, 4.000000, 4.000000, 4.000000, 4.000000, 4.000000, 4.000000, 4.000000, 4.000000, 4.000000, 4.000000, 4.000000, 4.000000
49.000000, 0.000000, 4195.897461, 4197.948730, 4196.922852, 4198.974121, 4215.384277, 4198.461426, 4210.256348, 4214.358887, 4214.871582, 4197.948730, 4201.025391, 4191.794922, 4208.717773, 4203.589844, 0.000000, 8208.000000, 8183.000000, 0.000000, 0.000000, 0.000000, -20550.000000, 705.128174, 4.000000, 4.000000, 4.000000, 4.000000, 4.000000, 4.000000, 4.000000, 4.000000, 4.000000, 4.000000, 4.000000, 4.000000, 4.000000, 4.000000, 4.000000, 4.000000
50.000000, 0.000000, 4201.025391, 4199.487305, 4200.512695, 4198.974121, 4215.384277, 4200.000000, 4212.307617, 4215.384277, 4215.897461, 4206.153809, 4203.076660, 4199.487305, 4208.717773, 4201.538574, 0.000000, 8208.000000, 8183.000000, 0.000000, 0.000000, 0.000000, -20550.000000, 712.820496, 4.000000, 4.000000, 4.000000, 4.000000, 4.000000, 4.000000, 4.000000, 4.000000, 4.000000, 4.000000, 4.000000, 4.000000, 4.000000, 4.000000, 4.000000, 4.000000
51.000000, 0.000000, 4200.512695, 4202.051270, 4202.563965, 4203.076660, 4202.051270, 4199.487305, 4207.179199, 4203.589844, 4206.153809, 4198.461426, 4193.333008, 4197.948730, 4202.051270, 4202.051270, 0.000000, 8204.000000, 8182.000000, 0.000000, 0.000000, 0.000000, -20550.000000, 721.025635, 4.000000, 4.000000, 4.000000, 4.000000, 4.000000, 4.000000, 4.000000, 4.000000, 4.000000, 4.000000, 4.000000, 4.000000, 4.000000, 4.000000, 4.000000, 4.000000
52.000000, 0.000000, 4194.871582, 4196.410156, 4196.410156, 4198.461426, 4195.897461, 4194.358887, 4205.641113, 4197.436035, 4196.410156, 4174.871582, 4185.641113, 4188.205078, 4196.922852, 4201.025391, 0.000000, 8204.000000, 8182.000000, 0.000000, 0.000000, 0.000000, -20550.000000, 728.717957, 4.000000, 4.000000, 4.000000, 4.000000, 4.000000, 4.000000, 4.000000, 4.000000, 4.000000, 4.000000, 4.000000, 4.000000, 4.000000, 4.000000, 4.000000, 4.000000
53.000000, 0.000000, 4194.358887, 4187.179199, 4188.717773, 4188.205078, 4205.127930, 4185.641113, 4210.256348, 4198.974121, 4189.743652, 4166.153809, 4189.743652, 4185.127930, 4190.256348, 4199.487305, 0.000000, 8202.000000, 8184.000000, 0.000000, 0.000000, 0.000000, -20550.000000, 736.923035, 4.000000, 4.000000, 4.000000, 4.000000, 4.000000, 4.000000, 4.000000, 4.000000, 4.000000, 4.000000, 4.000000, 4.000000, 4.000000, 4.000000, 4.000000, 4.000000
54.000000, 0.000000, 4193.846191, 4188.205078, 4186.153809, 4185.641113, 4207.179199, 4182.563965, 4211.281738, 4193.846191, 4190.769043, 4170.256348, 4188.717773, 4185.641113, 4188.205078, 4201.538574, 0.000000, 8202.000000, 8184.000000, 0.000000, 0.000000, 0.000000, -20550.000000, 744.615356, 4.000000, 4.000000, 4.000000, 4.000000, 4.000000, 4.000000, 4.000000, 4.000000, 4.000000, 4.000000, 4.000000, 4.000000, 4.000000, 4.000000, 4.000000, 4.000000
55.000000, 0.000000, 4194.358887, 4185.641113, 4188.205078, 4185.127930, 4198.461426, 4190.256348, 4209.230469, 4195.384277, 4196.922852, 4172.820313, 4183.589844, 4184.615234, 4187.179199, 4197.436035, 0.000000, 8200.000000, 8189.000000, 0.000000, 0.000000, 0.000000, -20550.000000, 752.307678, 4.000000, 4.000000, 4.000000, 4.000000, 4.000000, 4.000000, 4.000000, 4.000000, 4.000000, 4.000000, 4.000000, 4.000000, 4.000000, 4.000000, 4.000000, 4.000000
56.000000, 0.000000, 4185.127930, 4177.436035, 4193.333008, 4188.205078, 4198.974121, 4198.461426, 4210.769043, 4205.641113, 4200.512695, 4170.256348, 4189.230469, 4188.205078, 4181.538574, 4201.538574, 0.000000, 8200.000000, 8189.000000, 0.000000, 0.000000, 0.000000, -20550.000000, 760.512817, 4.000000, 4.000000, 4.000000, 4.000000, 4.000000, 4.000000, 4.000000, 4.000000, 4.000000, 4.000000, 4.000000, 4.000000, 4.000000, 4.000000, 4.000000, 4.000000
57.000000, 0.000000, 4188.205078, 4186.666504, 4200.512695, 4196.410156, 4211.281738, 4199.487305, 4211.794922, 4210.256348, 4205.127930, 4175.384277, 4202.563965, 4193.846191, 4191.794922, 4205.641113, 0.000000, 8200.000000, 8190.000000, 0.000000, 0.000000, 0.000000, -20550.000000, 768.205139, 4.000000, 4.000000, 4.000000, 4.000000, 4.000000, 4.000000, 4.000000, 4.000000, 4.000000, 4.000000, 4.000000, 4.000000, 4.000000, 4.000000, 4.000000, 4.000000
58.000000, 0.000000, 4204.102539, 4202.563965, 4205.127930, 4206.153809, 4218.974121, 4200.512695, 4213.333008, 4214.871582, 4207.179199, 4187.692383, 4215.384277, 4205.127930, 4218.974121, 4203.589844, 0.000000, 8200.000000, 8190.000000, 0.000000, 0.000000, 0.000000, -20550.000000, 776.410217, 4.000000, 4.000000, 4.000000, 4.000000, 4.000000, 4.000000, 4.000000, 4.000000, 4.000000, 4.000000, 4.000000, 4.000000, 4.000000, 4.000000, 4.000000, 4.000000
59.000000, 0.000000, 4199.487305, 4203.076660, 4201.025391, 4210.769043, 4215.384277, 4207.179199, 4217.948730, 4213.846191, 4200.000000, 4180.512695, 4212.820313, 4205.641113, 4219.487305, 4204.102539, 0.000000, 8203.000000, 8194.000000, 0.000000, 0.000000, 0.000000, -20550.000000, 784.102539, 4.000000, 4.000000, 4.000000, 4.000000, 4.000000, 4.000000, 4.000000, 4.000000, 4.000000, 4.000000, 4.000000, 4.000000, 4.000000, 4.000000, 4.000000, 4.000000
60.000000, 0.000000, 4194.358887, 4198.974121, 4194.358887, 4206.666504, 4218.974121, 4214.871582, 4223.076660, 4216.922852, 4205.127930, 4160.512695, 4200.000000, 4189.230469, 4198.461426, 4200.000000, 0.000000, 8203.000000, 8194.000000, 0.000000, 0.000000, 0.000000, -20550.000000, 791.794861, 4.000000, 4.000000, 4.000000, 4.000000, 4.000000, 4.000000, 4.000000, 4.000000, 4.000000, 4.000000, 4.000000, 4.000000, 4.000000, 4.000000, 4.000000, 4.000000
61.000000, 0.000000, 4195.384277, 4203.076660, 4196.410156, 4207.179199, 4222.051270, 4218.461426, 4226.153809, 4228.717773, 4221.538574, 4168.717773, 4203.589844, 4188.205078, 4204.615234, 4205.127930, 0.000000, 8205.000000, 8194.000000, 0.000000, 0.000000, 0.000000, -20550.000000, 800.000000, 4.000000, 4.000000, 4.000000, 4.000000, 4.000000, 4.000000, 4.000000, 4.000000, 4.000000, 4.000000, 4.000000, 4.000000, 4.000000, 4.000000, 4.000000, 4.000000
62.000000, 0.000000, 4198.974121, 4203.076660, 4203.589844, 4211.281738, 4207.692383, 4215.384277, 4218.974121, 4224.102539, 4220.000000, 4189.743652, 4217.436035, 4201.538574, 4224.615234, 4206.666504, 0.000000, 8205.000000, 8194.000000, 0.000000, 0.000000, 0.000000, -20550.000000, 807.692261, 4.000000, 4.000000, 4.000000, 4.000000, 4.000000, 4.000000, 4.000000, 4.000000, 4.000000, 4.000000, 4.000000, 4.000000, 4.000000, 4.000000, 4.000000, 4.000000
63.000000, 0.000000, 4203.589844, 4202.051270, 4204.102539, 4208.205078, 4206.153809, 4209.743652, 4212.307617, 4212.307617, 4214.358887, 4183.589844, 4217.436035, 4201.025391, 4219.487305, 4201.538574, 0.000000, 8206.000000, 8185.000000, 0.000000, 0.000000, 0.000000, -20550.000000, 815.384583, 4.000000, 4.000000, 4.000000, 4.000000, 4.000000, 4.000000, 4.000000, 4.000000, 4.000000, 4.000000, 4.000000, 4.000000, 4.000000, 4.000000, 4.000000, 4.000000
64.000000, 0.000000, 4192.820313, 4198.461426, 4196.922852, 4198.974121, 4218.974121, 4205.127930, 4217.436035, 4214.358887, 4215.384277, 4174.358887, 4206.153809, 4195.897461, 4201.538574, 4207.179199, 3362.000000, 8206.000000, 8185.000000, 0.000000, 0.000000, 0.000000, -20550.000000, 823.589722, 4.000000, 4.000000, 4.000000, 4.000000, 4.000000, 4.000000, 4.000000, 4.000000, 4.000000, 4.000000, 4.000000, 4.000000, 4.000000, 4.000000, 4.000000, 4.000000
65.000000, 0.000000, 4192.820313, 4193.846191, 4194.358887, 4198.461426, 4210.256348, 4201.538574, 4213.846191, 4210.769043, 4204.615234, 4183.076660, 4200.000000, 4193.846191, 4193.333008, 4204.102539, 3513.000000, 8208.000000, 8186.000000, 0.000000, 0.000000, 0.000000, -20550.000000, 831.282043, 4.000000, 4.000000, 4.000000, 4.000000, 4.000000, 4.000000, 4.000000, 4.000000, 4.000000, 4.000000, 4.000000, 4.000000, 4.000000, 4.000000, 4.000000, 4.000000
66.000000, 0.000000, 4195.897461, 4195.384277, 4198.974121, 4201.538574, 4202.563965, 4202.051270, 4204.615234, 4197.948730, 4188.717773, 4185.127930, 4203.076660, 4188.205078, 4192.307617, 4202.563965, 2510.000000, 8208.000000, 8186.000000, 0.000000, 0.000000, 0.000000, -20550.000000, 839.487183, 4.000000, 4.000000, 4.000000, 4.000000, 4.000000, 4.000000, 4.000000, 4.000000, 4.000000, 4.000000, 4.000000, 4.000000, 4.000000, 4.000000, 4.000000, 4.000000
67.000000, 0.000000, 4190.256348, 4192.820313, 4199.487305, 4199.487305, 4207.692383, 4199.487305, 4206.153809, 4198.461426, 4187.179199, 4164.615234, 4197.948730, 4187.179199, 4187.692383, 4205.641113, 2461.000000, 8208.000000, 8182.000000, 0.000000, 0.000000, 0.000000, -20550.000000, 847.179443, 4.000000, 4.000000, 4.000000, 4.000000, 4.000000, 4.000000, 4.000000, 4.000000, 4.000000, 4.000000, 4.000000, 4.000000, 4.000000, 4.000000, 4.000000, 4.000000
68.000000, 0.000000, 4188.717773, 4185.641113, 4192.820313, 4192.820313, 4193.846191, 4188.205078, 4205.641113, 4200.512695, 4185.127930, 4149.743652, 4185.127930, 4188.717773, 4178.461426, 4198.974121, 3522.000000, 8208.000000, 8182.000000, 0.000000, 0.000000, 0.000000, -20550.000000, 854.871765, 4.000000, 4.000000, 4.000000, 4.000000, 4.000000, 4.000000, 4.000000, 4.000000, 4.000000, 4.000000, 4.000000, 4.000000, 4.000000, 4.000000, 4.000000, 4.000000
69.000000, 0.000000, 4182.051270, 4182.051270, 4191.281738, 4183.589844, 4182.563965, 4181.025391, 4200.512695, 4192.820313, 4178.461426, 4160.512695, 4185.641113, 4187.692383, 4173.846191, 4200.512695, 3544.000000, 8217.000000, 8175.000000, 0.000000, 0.000000, 0.000000, -20550.000000, 863.076904, 4.000000, 4.000000, 4.000000, 4.000000, 4.000000, 4.000000, 4.000000, 4.000000, 4.000000, 4.000000, 4.000000, 4.000000, 4.000000, 4.000000, 4.000000, 4.000000
70.000000, 0.000000, 4190.769043, 4187.692383, 4200.000000, 4188.717773, 4203.076660, 4190.769043, 4205.127930, 4197.948730, 4190.256348, 4180.512695, 4197.436035, 4195.897461, 4186.153809, 4202.051270, 3178.000000, 8217.000000, 8175.000000, 0.000000, 0.000000, 0.000000, -20550.000000, 870.769226, 4.000000, 4.000000, 4.000000, 4.000000, 4.000000, 4.000000, 4.000000, 4.000000, 4.000000, 4.000000, 4.000000, 4.000000, 4.000000, 4.000000, 4.000000, 4.000000
71.000000, 0.000000, 4200.512695, 4195.897461, 4201.538574, 4202.051270, 4216.410156, 4200.512695, 4213.333008, 4209.230469, 4205.127930, 4189.743652, 4203.076660, 4205.127930, 4203.076660, 4202.563965, 3513.000000, 8216.000000, 8169.000000, 0.000000, 0.000000, 0.000000, -20550.000000, 878.461487, 4.000000, 4.000000, 4.000000, 4.000000, 4.000000, 4.000000, 4.000000, 4.000000, 4.000000, 4.000000, 4.000000, 4.000000, 4.000000, 4.000000, 4.000000, 4.000000
72.000000, 0.000000, 4198.974121, 4197.436035, 4196.410156, 4201.538574, 4210.769043, 4198.974121, 4211.794922, 4214.358887, 4206.153809, 4182.563965, 4206.153809, 4201.538574, 4200.512695, 4202.563965, 3584.000000, 8216.000000, 8169.000000, 0.000000, 0.000000, 0.000000, -20550.000000, 886.666626, 4.000000, 4.000000, 4.000000, 4.000000, 4.000000, 4.000000, 4.000000, 4.000000, 4.000000, 4.000000, 4.000000, 4.000000, 4.000000, 4.000000, 4.000000, 4.000000
73.000000, 0.000000, 4206.666504, 4199.487305, 4202.051270, 4201.538574, 4216.410156, 4198.461426, 4212.820313, 4226.153809, 4215.384277, 4182.563965, 4216.922852, 4196.410156, 4200.512695, 4203.589844, 3547.000000, 8213.000000, 8168.000000, 0.000000, 0.000000, 0.000000, -20550.000000, 894.358948, 4.000000, 4.000000, 4.000000, 4.000000, 4.000000, 4.000000, 4.000000, 4.000000, 4.000000, 4.000000, 4.000000, 4.000000, 4.000000, 4.000000, 4.000000, 4.000000
74.000000, 0.000000, 4206.153809, 4201.025391, 4205.641113, 4205.641113, 4216.922852, 4203.076660, 4220.000000, 4239.487305, 4232.820313, 4194.358887, 4217.948730, 4197.436035, 4208.717773, 4208.205078, 3549.000000, 8213.000000, 8168.000000, 0.000000, 0.000000, 0.000000, -20550.000000, 902.051270, 4.000000, 4.000000, 4.000000, 4.000000, 4.000000, 4.000000, 4.000000, 4.000000, 4.000000, 4.000000, 4.000000, 4.000000, 4.000000, 4.000000, 4.000000, 4.000000
75.000000, 0.000000, 4197.948730, 4195.897461, 4194.871582, 4197.948730, 4198.461426, 4200.512695, 4215.384277, 4234.358887, 4221.025391, 4191.281738, 4201.538574, 4190.769043, 4197.948730, 4200.512695, 395.000000, 8214.000000, 8166.000000, 0.000000, 0.000000, 0.000000, -20550.000000, 909.743591, 4.000000, 4.000000, 4.000000, 4.000000, 4.000000, 4.000000, 4.000000, 4.000000, 4.000000, 4.000000, 4.000000, 4.000000, 4.000000, 4.000000, 4.000000, 4.000000
76.000000, 0.000000, 4194.358887, 4190.769043, 4191.281738, 4190.769043, 4198.974121, 4202.051270, 4212.820313, 4229.743652, 4207.179199, 4171.281738, 4194.871582, 4185.641113, 4186.153809, 4199.487305, 3478.000000, 8214.000000, 8166.000000, 0.000000, 0.000000, 0.000000, -20550.000000, 917.948669, 4.000000, 4.000000, 4.000000, 4.000000, 4.000000, 4.000000, 4.000000, 4.000000, 4.000000, 4.000000, 4.000000, 4.000000, 4.000000, 4.000000, 4.000000, 4.000000
77.000000, 0.000000, 4197.436035, 4195.897461, 4196.922852, 4195.897461, 4217.436035, 4209.743652, 4221.538574, 4241.025391, 4221.025391, 4164.615234, 4201.538574, 4192.820313, 4194.871582, 4206.666504, 3402.000000, 8213.000000, 8170.000000, 0.000000, 0.000000, 0.000000, -20550.000000, 925.640991, 4.000000, 4.000000, 4.000000, 4.000000, 4.000000, 4.000000, 4.000000, 4.000000, 4.000000, 4.000000, 4.000000, 4.000000, 4.000000, 4.000000, 4.000000, 4.000000
78.000000, 0.000000, 4206.153809, 4201.025391, 4198.974121, 4201.025391, 4217.436035, 4209.743652, 4222.563965, 4241.538574, 4227.692383, 4178.974121, 4204.615234, 4197.948730, 4203.589844, 4202.563965, 3549.000000, 8213.000000, 8170.000000, 0.000000, 0.000000, 0.000000, -20550.000000, 933.846130, 4.000000, 4.000000, 4.000000, 4.000000, 4.000000, 4.000000, 4.000000, 4.000000, 4.000000, 4.000000, 4.000000, 4.000000, 4.000000, 4.000000, 4.000000, 4.000000
79.000000, 0.000000, 4200.000000, 4198.974121, 4195.384277, 4198.974121, 4207.692383, 4207.692383, 4215.384277, 4226.153809, 4214.871582, 4186.666504, 4202.051270, 4192.307617, 4200.512695, 4205.127930, 395.000000, 8199.000000, 8176.000000, 0.000000, 0.000000, 0.000000, -20550.000000, 941.538452, 4.000000, 4.000000, 4.000000, 4.000000, 4.000000, 4.000000, 4.000000, 4.000000, 4.000000, 4.000000, 4.000000, 4.000000, 4.000000, 4.000000, 4.000000, 4.000000
80.000000, 0.000000, 4199.487305, 4198.974121, 4191.794922, 4200.000000, 4216.922852, 4214.358887, 4211.281738, 4216.922852, 4212.307617, 4182.051270, 4195.897461, 4184.615234, 4193.333008, 4205.127930, 3478.000000, 8199.000000, 8176.000000, 0.000000, 0.000000, 0.000000, -20550.000000, 949.230774, 4.000000, 4.000000, 4.000000, 4.000000, 4.000000, 4.000000, 4.000000, 4.000000, 4.000000, 4.000000, 4.000000, 4.000000, 4.000000, 4.000000, 4.000000, 4.000000
81.000000, 0.000000, 4203.076660, 4201.025391, 4193.333008, 4202.051270, 4218.461426, 4218.974121, 4214.358887, 4220.000000, 4219.487305, 4184.615234, 4189.230469, 4183.076660, 4184.102539, 4200.000000, 3402.000000, 8200.000000, 8175.000000, 0.000000, 0.000000, 0.000000, -20550.000000, 957.435852, 4.000000, 4.000000, 4.000000, 4.000000, 4.000000, 4.000000, 4.000000, 4.000000, 4.000000, 4.000000, 4.000000, 4.000000, 4.000000, 4.000000, 4.000000, 4.000000
82.000000, 0.000000, 4195.897461, 4198.461426, 4198.974121, 4203.076660, 4210.769043, 4219.487305, 4223.589844, 4220.512695, 4213.333008, 4196.922852, 4190.769043, 4187.179199, 4187.179199, 4200.000000, 3549.000000, 8200.000000, 8175.000000, 0.000000, 0.000000, 0.000000, -20550.000000, 965.128174, 4.000000, 4.000000, 4.000000, 4.000000, 4.000000, 4.000000, 4.000000, 4.000000, 4.000000, 4.000000, 4.000000, 4.000000, 4.000000, 4.000000, 4.000000, 4.000000
83.000000, 0.000000, 4207.692383, 4204.615234, 4206.153809, 4209.743652, 4225.641113, 4224.615234, 4227.692383, 4208.205078, 4202.051270, 4206.153809, 4198.974121, 4193.333008, 4208.205078, 4200.512695, 395.000000, 8198.000000, 8172.000000, 0.000000, 0.000000, 0.000000, -20550.000000, 972.820496, 4.000000, 4.000000, 4.000000, 4.000000, 4.000000, 4.000000, 4.000000, 4.000000, 4.000000, 4.000000, 4.000000, 4.000000, 4.000000, 4.000000, 4.000000, 4.000000
84.000000, 0.000000, 4215.897461, 4212.307617, 4206.666504, 4214.358887, 4234.358887, 4224.102539, 4223.076660, 4199.487305, 4200.000000, 4193.333008, 4203.076660, 4198.461426, 4220.000000, 4207.692383, 3478.000000, 8198.000000, 8172.000000, 0.000000, 0.000000, 0.000000, -20550.000000, 981.025635, 4.000000, 4.000000, 4.000000, 4.000000, 4.000000, 4.000000, 4.000000, 4.000000, 4.000000, 4.000000, 4.000000, 4.000000, 4.000000, 4.000000, 4.000000, 4.000000
85.000000, 0.000000, 4214.871582, 4209.230469, 4205.127930, 4212.820313, 4219.487305, 4216.410156, 4210.769043, 4204.615234, 4202.051270, 4173.333008, 4202.051270, 4199.487305, 4212.307617, 4203.589844, 3402.000000, 8195.000000, 8178.000000, 0.000000, 0.000000, 0.000000, -20550.000000, 989.230774, 4.000000, 4.000000, 4.000000, 4.000000, 4.000000, 4.000000, 4.000000, 4.000000, 4.000000, 4.000000, 4.000000, 4.000000, 4.000000, 4.000000, 4.000000, 4.000000
86.000000, 0.000000, 4217.436035, 4202.563965, 4210.769043, 4212.820313, 4210.769043, 4208.205078, 4202.563965, 4206.153809, 4198.461426, 4167.179199, 4196.922852, 4202.051270, 4202.563965, 4199.487305, 3549.000000, 8195.000000, 8178.000000, 0.000000, 0.000000, 0.000000, -20550.000000, 996.923035, 4.000000, 4.000000, 4.000000, 4.000000, 4.000000, 4.000000, 4.000000, 4.000000, 4.000000, 4.000000, 4.000000, 4.000000, 4.000000, 4.000000, 4.000000, 4.000000
87.000000, 0.000000, 4213.846191, 4202.051270, 4212.820313, 4212.307617, 4220.512695, 4205.127930, 4207.692383, 4198.974121, 4190.769043, 4169.230469, 4193.333008, 4203.589844, 4196.410156, 4206.666504, 395.000000, 8199.000000, 8184.000000, 0.000000, 0.000000, 0.000000, -20549.000000, 4.615385, 4.000000, 4.000000, 4.000000, 4.000000, 4.000000, 4.000000, 4.000000, 4.000000, 4.000000, 4.000000, 4.000000, 4.000000, 4.000000, 4.000000, 4.000000, 4.000000
88.000000, 0.000000, 4218.461426, 4202.051270, 4207.692383, 4207.179199, 4221.538574, 4208.205078, 4213.846191, 4202.051270, 4192.820313, 4172.307617, 4196.410156, 4195.897461, 4195.384277, 4203.076660, 3478.000000, 8199.000000, 8184.000000, 0.000000, 0.000000, 0.000000, -20549.000000, 12.307692, 4.000000, 4.000000, 4.000000, 4.000000, 4.000000, 4.000000, 4.000000, 4.000000, 4.000000, 4.000000, 4.000000, 4.000000, 4.000000, 4.000000, 4.000000, 4.000000
89.000000, 0.000000, 4218.461426, 4200.512695, 4208.205078, 4207.179199, 4206.666504, 4206.666504, 4215.897461, 4215.384277, 4207.179199, 4182.563965, 4203.589844, 4190.769043, 4206.666504, 4205.127930, 3402.000000, 8200.000000, 8185.000000, 0.000000, 0.000000, 0.000000, -20549.000000, 20.512819, 4.000000, 4.000000, 4.000000, 4.000000, 4.000000, 4.000000, 4.000000, 4.000000, 4.000000, 4.000000, 4.000000, 4.000000, 4.000000, 4.000000, 4.000000, 4.000000
90.000000, 0.000000, 4218.974121, 4204.615234, 4217.436035, 4216.922852, 4206.153809, 4210.769043, 4222.563965, 4228.717773, 4220.000000, 4190.769043, 4209.743652, 4196.922852, 4214.358887, 4207.692383, 3549.000000, 8200.000000, 8185.000000, 0.000000, 0.000000, 0.000000, -20549.000000, 28.205128, 4.000000, 4.000000, 4.000000, 4.000000, 4.000000, 4.000000, 4.000000, 4.000000, 4.000000, 4.000000, 4.000000, 4.000000, 4.000000, 4.000000, 4.000000, 4.000000
91.000000, 0.000000, 4223.589844, 4206.666504, 4220.000000, 4220.000000, 4225.127930, 4217.436035, 4225.641113, 4234.358887, 4222.051270, 4185.641113, 4211.794922, 4202.563965, 4209.230469, 4202.051270, 395.000000, 8199.000000, 8190.000000, 0.000000, 0.000000, 0.000000, -20549.000000, 35.897434, 4.000000, 4.000000, 4.000000, 4.000000, 4.000000, 4.000000, 4.000000, 4.000000, 4.000000, 4.000000, 4.000000, 4.000000, 4.000000, 4.000000, 4.000000, 4.000000
92.000000, 0.000000, 4219.487305, 4203.589844, 4217.436035, 4216.410156, 4230.256348, 4212.820313, 4216.922852, 4232.307617, 4221.025391, 4189.743652, 4210.256348, 4205.641113, 4211.281738, 4202.563965, 3478.000000, 8199.000000, 8190.000000, 0.000000, 0.000000, 0.000000, -20549.000000, 44.102562, 4.000000, 4.000000, 4.000000, 4.000000, 4.000000, 4.000000, 4.000000, 4.000000, 4.000000, 4.000000, 4.000000, 4.000000, 4.000000, 4.000000, 4.000000, 4.000000
93.000000, 0.000000, 4222.563965, 4204.102539, 4220.512695, 4214.871582, 4220.000000, 4208.717773, 4213.846191, 4234.871582, 4226.666504, 4204.615234, 4209.230469, 4212.820313, 4220.000000, 4203.076660, 3402.000000, 8201.000000, 8190.000000, 0.000000, 0.000000, 0.000000, -20549.000000, 51.794872, 4.000000, 4.000000, 4.000000, 4.000000, 4.000000, 4.000000, 4.000000, 4.000000, 4.000000, 4.000000, 4.000000, 4.000000, 4.000000, 4.000000, 4.000000, 4.000000
94.000000, 0.000000, 4220.512695, 4204.615234, 4216.922852, 4215.897461, 4216.922852, 4210.769043, 4221.538574, 4235.897461, 4227.179199, 4198.974121, 4206.666504, 4212.307617, 4213.333008, 4206.666504, 3549.000000, 8201.000000, 8190.000000, 0.000000, 0.000000, 0.000000, -20549.000000, 60.000000, 4.000000, 4.000000, 4.000000, 4.000000, 4.000000, 4.000000, 4.000000, 4.000000, 4.000000, 4.000000, 4.000000, 4.000000, 4.000000, 4.000000, 4.000000, 4.000000
95.000000, 0.000000, 4212.307617, 4202.563965, 4208.717773, 4213.846191, 4208.205078, 4205.127930, 4214.871582, 4220.512695, 4211.794922, 4184.102539, 4200.000000, 4199.487305, 4199.487305, 4203.589844, 395.000000, 8194.000000, 8188.000000, 0.000000, 0.000000, 0.000000, -20549.000000, 67.692307, 4.000000, 4.000000, 4.000000, 4.000000, 4.000000, 4.000000, 4.000000, 4.000000, 4.000000, 4.000000, 4.000000, 4.000000, 4.000000, 4.000000, 4.000000, 4.000000
96.000000, 0.000000, 4213.846191, 4202.563965, 4208.205078, 4207.692383, 4202.051270, 4198.461426, 4200.512695, 4204.615234, 4201.538574, 4187.179199, 4198.461426, 4195.897461, 4198.461426, 4197.436035, 3478.000000, 8194.000000, 8188.000000, 0.000000, 0.000000, 0.000000, -20549.000000, 75.384613, 4.000000, 4.000000, 4.000000, 4.000000, 4.000000, 4.000000, 4.000000, 4.000000, 4.000000, 4.000000, 4.000000, 4.000000, 4.000000, 4.000000, 4.000000, 4.000000
97.000000, 0.000000, 4209.230469, 4203.076660, 4209.230469, 4202.051270, 4216.410156, 4202.051270, 4206.666504, 4200.512695, 4196.922852, 4186.153809, 4198.974121, 4203.076660, 4200.512695, 4203.076660, 3402.000000, 8197.000000, 8191.000000, 0.000000, 0.000000, 0.000000, -20549.000000, 83.589745, 4.000000, 4.000000, 4.000000, 4.000000, 4.000000, 4.000000, 4.000000, 4.000000, 4.000000, 4.000000, 4.000000, 4.000000, 4.000000, 4.000000, 4.000000, 4.000000
98.000000, 0.000000, 4209.230469, 4201.025391, 4207.179199, 4203.589844, 4221.025391, 4201.538574, 4214.358887, 4195.384277, 4188.717773, 4168.717773, 4195.897461, 4200.000000, 4194.358887, 4200.512695, 3549.000000, 8197.000000, 8191.000000, 0.000000, 0.000000, 0.000000, -20549.000000, 91.282051, 4.000000, 4.000000, 4.000000, 4.000000, 4.000000, 4.000000, 4.000000, 4.000000, 4.000000, 4.000000, 4.000000, 4.000000, 4.000000, 4.000000, 4.000000, 4.000000
99.000000, 0.000000, 4206.153809, 4200.512695, 4202.051270, 4204.102539, 4211.794922, 4198.461426, 4206.666504, 4192.820313, 4187.179199, 4168.205078, 4196.922852, 4191.281738, 4192.820313, 4200.512695, 395.000000, 8195.000000, 8192.000000, 0.000000, 0.000000, 0.000000, -20549.000000, 98.974358, 4.000000, 4.000000, 4.000000, 4.000000, 4.000000, 4.000000, 4.000000, 4.000000, 4.000000, 4.000000, 4.000000, 4.000000, 4.000000, 4.000000, 4.000000, 4.000000
100.000000, 0.000000, 4202.563965, 4196.922852, 4193.846191, 4195.897461, 4205.641113, 4200.000000, 4203.589844, 4200.000000, 4197.948730, 4180.000000, 4198.974121, 4186.153809, 4197.948730, 4204.102539, 3478.000000, 8195.000000, 8192.000000, 0.000000, 0.000000, 0.000000, -20549.000000, 107.179482, 4.000000, 4.000000, 4.000000, 4.000000, 4.000000, 4.000000, 4.000000, 4.000000, 4.000000, 4.000000, 4.000000, 4.000000, 4.000000, 4.000000, 4.000000, 4.000000
101.000000, 0.000000, 4206.153809, 4194.871582, 4190.256348, 4194.358887, 4197.948730, 4201.025391, 4206.153809, 4200.512695, 4202.051270, 4183.076660, 4200.512695, 4184.615234, 4200.512695, 4201.025391, 3402.000000, 8194.000000, 8198.000000, 0.000000, 0.000000, 0.000000, -20549.000000, 114.871796, 4.000000, 4.000000, 4.000000, 4.000000, 4.000000, 4.000000, 4.000000, 4.000000, 4.000000, 4.000000, 4.000000, 4.000000, 4.000000, 4.000000, 4.000000, 4.000000
102.000000, 0.000000, 4198.461426, 4196.922852, 4192.820313, 4198.461426, 4200.000000, 4202.563965, 4205.127930, 4188.717773, 4186.666504, 4185.641113, 4201.538574, 4186.153809, 4197.436035, 4203.076660, 3549.000000, 8194.000000, 8198.000000, 0.000000, 0.000000, 0.000000, -20549.000000, 122.564102, 4.000000, 4.000000, 4.000000, 4.000000, 4.000000, 4.000000, 4.000000, 4.000000, 4.000000, 4.000000, 4.000000, 4.000000, 4.000000, 4.000000, 4.000000, 4.000000
103.000000, 0.000000, 4206.153809, 4200.000000, 4201.538574, 4201.025391, 4216.922852, 4201.538574, 4204.615234, 4189.743652, 4184.102539, 4188.205078, 4201.025391, 4188.717773, 4197.948730, 4204.615234, 395.000000, 8190.000000, 8200.000000, 0.000000, 0.000000, 0.000000, -20549.000000, 130.769226, 4.000000, 4.000000, 4.000000, 4.000000, 4.000000, 4.000000, 4.000000, 4.000000, 4.000000, 4.000000, 4.000000, 4.000000, 4.000000, 4.000000, 4.000000, 4.000000
104.000000, 0.000000, 4216.922852, 4201.538574, 4207.692383, 4203.076660, 4218.974121, 4200.512695, 4208.717773, 4211.281738, 4208.205078, 4187.179199, 4203.589844, 4195.384277, 4204.102539, 4208.205078, 3478.000000, 8190.000000, 8200.000000, 0.000000, 0.000000, 0.000000, -20549.000000, 138.461533, 4.000000, 4.000000, 4.000000, 4.000000, 4.000000, 4.000000, 4.000000, 4.000000, 4.000000, 4.000000, 4.000000, 4.000000, 4.000000, 4.000000, 4.000000, 4.000000
105.000000, 0.000000, 4209.230469, 4200.512695, 4206.153809, 4204.102539, 4206.153809, 4203.589844, 4206.666504, 4217.948730, 4217.436035, 4193.333008, 4208.717773, 4200.000000, 4203.589844, 4208.205078, 3402.000000, 8188.000000, 8187.000000, 0.000000, 0.000000, 0.000000, -20549.000000, 146.666656, 4.000000, 4.000000, 4.000000, 4.000000, 4.000000, 4.000000, 4.000000, 4.000000, 4.000000, 4.000000, 4.000000, 4.000000, 4.000000, 4.000000, 4.000000, 4.000000
106.000000, 0.000000, 4208.205078, 4200.000000, 4208.717773, 4200.512695, 4198.974121, 4199.487305, 4202.563965, 4203.076660, 4204.102539, 4202.051270, 4210.256348, 4202.563965, 4203.076660, 4202.563965, 3549.000000, 8188.000000, 8187.000000, 0.000000, 0.000000, 0.000000, -20549.000000, 154.358963, 4.000000, 4.000000, 4.000000, 4.000000, 4.000000, 4.000000, 4.000000, 4.000000, 4.000000, 4.000000, 4.000000, 4.000000, 4.000000, 4.000000, 4.000000, 4.000000
107.000000, 0.000000, 4208.205078, 4200.000000, 4218.461426, 4200.000000, 4197.948730, 4190.256348, 4204.615234, 4198.461426, 4199.487305, 4197.948730, 4213.333008, 4215.384277, 4208.717773, 4208.717773, 395.000000, 8191.000000, 8186.000000, 0.000000, 0.000000, 0.000000, -20549.000000, 162.051285, 4.000000, 4.000000, 4.000000, 4.000000, 4.000000, 4.000000, 4.000000, 4.000000, 4.000000, 4.000000, 4.000000, 4.000000, 4.000000, 4.000000, 4.000000, 4.000000
108.000000, 0.000000, 4208.205078, 4198.461426, 4222.563965, 4204.102539, 4202.051270, 4191.794922, 4204.102539, 4206.153809, 4205.641113, 4192.820313, 4213.846191, 4221.025391, 4210.769043, 4206.666504, 3478.000000, 8191.000000, 8186.000000, 0.000000, 0.000000, 0.000000, -20549.000000, 170.256409, 4.000000, 4.000000, 4.000000, 4.000000, 4.000000, 4.000000, 4.000000, 4.000000, 4.000000, 4.000000, 4.000000, 4.000000, 4.000000, 4.000000, 4.000000, 4.000000
109.000000, 0.000000, 4204.615234, 4198.974121, 4217.948730, 4203.076660, 4213.846191, 4199.487305, 4204.615234, 4204.615234, 4205.127930, 4200.512695, 4208.717773, 4210.256348, 4213.333008, 4201.025391, 3402.000000, 8193.000000, 8181.000000, 0.000000, 0.000000, 0.000000, -20549.000000, 177.948715, 4.000000, 4.000000, 4.000000, 4.000000, 4.000000, 4.000000, 4.000000, 4.000000, 4.000000, 4.000000, 4.000000, 4.000000, 4.000000, 4.000000, 4.000000, 4.000000
110.000000, 0.000000, 4199.487305, 4199.487305, 4213.333008, 4201.025391, 4214.871582, 4201.538574, 4206.666504, 4197.436035, 4203.589844, 4208.205078, 4207.692383, 4206.666504, 4215.384277, 4204.615234, 3549.000000, 8193.000000, 8181.000000, 0.000000, 0.000000, 0.000000, -20549.000000, 185.641022, 4.000000, 4.000000, 4.000000, 4.000000, 4.000000, 4.000000, 4.000000, 4.000000, 4.000000, 4.000000, 4.000000, 4.000000, 4.000000, 4.000000, 4.000000, 4.000000
111.000000, 0.000000, 4198.461426, 4192.820313, 4208.717773, 4202.051270, 4206.666504, 4201.025391, 4205.641113, 4198.461426, 4201.025391, 4205.127930, 4205.127930, 4202.051270, 4201.538574, 4203.076660, 395.000000, 8191.000000, 8173.000000, 0.000000, 0.000000, 0.000000, -20549.000000, 193.333328, 4.000000, 4.000000, 4.000000, 4.000000, 4.000000, 4.000000, 4.000000, 4.000000, 4.000000, 4.000000, 4.000000, 4.000000, 4.000000, 4.000000, 4.000000, 4.000000
112.000000, 0.000000, 4186.153809, 4185.641113, 4200.512695, 4194.871582, 4204.102539, 4200.000000, 4206.153809, 4200.512695, 4201.025391, 4207.692383, 4197.948730, 4187.692383, 4188.717773, 4205.127930, 3478.000000, 8191.000000, 8173.000000, 0.000000, 0.000000, 0.000000, -20549.000000, 201.538452, 4.000000, 4.000000, 4.000000, 4.000000, 4.000000, 4.000000, 4.000000, 4.000000, 4.000000, 4.000000, 4.000000, 4.000000, 4.000000, 4.000000, 4.000000, 4.000000
113.000000, 0.000000, 4189.230469, 4189.743652, 4202.563965, 4190.769043, 4197.436035, 4202.051270, 4212.820313, 4200.512695, 4207.179199, 4222.563965, 4200.512695, 4188.717773, 4201.538574, 4204.615234, 3402.000000, 8191.000000, 8176.000000, 0.000000, 0.000000, 0.000000, -20549.000000, 209.230759, 4.000000, 4.000000, 4.000000, 4.000000, 4.000000, 4.000000, 4.000000, 4.000000, 4.000000, 4.000000, 4.000000, 4.000000, 4.000000, 4.000000, 4.000000, 4.000000
114.000000, 0.000000, 4207.179199, 4202.563965, 4212.820313, 4203.589844, 4194.358887, 4210.256348, 4218.461426, 4208.717773, 4213.333008, 4236.410156, 4215.897461, 4209.230469, 4220.512695, 4209.230469, 3549.000000, 8191.000000, 8176.000000, 0.000000, 0.000000, 0.000000, -20549.000000, 216.923065, 4.000000, 4.000000, 4.000000, 4.000000, 4.000000, 4.000000, 4.000000, 4.000000, 4.000000, 4.000000, 4.000000, 4.000000, 4.000000, 4.000000, 4.000000, 4.000000
115.000000, 0.000000, 4213.333008, 4208.717773, 4217.436035, 4212.307617, 4208.717773, 4214.871582, 4216.922852, 4220.000000, 4218.974121, 4236.922852, 4228.717773, 4225.641113, 4228.717773, 4214.871582, 395.000000, 8193.000000, 8169.000000, 0.000000, 0.000000, 0.000000, -20549.000000, 225.128204, 4.000000, 4.000000, 4.000000, 4.000000, 4.000000, 4.000000, 4.000000, 4.000000, 4.000000, 4.000000, 4.000000, 4.000000, 4.000000, 4.000000, 4.000000, 4.000000
116.000000, 0.000000, 4220.512695, 4208.717773, 4221.025391, 4205.641113, 4214.871582, 4208.205078, 4214.358887, 4216.922852, 4217.436035, 4233.333008, 4235.897461, 4229.743652, 4232.820313, 4207.692383, 3478.000000, 8193.000000, 8169.000000, 0.000000, 0.000000, 0.000000, -20549.000000, 232.820511, 4.000000, 4.000000, 4.000000, 4.000000, 4.000000, 4.000000, 4.000000, 4.000000, 4.000000, 4.000000, 4.000000, 4.000000, 4.000000, 4.000000, 4.000000, 4.000000
117.000000, 0.000000, 4222.563965, 4208.205078, 4228.717773, 4205.127930, 4200.512695, 4196.922852, 4208.205078, 4200.512695, 4204.102539, 4234.358887, 4236.410156, 4230.256348, 4235.897461, 4210.256348, 3402.000000, 8191.000000, 8163.000000, 0.000000, 0.000000, 0.000000, -20549.000000, 241.025635, 4.000000, 4.000000, 4.000000, 4.000000, 4.000000, 4.000000, 4.000000, 4.000000, 4.000000, 4.000000, 4.000000, 4.000000, 4.000000, 4.000000, 4.000000, 4.000000
118.000000, 0.000000, 4226.153809, 4206.666504, 4234.871582, 4215.897461, 4193.846191, 4191.794922, 4196.922852, 4190.256348, 4197.436035, 4231.281738, 4233.333008, 4232.820313, 4236.410156, 4210.256348, 3549.000000, 8191.000000, 8163.000000, 0.000000, 0.000000, 0.000000, -20549.000000, 248.717941, 4.000000, 4.000000, 4.000000, 4.000000, 4.000000, 4.000000, 4.000000, 4.000000, 4.000000, 4.000000, 4.000000, 4.000000, 4.000000, 4.000000, 4.000000, 4.000000
119.000000, 0.000000, 4232.307617, 4206.666504, 4234.871582, 4216.410156, 4203.589844, 4195.897461, 4195.384277, 4188.717773, 4201.538574, 4216.410156, 4233.333008, 4235.897461, 4233.846191, 4206.666504, 395.000000, 8194.000000, 8161.000000, 0.000000, 0.000000, 0.000000, -20549.000000, 256.410248, 4.000000, 4.000000, 4.000000, 4.000000, 4.000000, 4.000000, 4.000000, 4.000000, 4.000000, 4.000000, 4.000000, 4.000000, 4.000000, 4.000000, 4.000000, 4.000000
120.000000, 0.000000, 4223.589844, 4202.051270, 4229.743652, 4205.127930, 4197.436035, 4200.512695, 4204.102539, 4186.153809, 4193.846191, 4197.948730, 4219.487305, 4227.179199, 4216.410156, 4209.743652, 3478.000000, 8194.000000, 8161.000000, 0.000000, 0.000000, 0.000000, -20549.000000, 264.615387, 4.000000, 4.000000, 4.000000, 4.000000, 4.000000, 4.000000, 4.000000, 4.000000, 4.000000, 4.000000, 4.000000, 4.000000, 4.000000, 4.000000, 4.000000, 4.000000
121.000000, 0.000000, 4215.897461, 4194.358887, 4221.025391, 4196.410156, 4181.025391, 4201.538574, 4212.307617, 4187.179199, 4182.051270, 4188.717773, 4197.948730, 4207.692383, 4198.461426, 4204.102539, 3402.000000, 8184.000000, 8167.000000, 0.000000, 0.000000, 0.000000, -20549.000000, 272.307678, 4.000000, 4.000000, 4.000000, 4.000000, 4.000000, 4.000000, 4.000000, 4.000000, 4.000000, 4.000000, 4.000000, 4.000000, 4.000000, 4.000000, 4.000000, 4.000000
122.000000, 0.000000, 4209.230469, 4190.769043, 4214.871582, 4197.948730, 4182.563965, 4201.538574, 4214.358887, 4203.076660, 4191.281738, 4195.384277, 4202.051270, 4204.615234, 4198.461426, 4204.615234, 3549.000000, 8184.000000, 8167.000000, 0.000000, 0.000000, 0.000000, -20549.000000, 280.000000, 4.000000, 4.000000, 4.000000, 4.000000, 4.000000, 4.000000, 4.000000, 4.000000, 4.000000, 4.000000, 4.000000, 4.000000, 4.000000, 4.000000, 4.000000, 4.000000
123.000000, 0.000000, 4205.127930, 4188.717773, 4216.410156, 4200.512695, 4195.897461, 4202.051270, 4214.871582, 4216.410156, 4205.641113, 4200.512695, 4210.769043, 4208.205078, 4198.974121, 4207.179199, 395.000000, 8181.000000, 8161.000000, 0.000000, 0.000000, 0.000000, -20549.000000, 288.205109, 4.000000, 4.000000, 4.000000, 4.000000, 4.000000, 4.000000, 4.000000, 4.000000, 4.000000, 4.000000, 4.000000, 4.000000, 4.000000, 4.000000, 4.000000, 4.000000
124.000000, 0.000000, 4205.127930, 4191.281738, 4215.897461, 4200.512695, 4198.461426, 4201.538574, 4212.307617, 4210.769043, 4207.179199, 4196.922852, 4203.589844, 4203.589844, 4193.846191, 4204.102539, 3478.000000, 8181.000000, 8161.000000, 0.000000, 0.000000, 0.000000, -20549.000000, 295.897430, 4.000000, 4.000000, 4.000000, 4.000000, 4.000000, 4.000000, 4.000000, 4.000000, 4.000000, 4.000000, 4.000000, 4.000000, 4.000000, 4.000000, 4.000000, 4.000000
125.000000, 0.000000, 4203.076660, 4196.922852, 4215.384277, 4207.179199, 4196.410156, 4201.538574, 4204.102539, 4193.846191, 4195.384277, 4203.076660, 4203.589844, 4201.025391, 4202.563965, 4205.127930, 3402.000000, 8183.000000, 8165.000000, 0.000000, 0.000000, 0.000000, -20549.000000, 304.102570, 4.000000, 4.000000, 4.000000, 4.000000, 4.000000, 4.000000, 4.000000, 4.000000, 4.000000, 4.000000, 4.000000, 4.000000, 4.000000, 4.000000, 4.000000, 4.000000
126.000000, 0.000000, 4213.846191, 4201.538574, 4218.974121, 4212.820313, 4207.179199, 4202.051270, 4199.487305, 4182.563965, 4184.102539, 4217.436035, 4206.666504, 4200.512695, 4213.846191, 4203.589844, 3549.000000, 8183.000000, 8165.000000, 0.000000, 0.000000, 0.000000, -20549.000000, 311.794861, 4.000000, 4.000000, 4.000000, 4.000000, 4.000000, 4.000000, 4.000000, 4.000000, 4.000000, 4.000000, 4.000000, 4.000000, 4.000000, 4.000000, 4.000000, 4.000000
127.000000, 0.000000, 4210.256348, 4198.461426, 4216.922852, 4206.666504, 4205.641113, 4197.948730, 4200.512695, 4187.692383, 4182.563965, 4220.512695, 4203.589844, 4202.051270, 4207.692383, 4207.179199, 54.000000, 8172.000000, 8162.000000, 0.000000, 0.000000, 0.000000, -20549.000000, 319.487183, 4.000000, 4.000000, 4.000000, 4.000000, 4.000000, 4.000000, 4.000000, 4.000000, 4.000000, 4.000000, 4.000000, 4.000000, 4.000000, 4.000000, 4.000000, 4.000000
0.000000, 0.000000, 4200.512695, 4194.358887, 4213.333008, 4200.512695, 4184.102539, 4190.256348, 4198.974121, 4201.025391, 4185.127930, 4213.333008, 4206.666504, 4205.127930, 4198.974121, 4206.666504, 3360.000000, 8172.000000, 8162.000000, 0.000000, 0.000000, 0.000000, -20549.000000, 327.692291, 4.000000, 4.000000, 4.000000, 4.000000, 4.000000, 4.000000, 4.000000, 4.000000, 4.000000, 4.000000, 4.000000, 4.000000, 4.000000, 4.000000, 4.000000, 4.000000
1.000000, 0.000000, 4206.153809, 4195.384277, 4216.922852, 4202.051270, 4181.538574, 4187.179199, 4198.974121, 4207.179199, 4187.692383, 4208.205078, 4208.205078, 4203.076660, 4201.538574, 4201.538574, 3512.000000, 8171.000000, 8159.000000, 0.000000, 0.000000, 0.000000, -20549.000000, 335.384613, 4.000000, 4.000000, 4.000000, 4.000000, 4.000000, 4.000000, 4.000000, 4.000000, 4.000000, 4.000000, 4.000000, 4.000000, 4.000000, 4.000000, 4.000000, 4.000000
2.000000, 0.000000, 4203.076660, 4194.358887, 4213.333008, 4202.051270, 4199.487305, 4194.871582, 4204.102539, 4203.589844, 4190.769043, 4197.948730, 4197.436035, 4197.436035, 4200.512695, 4203.076660, 2508.000000, 8171.000000, 8159.000000, 0.000000, 0.000000, 0.000000, -20549.000000, 343.076904, 4.000000, 4.000000, 4.000000, 4.000000, 4.000000, 4.000000, 4.000000, 4.000000, 4.000000, 4.000000, 4.000000, 4.000000, 4.000000, 4.000000, 4.000000, 4.000000
3.000000, 0.000000, 4205.127930, 4194.871582, 4204.102539, 4198.461426, 4208.205078, 4200.000000, 4203.076660, 4202.051270, 4189.743652, 4190.256348, 4195.384277, 4193.333008, 4195.384277, 4198.974121, 2460.000000, 8175.000000, 8158.000000, 0.000000, 0.000000, 0.000000, -20549.000000, 351.282043, 4.000000, 4.000000, 4.000000, 4.000000, 4.000000, 4.000000, 4.000000, 4.000000, 4.000000, 4.000000, 4.000000, 4.000000, 4.000000, 4.000000, 4.000000, 4.000000
4.000000, 0.000000, 4206.666504, 4197.436035, 4204.615234, 4200.000000, 4207.179199, 4198.461426, 4197.436035, 4200.512695, 4183.076660, 4201.025391, 4202.051270, 4194.358887, 4201.025391, 4202.051270, 3529.000000, 8175.000000, 8158.000000, 0.000000, 0.000000, 0.000000, -20549.000000, 359.487183, 4.000000, 4.000000, 4.000000, 4.000000, 4.000000, 4.000000, 4.000000, 4.000000, 4.000000, 4.000000, 4.000000, 4.000000, 4.000000, 4.000000, 4.000000, 4.000000
5.000000, 0.000000, 4211.281738, 4200.000000, 4209.230469, 4208.717773, 4212.820313, 4198.974121, 4192.820313, 4197.436035, 4184.102539, 4213.846191, 4200.512695, 4197.948730, 4208.717773, 4207.692383, 3543.000000, 8178.000000, 8159.000000, 0.000000, 0.000000, 0.000000, -20549.000000, 367.179474, 4.000000, 4.000000, 4.000000, 4.000000, 4.000000, 4.000000, 4.000000, 4.000000, 4.000000, 4.000000, 4.000000, 4.000000, 4.000000, 4.000000, 4.000000, 4.000000
6.000000, 0.000000, 4220.000000, 4201.538574, 4212.820313, 4215.384277, 4208.205078, 4196.922852, 4186.153809, 4197.436035, 4196.922852, 4222.563965, 4200.000000, 4201.538574, 4211.281738, 4205.641113, 3113.000000, 8178.000000, 8159.000000, 0.000000, 0.000000, 0.000000, -20549.000000, 374.871796, 4.000000, 4.000000, 4.000000, 4.000000, 4.000000, 4.000000, 4.000000, 4.000000, 4.000000, 4.000000, 4.000000, 4.000000, 4.000000, 4.000000, 4.000000, 4.000000
7.000000, 0.000000, 4211.794922, 4198.974121, 4208.717773, 4211.281738, 4192.820313, 4192.307617, 4185.641113, 4200.000000, 4204.102539, 4235.384277, 4202.051270, 4203.589844, 4213.846191, 4208.717773, 3511.000000, 8184.000000, 8162.000000, 0.000000, 0.000000, 0.000000, -20549.000000, 382.564087, 4.000000, 4.000000, 4.000000, 4.000000, 4.000000, 4.000000, 4.000000, 4.000000, 4.000000, 4.000000, 4.000000, 4.000000, 4.000000, 4.000000, 4.000000, 4.000000
8.000000, 0.000000, 4214.871582, 4201.025391, 4207.179199, 4209.743652, 4205.127930, 4197.436035, 4193.846191, 4208.205078, 4206.153809, 4254.358887, 4204.615234, 4208.205078, 4216.922852, 4205.127930, 3527.000000, 8184.000000, 8162.000000, 0.000000, 0.000000, 0.000000, -20549.000000, 390.769226, 4.000000, 4.000000, 4.000000, 4.000000, 4.000000, 4.000000, 4.000000, 4.000000, 4.000000, 4.000000, 4.000000, 4.000000, 4.000000, 4.000000, 4.000000, 4.000000
9.000000, 0.000000, 4220.512695, 4204.615234, 4209.230469, 4208.205078, 4220.000000, 4205.127930, 4197.948730, 4213.846191, 4211.281738, 4264.615234, 4206.153809, 4209.743652, 4213.333008, 4206.153809, 3544.000000, 8190.000000, 8165.000000, 0.000000, 0.000000, 0.000000, -20549.000000, 398.974335, 4.000000, 4.000000, 4.000000, 4.000000, 4.000000, 4.000000, 4.000000, 4.000000, 4.000000, 4.000000, 4.000000, 4.000000, 4.000000, 4.000000, 4.000000, 4.000000
10.000000, 0.000000, 4206.666504, 4195.897461, 4202.563965, 4197.436035, 4203.076660, 4202.051270, 4196.410156, 4206.153809, 4208.205078, 4253.846191, 4199.487305, 4200.512695, 4197.436035, 4209.230469, 3544.000000, 8190.000000, 8165.000000, 0.000000, 0.000000, 0.000000, -20549.000000, 406.666656, 4.000000, 4.000000, 4.000000, 4.000000, 4.000000, 4.000000, 4.000000, 4.000000, 4.000000, 4.000000, 4.000000, 4.000000, 4.000000, 4.000000, 4.000000, 4.000000
11.000000, 0.000000, 4203.589844, 4187.179199, 4200.512695, 4193.333008, 4196.410156, 4198.461426, 4197.436035, 4196.922852, 4200.000000, 4245.127930, 4194.358887, 4194.871582, 4190.256348, 4204.102539, 398.000000, 8193.000000, 8166.000000, 0.000000, 0.000000, 0.000000, -20549.000000, 414.358978, 4.000000, 4.000000, 4.000000, 4.000000, 4.000000, 4.000000, 4.000000, 4.000000, 4.000000, 4.000000, 4.000000, 4.000000, 4.000000, 4.000000, 4.000000, 4.000000
12.000000, 0.000000, 4210.256348, 4194.871582, 4212.307617, 4200.512695, 4213.846191, 4203.589844, 4207.179199, 4197.436035, 4201.538574, 4257.948730, 4201.025391, 4205.127930, 4204.615234, 4207.692383, 3478.000000, 8193.000000, 8166.000000, 0.000000, 0.000000, 0.000000, -20549.000000, 422.051270, 4.000000, 4.000000, 4.000000, 4.000000, 4.000000, 4.000000, 4.000000, 4.000000, 4.000000, 4.000000, 4.000000, 4.000000, 4.000000, 4.000000, 4.000000, 4.000000
13.000000, 0.000000, 4218.974121, 4203.076660, 4220.000000, 4205.641113, 4210.769043, 4205.641113, 4210.256348, 4200.000000, 4202.563965, 4264.615234, 4205.127930, 4210.769043, 4210.256348, 4206.666504, 3394.000000, 8199.000000, 8175.000000, 0.000000, 0.000000, 0.000000, -20549.000000, 430.256409, 4.000000, 4.000000, 4.000000, 4.000000, 4.000000, 4.000000, 4.000000, 4.000000, 4.000000, 4.000000, 4.000000, 4.000000, 4.000000, 4.000000, 4.000000, 4.000000
14.000000, 0.000000, 4221.025391, 4200.000000, 4218.461426, 4207.692383, 4196.410156, 4202.051270, 4205.127930, 4198.461426, 4198.461426, 4250.256348, 4207.179199, 4206.666504, 4205.127930, 4205.641113, 3544.000000, 8199.000000, 8175.000000, 0.000000, 0.000000, 0.000000, -20549.000000, 437.948700, 4.000000, 4.000000, 4.000000, 4.000000, 4.000000, 4.000000, 4.000000, 4.000000, 4.000000, 4.000000, 4.000000, 4.000000, 4.000000, 4.000000, 4.000000, 4.000000
15.000000, 0.000000, 4222.051270, 4200.000000, 4222.051270, 4213.333008, 4209.230469, 4200.512695, 4209.230469, 4200.512695, 4200.000000, 4251.281738, 4213.846191, 4208.717773, 4211.281738, 4208.205078, 398.000000, 8198.000000, 8179.000000, 0.000000, 0.000000, 0.000000, -20549.000000, 445.641022, 4.000000, 4.000000, 4.000000, 4.000000, 4.000000, 4.000000, 4.000000, 4.000000, 4.000000, 4.000000, 4.000000, 4.000000, 4.000000, 4.000000, 4.000000, 4.000000
16.000000, 0.000000, 4234.358887, 4204.102539, 4229.230469, 4217.948730, 4222.051270, 4201.538574, 4214.871582, 4203.589844, 4204.102539, 4261.025391, 4217.948730, 4215.897461, 4218.461426, 4207.179199, 0.000000, 8198.000000, 8179.000000, 0.000000, 0.000000, 0.000000, -20549.000000, 453.846130, 4.000000, 4.000000, 4.000000, 4.000000, 4.000000, 4.000000, 4.000000, 4.000000, 4.000000, 4.000000, 4.000000, 4.000000, 4.000000, 4.000000, 4.000000, 4.000000
17.000000, 0.000000, 4233.333008, 4203.589844, 4228.205078, 4217.436035, 4215.897461, 4201.025391, 4206.666504, 4202.563965, 4210.256348, 4240.512695, 4216.410156, 4222.563965, 4214.871582, 4213.846191, 0.000000, 8200.000000, 8186.000000, 0.000000, 0.000000, 0.000000, -20549.000000, 461.538452, 4.000000, 4.000000, 4.000000, 4.000000, 4.000000, 4.000000, 4.000000, 4.000000, 4.000000, 4.000000, 4.000000, 4.000000, 4.000000, 4.000000, 4.000000, 4.000000
18.000000, 0.000000, 4230.256348, 4202.563965, 4225.641113, 4217.436035, 4210.256348, 4199.487305, 4198.461426, 4200.512695, 4214.358887, 4216.922852, 4214.871582, 4221.538574, 4213.333008, 4211.281738, 0.000000, 8200.000000, 8186.000000, 0.000000, 0.000000, 0.000000, -20549.000000, 469.230743, 4.000000, 4.000000, 4.000000, 4.000000, 4.000000, 4.000000, 4.000000, 4.000000, 4.000000, 4.000000, 4.000000, 4.000000, 4.000000, 4.000000, 4.000000, 4.000000
19.000000, 0.000000, 4229.743652, 4201.025391, 4222.051270, 4215.384277, 4200.512695, 4198.974121, 4203.076660, 4201.025391, 4206.666504, 4213.333008, 4208.717773, 4214.871582, 4208.717773, 4207.179199, 0.000000, 8197.000000, 8186.000000, 0.000000, 0.000000, 0.000000, -20549.000000, 476.923065, 4.000000, 4.000000, 4.000000, 4.000000, 4.000000, 4.000000, 4.000000, 4.000000, 4.000000, 4.000000, 4.000000, 4.000000, 4.000000, 4.000000, 4.000000, 4.000000
20.000000, 0.000000, 4224.102539, 4198.974121, 4215.384277, 4212.820313, 4193.333008, 4193.846191, 4204.615234, 4204.102539, 4200.512695, 4208.205078, 4201.538574, 4208.717773, 4199.487305, 4209.743652, 0.000000, 8197.000000, 8186.000000, 0.000000, 0.000000, 0.000000, -20549.000000, 485.128204, 4.000000, 4.000000, 4.000000, 4.000000, 4.000000, 4.000000, 4.000000, 4.000000, 4.000000, 4.000000, 4.000000, 4.000000, 4.000000, 4.000000, 4.000000, 4.000000
21.000000, 0.000000, 4227.179199, 4200.000000, 4212.307617, 4216.410156, 4208.717773, 4192.820313, 4201.025391, 4203.589844, 4203.076660, 4202.051270, 4201.025391, 4204.615234, 4195.897461, 4204.102539, 0.000000, 8193.000000, 8187.000000, 0.000000, 0.000000, 0.000000, -20549.000000, 492.820496, 4.000000, 4.000000, 4.000000, 4.000000, 4.000000, 4.000000, 4.000000, 4.000000, 4.000000, 4.000000, 4.000000, 4.000000, 4.000000, 4.000000, 4.000000, 4.000000
22.000000, 0.000000, 4221.025391, 4201.025391, 4212.307617, 4214.871582, 4218.974121, 4196.922852, 4199.487305, 4201.538574, 4202.563965, 4199.487305, 4202.051270, 4202.563965, 4191.281738, 4205.127930, 0.000000, 8193.000000, 8187.000000, 0.000000, 0.000000, 0.000000, -20549.000000, 500.512817, 4.000000, 4.000000, 4.000000, 4.000000, 4.000000, 4.000000, 4.000000, 4.000000, 4.000000, 4.000000, 4.000000, 4.000000, 4.000000, 4.000000, 4.000000, 4.000000
23.000000, 0.000000, 4218.461426, 4198.974121, 4207.179199, 4208.717773, 4205.127930, 4197.948730, 4197.436035, 4208.205078, 4202.051270, 4190.256348, 4200.512695, 4195.897461, 4184.102539, 4206.153809, 0.000000, 8187.000000, 8189.000000, 0.000000, 0.000000, 0.000000, -20549.000000, 508.205109, 4.000000, 4.000000, 4.000000, 4.000000, 4.000000, 4.000000, 4.000000, 4.000000, 4.000000, 4.000000, 4.000000, 4.000000, 4.000000, 4.000000, 4.000000, 4.000000
24.000000, 0.000000, 4224.102539, 4197.436035, 4200.000000, 4207.179199, 4198.974121, 4198.461426, 4201.025391, 4217.948730, 4206.153809, 4197.948730, 4202.563965, 4191.281738, 4188.205078, 4204.102539, 0.000000, 8187.000000, 8189.000000, 0.000000, 0.000000, 0.000000, -20549.000000, 516.410217, 4.000000, 4.000000, 4.000000, 4.000000, 4.000000, 4.000000, 4.000000, 4.000000, 4.000000, 4.000000, 4.000000, 4.000000, 4.000000, 4.000000, 4.000000, 4.000000
25.000000, 0.000000, 4218.974121, 4194.871582, 4198.974121, 4206.153809, 4207.692383, 4201.025391, 4203.076660, 4214.871582, 4203.076660, 4215.384277, 4204.102539, 4191.281738, 4190.256348, 4205.641113, 0.000000, 8185.000000, 8185.000000, 0.000000, 0.000000, 0.000000, -20549.000000, 524.102539, 4.000000, 4.000000, 4.000000, 4.000000, 4.000000, 4.000000, 4.000000, 4.000000, 4.000000, 4.000000, 4.000000, 4.000000, 4.000000, 4.000000, 4.000000, 4.000000
26.000000, 0.000000, 4219.487305, 4188.717773, 4199.487305, 4201.025391, 4195.897461, 4201.025391, 4201.538574, 4202.563965, 4192.820313, 4202.051270, 4197.948730, 4187.692383, 4177.948730, 4201.538574, 0.000000, 8185.000000, 8185.000000, 0.000000, 0.000000, 0.000000, -20549.000000, 531.794861, 4.000000, 4.000000, 4.000000, 4.000000, 4.000000, 4.000000, 4.000000, 4.000000, 4.000000, 4.000000, 4.000000, 4.000000, 4.000000, 4.000000, 4.000000, 4.000000
27.000000, 0.000000, 4214.358887, 4184.102539, 4190.769043, 4195.897461, 4181.538574, 4199.487305, 4203.076660, 4199.487305, 4185.641113, 4177.948730, 4188.717773, 4182.051270, 4175.897461, 4202.051270, 0.000000, 8183.000000, 8185.000000, 0.000000, 0.000000, 0.000000, -20549.000000, 540.000000, 4.000000, 4.000000, 4.000000, 4.000000, 4.000000, 4.000000, 4.000000, 4.000000, 4.000000, 4.000000, 4.000000, 4.000000, 4.000000, 4.000000, 4.000000, 4.000000
28.000000, 0.000000, 4210.256348, 4180.512695, 4185.641113, 4193.846191, 4195.384277, 4198.974121, 4203.076660, 4197.436035, 4184.615234, 4176.410156, 4182.051270, 4177.948730, 4178.461426, 4201.025391, 0.000000, 8183.000000, 8185.000000, 0.000000, 0.000000, 0.000000, -20549.000000, 547.692322, 4.000000, 4.000000, 4.000000, 4.000000, 4.000000, 4.000000, 4.000000, 4.000000, 4.000000, 4.000000, 4.000000, 4.000000, 4.000000, 4.000000, 4.000000, 4.000000
29.000000, 0.000000, 4215.384277, 4187.692383, 4194.358887, 4199.487305, 4213.333008, 4200.512695, 4198.461426, 4193.333008, 4188.205078, 4184.615234, 4184.615234, 4180.000000, 4174.871582, 4200.000000, 0.000000, 8178.000000, 8187.000000, 0.000000, 0.000000, 0.000000, -20549.000000, 555.897400, 4.000000, 4.000000, 4.000000, 4.000000, 4.000000, 4.000000, 4.000000, 4.000000, 4.000000, 4.000000, 4.000000, 4.000000, 4.000000, 4.000000, 4.000000, 4.000000
30.000000, 0.000000, 4215.897461, 4194.358887, 4199.487305, 4208.717773, 4212.820313, 4203.076660, 4200.000000, 4197.436035, 4191.281738, 4182.563965, 4187.692383, 4186.666504, 4175.384277, 4206.666504, 0.000000, 8178.000000, 8187.000000, 0.000000, 0.000000, 0.000000, -20549.000000, 563.589722, 4.000000, 4.000000, 4.000000, 4.000000, 4.000000, 4.000000, 4.000000, 4.000000, 4.000000, 4.000000, 4.000000, 4.000000, 4.000000, 4.000000, 4.000000, 4.000000
31.000000, 0.000000, 4224.102539, 4191.281738, 4197.436035, 4206.666504, 4202.563965, 4204.615234, 4201.025391, 4203.589844, 4196.410156, 4170.256348, 4186.153809, 4194.871582, 4178.461426, 4202.051270, 0.000000, 8178.000000, 8186.000000, 0.000000, 0.000000, 0.000000, -20549.000000, 571.282043, 4.000000, 4.000000, 4.000000, 4.000000, 4.000000, 4.000000, 4.000000, 4.000000, 4.000000, 4.000000, 4.000000, 4.000000, 4.000000, 4.000000, 4.000000, 4.000000
32.000000, 0.000000, 4226.153809, 4191.794922, 4195.384277, 4199.487305, 4202.051270, 4204.615234, 4202.051270, 4203.076660, 4202.051270, 4170.256348, 4192.307617, 4200.000000, 4179.487305, 4203.589844, 0.000000, 8178.000000, 8186.000000, 0.000000, 0.000000, 0.000000, -20549.000000, 579.487183, 4.000000, 4.000000, 4.000000, 4.000000, 4.000000, 4.000000, 4.000000, 4.000000, 4.000000, 4.000000, 4.000000, 4.000000, 4.000000, 4.000000, 4.000000, 4.000000
33.000000, 0.000000, 4225.127930, 4196.410156, 4193.333008, 4198.974121, 4204.615234, 4204.615234, 4213.333008, 4201.538574, 4201.538574, 4193.846191, 4200.000000, 4198.974121, 4184.615234, 4207.179199, 0.000000, 8183.000000, 8184.000000, 0.000000, 0.000000, 0.000000, -20549.000000, 587.179443, 4.000000, 4.000000, 4.000000, 4.000000, 4.000000, 4.000000, 4.000000, 4.000000, 4.000000, 4.000000, 4.000000, 4.000000, 4.000000, 4.000000, 4.000000, 4.000000
34.000000, 0.000000, 4232.820313, 4198.974121, 4194.358887, 4199.487305, 4192.307617, 4202.051270, 4215.897461, 4204.102539, 4202.563965, 4221.025391, 4203.076660, 4198.461426, 4192.307617, 4202.051270, 0.000000, 8183.000000, 8184.000000, 0.000000, 0.000000, 0.000000, -20549.000000, 594.871765, 4.000000, 4.000000, 4.000000, 4.000000, 4.000000, 4.000000, 4.000000, 4.000000, 4.000000, 4.000000, 4.000000, 4.000000, 4.000000, 4.000000, 4.000000, 4.000000
35.000000, 0.000000, 4230.256348, 4195.384277, 4200.000000, 4200.000000, 4184.615234, 4201.538574, 4206.153809, 4204.102539, 4204.102539, 4231.794922, 4206.666504, 4206.666504, 4194.871582, 4203.589844, 0.000000, 8179.000000, 8175.000000, 0.000000, 0.000000, 0.000000, -20549.000000, 603.076904, 4.000000, 4.000000, 4.000000, 4.000000, 4.000000, 4.000000, 4.000000, 4.000000, 4.000000, 4.000000, 4.000000, 4.000000, 4.000000, 4.000000, 4.000000, 4.000000
36.000000, 0.000000, 4231.794922, 4191.794922, 4207.179199, 4203.076660, 4200.000000, 4198.974121, 4197.948730, 4195.897461, 4201.025391, 4234.358887, 4207.179199, 4210.769043, 4197.948730, 4201.538574, 0.000000, 8179.000000, 8175.000000, 0.000000, 0.000000, 0.000000, -20549.000000, 610.769226, 4.000000, 4.000000, 4.000000, 4.000000, 4.000000, 4.000000, 4.000000, 4.000000, 4.000000, 4.000000, 4.000000, 4.000000, 4.000000, 4.000000, 4.000000, 4.000000
