title:winkLeft24, recorded:21.05.18 17.03.28, timestamp started:2018-05-12T20:28:52.032863+02:00            , sampling:128, subject:Noé, labels:COUNTER INTERPOLATED AF3 F7 F3 FC5 T7 P7 O1 O2 P8 T8 FC6 F4 F8 AF4 RAW_CQ GYROX GYROY MARKER MARKER_HARDWARE SYNC TIME_STAMP_s TIME_STAMP_ms CQ_AF3 CQ_F7 CQ_F3 CQ_FC5 CQ_T7 CQ_P7 CQ_O1 CQ_O2 CQ_P8 CQ_T8 CQ_FC6 CQ_F4 CQ_F8 CQ_AF4 CQ_CMS CQ_DRL, chan:40, samples:2502, units:emotiv
22.000000, 0.000000, 4190.256348, 4162.051270, 4186.153809, 4206.666504, 4204.615234, 4214.358887, 4202.051270, 4216.922852, 4198.974121, 4206.153809, 4185.641113, 4183.589844, 4193.846191, 4174.358887, 0.000000, 8255.000000, 8177.000000, 0.000000, 0.000000, 0.000000, -21155.000000, 480.512817, 4.000000, 4.000000, 4.000000, 4.000000, 4.000000, 4.000000, 4.000000, 4.000000, 1.000000, 4.000000, 4.000000, 4.000000, 4.000000, 4.000000, 4.000000, 4.000000
23.000000, 0.000000, 4186.666504, 4155.384277, 4184.615234, 4201.538574, 4193.846191, 4205.127930, 4208.717773, 4219.487305, 4193.846191, 4206.153809, 4185.127930, 4182.051270, 4197.436035, 4173.333008, 0.000000, 8259.000000, 8176.000000, 0.000000, 0.000000, 0.000000, -21155.000000, 488.205109, 4.000000, 4.000000, 4.000000, 4.000000, 4.000000, 4.000000, 4.000000, 4.000000, 1.000000, 4.000000, 4.000000, 4.000000, 4.000000, 4.000000, 4.000000, 4.000000
24.000000, 0.000000, 4193.846191, 4159.487305, 4192.820313, 4206.666504, 4207.179199, 4203.076660, 4210.256348, 4217.436035, 4194.871582, 4206.666504, 4190.256348, 4190.769043, 4205.127930, 4184.615234, 0.000000, 8259.000000, 8176.000000, 0.000000, 0.000000, 0.000000, -21155.000000, 496.410248, 4.000000, 4.000000, 4.000000, 4.000000, 4.000000, 4.000000, 4.000000, 4.000000, 1.000000, 4.000000, 4.000000, 4.000000, 4.000000, 4.000000, 4.000000, 4.000000
25.000000, 0.000000, 4211.281738, 4167.179199, 4205.127930, 4218.974121, 4214.871582, 4202.563965, 4199.487305, 4204.102539, 4195.897461, 4209.743652, 4202.051270, 4200.512695, 4218.974121, 4202.051270, 0.000000, 8259.000000, 8176.000000, 0.000000, 0.000000, 0.000000, -21155.000000, 504.102539, 4.000000, 4.000000, 4.000000, 4.000000, 4.000000, 4.000000, 4.000000, 4.000000, 1.000000, 4.000000, 4.000000, 4.000000, 4.000000, 4.000000, 4.000000, 4.000000
26.000000, 0.000000, 4217.436035, 4168.717773, 4207.179199, 4218.974121, 4205.641113, 4200.000000, 4195.384277, 4196.410156, 4186.153809, 4207.692383, 4199.487305, 4202.563965, 4218.461426, 4204.102539, 0.000000, 8259.000000, 8176.000000, 0.000000, 0.000000, 0.000000, -21155.000000, 511.794861, 4.000000, 4.000000, 4.000000, 4.000000, 4.000000, 4.000000, 4.000000, 4.000000, 1.000000, 4.000000, 4.000000, 4.000000, 4.000000, 4.000000, 4.000000, 4.000000
27.000000, 0.000000, 4213.846191, 4168.205078, 4201.025391, 4215.384277, 4204.615234, 4201.538574, 4200.512695, 4201.538574, 4186.153809, 4206.153809, 4196.410156, 4203.076660, 4216.410156, 4204.102539, 0.000000, 8262.000000, 8167.000000, 0.000000, 0.000000, 0.000000, -21155.000000, 519.487183, 4.000000, 4.000000, 4.000000, 4.000000, 4.000000, 4.000000, 4.000000, 4.000000, 1.000000, 4.000000, 4.000000, 4.000000, 4.000000, 4.000000, 4.000000, 4.000000
28.000000, 0.000000, 4208.717773, 4160.000000, 4193.333008, 4214.358887, 4204.102539, 4203.076660, 4201.025391, 4200.000000, 4199.487305, 4203.589844, 4198.974121, 4202.051270, 4215.384277, 4204.615234, 0.000000, 8262.000000, 8167.000000, 0.000000, 0.000000, 0.000000, -21155.000000, 527.179504, 4.000000, 4.000000, 4.000000, 4.000000, 4.000000, 4.000000, 4.000000, 4.000000, 1.000000, 4.000000, 4.000000, 4.000000, 4.000000, 4.000000, 4.000000, 4.000000
29.000000, 0.000000, 4198.974121, 4150.256348, 4186.666504, 4206.666504, 4195.384277, 4201.025391, 4200.000000, 4192.307617, 4200.512695, 4198.461426, 4191.281738, 4199.487305, 4208.205078, 4195.897461, 0.000000, 8263.000000, 8156.000000, 0.000000, 0.000000, 0.000000, -21155.000000, 534.871765, 4.000000, 4.000000, 4.000000, 4.000000, 4.000000, 4.000000, 4.000000, 4.000000, 1.000000, 4.000000, 4.000000, 4.000000, 4.000000, 4.000000, 4.000000, 4.000000
30.000000, 0.000000, 4194.871582, 4153.846191, 4186.666504, 4201.538574, 4200.000000, 4202.563965, 4203.589844, 4194.871582, 4187.692383, 4198.461426, 4184.615234, 4196.410156, 4203.589844, 4187.179199, 0.000000, 8263.000000, 8156.000000, 0.000000, 0.000000, 0.000000, -21155.000000, 543.076904, 4.000000, 4.000000, 4.000000, 4.000000, 4.000000, 4.000000, 4.000000, 4.000000, 1.000000, 4.000000, 4.000000, 4.000000, 4.000000, 4.000000, 4.000000, 4.000000
31.000000, 0.000000, 4197.436035, 4156.922852, 4189.743652, 4203.589844, 4207.179199, 4204.102539, 4201.538574, 4200.512695, 4184.102539, 4201.025391, 4188.717773, 4191.794922, 4203.589844, 4187.692383, 0.000000, 8260.000000, 8145.000000, 0.000000, 0.000000, 0.000000, -21155.000000, 550.769226, 4.000000, 4.000000, 4.000000, 4.000000, 4.000000, 4.000000, 4.000000, 4.000000, 1.000000, 4.000000, 4.000000, 4.000000, 4.000000, 4.000000, 4.000000, 4.000000
32.000000, 0.000000, 4190.769043, 4150.256348, 4187.179199, 4203.589844, 4201.538574, 4200.512695, 4193.846191, 4201.025391, 4193.846191, 4198.974121, 4188.717773, 4186.666504, 4203.076660, 4188.717773, 0.000000, 8260.000000, 8145.000000, 0.000000, 0.000000, 0.000000, -21155.000000, 558.461548, 4.000000, 4.000000, 4.000000, 4.000000, 4.000000, 4.000000, 4.000000, 4.000000, 1.000000, 4.000000, 4.000000, 4.000000, 4.000000, 4.000000, 4.000000, 4.000000
33.000000, 0.000000, 4183.076660, 4146.153809, 4183.589844, 4201.025391, 4201.538574, 4199.487305, 4198.461426, 4200.512695, 4199.487305, 4195.384277, 4177.948730, 4180.512695, 4201.025391, 4177.948730, 0.000000, 8262.000000, 8145.000000, 0.000000, 0.000000, 0.000000, -21155.000000, 566.153809, 4.000000, 4.000000, 4.000000, 4.000000, 4.000000, 4.000000, 4.000000, 4.000000, 1.000000, 4.000000, 4.000000, 4.000000, 4.000000, 4.000000, 4.000000, 4.000000
34.000000, 0.000000, 4180.512695, 4145.127930, 4181.538574, 4198.974121, 4197.436035, 4200.512695, 4211.281738, 4201.538574, 4192.307617, 4194.871582, 4171.281738, 4174.871582, 4196.410156, 4168.717773, 0.000000, 8262.000000, 8145.000000, 0.000000, 0.000000, 0.000000, -21155.000000, 574.358948, 4.000000, 4.000000, 4.000000, 4.000000, 4.000000, 4.000000, 4.000000, 4.000000, 1.000000, 4.000000, 4.000000, 4.000000, 4.000000, 4.000000, 4.000000, 4.000000
35.000000, 0.000000, 4174.358887, 4147.179199, 4176.410156, 4198.461426, 4184.102539, 4200.000000, 4207.692383, 4207.692383, 4184.615234, 4199.487305, 4172.820313, 4171.794922, 4189.230469, 4168.717773, 0.000000, 8262.000000, 8136.000000, 0.000000, 0.000000, 0.000000, -21155.000000, 582.051270, 4.000000, 4.000000, 4.000000, 4.000000, 4.000000, 4.000000, 4.000000, 4.000000, 1.000000, 4.000000, 4.000000, 4.000000, 4.000000, 4.000000, 4.000000, 4.000000
36.000000, 0.000000, 4167.692383, 4149.743652, 4172.307617, 4197.948730, 4190.256348, 4198.461426, 4196.922852, 4215.897461, 4188.717773, 4198.461426, 4172.307617, 4169.230469, 4178.974121, 4163.589844, 0.000000, 8262.000000, 8136.000000, 0.000000, 0.000000, 0.000000, -21155.000000, 589.743591, 4.000000, 4.000000, 4.000000, 4.000000, 4.000000, 4.000000, 4.000000, 4.000000, 1.000000, 4.000000, 4.000000, 4.000000, 4.000000, 4.000000, 4.000000, 4.000000
37.000000, 0.000000, 4167.692383, 4153.846191, 4169.743652, 4195.897461, 4206.153809, 4200.512695, 4203.589844, 4217.948730, 4196.922852, 4194.871582, 4169.230469, 4166.153809, 4161.025391, 4154.358887, 0.000000, 8246.000000, 8139.000000, 0.000000, 0.000000, 0.000000, -21155.000000, 597.435913, 4.000000, 4.000000, 4.000000, 4.000000, 4.000000, 4.000000, 4.000000, 4.000000, 1.000000, 4.000000, 4.000000, 4.000000, 4.000000, 4.000000, 4.000000, 4.000000
38.000000, 0.000000, 4169.743652, 4162.051270, 4170.256348, 4198.461426, 4204.102539, 4207.179199, 4217.436035, 4218.461426, 4195.897461, 4195.384277, 4169.743652, 4168.205078, 4138.974121, 4152.307617, 0.000000, 8246.000000, 8139.000000, 0.000000, 0.000000, 0.000000, -21155.000000, 605.128174, 4.000000, 4.000000, 4.000000, 4.000000, 4.000000, 4.000000, 4.000000, 4.000000, 1.000000, 4.000000, 4.000000, 4.000000, 4.000000, 4.000000, 4.000000, 4.000000
39.000000, 0.000000, 4169.743652, 4170.256348, 4174.871582, 4203.589844, 4196.922852, 4211.794922, 4213.846191, 4218.974121, 4190.256348, 4192.820313, 4171.281738, 4170.256348, 4119.487305, 4153.333008, 0.000000, 8236.000000, 8146.000000, 0.000000, 0.000000, 0.000000, -21155.000000, 613.333313, 4.000000, 4.000000, 4.000000, 4.000000, 4.000000, 4.000000, 4.000000, 4.000000, 1.000000, 4.000000, 4.000000, 4.000000, 4.000000, 4.000000, 4.000000, 4.000000
40.000000, 0.000000, 4171.794922, 4178.974121, 4181.538574, 4201.538574, 4201.025391, 4209.230469, 4203.589844, 4216.922852, 4190.256348, 4188.717773, 4170.256348, 4170.256348, 4104.615234, 4152.307617, 0.000000, 8236.000000, 8146.000000, 0.000000, 0.000000, 0.000000, -21155.000000, 621.025635, 4.000000, 4.000000, 4.000000, 4.000000, 4.000000, 4.000000, 4.000000, 4.000000, 1.000000, 4.000000, 4.000000, 4.000000, 4.000000, 4.000000, 4.000000, 4.000000
41.000000, 0.000000, 4177.948730, 4185.641113, 4187.179199, 4201.025391, 4201.538574, 4205.641113, 4204.102539, 4215.384277, 4196.922852, 4188.717773, 4172.307617, 4171.794922, 4097.948730, 4153.333008, 0.000000, 8222.000000, 8152.000000, 0.000000, 0.000000, 0.000000, -21155.000000, 628.717957, 4.000000, 4.000000, 4.000000, 4.000000, 4.000000, 4.000000, 4.000000, 4.000000, 1.000000, 4.000000, 4.000000, 4.000000, 4.000000, 4.000000, 4.000000, 4.000000
42.000000, 0.000000, 4186.153809, 4187.692383, 4187.179199, 4205.127930, 4197.948730, 4204.615234, 4205.641113, 4214.358887, 4198.974121, 4188.205078, 4172.307617, 4171.281738, 4101.025391, 4153.333008, 0.000000, 8222.000000, 8152.000000, 0.000000, 0.000000, 0.000000, -21155.000000, 636.410217, 4.000000, 4.000000, 4.000000, 4.000000, 4.000000, 4.000000, 4.000000, 4.000000, 1.000000, 4.000000, 4.000000, 4.000000, 4.000000, 4.000000, 4.000000, 4.000000
43.000000, 0.000000, 4187.692383, 4191.794922, 4189.743652, 4205.641113, 4201.025391, 4203.076660, 4201.025391, 4214.358887, 4196.410156, 4187.179199, 4168.717773, 4172.307617, 4103.076660, 4156.410156, 0.000000, 8217.000000, 8146.000000, 0.000000, 0.000000, 0.000000, -21155.000000, 644.102539, 4.000000, 4.000000, 4.000000, 4.000000, 4.000000, 4.000000, 4.000000, 4.000000, 1.000000, 4.000000, 4.000000, 4.000000, 4.000000, 4.000000, 4.000000, 4.000000
44.000000, 0.000000, 4186.153809, 4196.922852, 4193.846191, 4205.641113, 4204.615234, 4202.051270, 4197.436035, 4215.384277, 4196.922852, 4190.256348, 4170.769043, 4181.538574, 4110.256348, 4167.692383, 0.000000, 8217.000000, 8146.000000, 0.000000, 0.000000, 0.000000, -21155.000000, 652.307678, 4.000000, 4.000000, 4.000000, 4.000000, 4.000000, 4.000000, 4.000000, 4.000000, 1.000000, 4.000000, 4.000000, 4.000000, 4.000000, 4.000000, 4.000000, 4.000000
45.000000, 0.000000, 4186.153809, 4195.384277, 4193.333008, 4207.179199, 4202.563965, 4203.589844, 4199.487305, 4207.692383, 4199.487305, 4188.717773, 4173.333008, 4184.615234, 4121.538574, 4168.205078, 0.000000, 8213.000000, 8139.000000, 0.000000, 0.000000, 0.000000, -21155.000000, 660.000000, 4.000000, 4.000000, 4.000000, 4.000000, 4.000000, 4.000000, 4.000000, 4.000000, 1.000000, 4.000000, 4.000000, 4.000000, 4.000000, 4.000000, 4.000000, 4.000000
46.000000, 0.000000, 4184.615234, 4188.205078, 4187.179199, 4204.615234, 4196.922852, 4200.512695, 4200.512695, 4197.436035, 4196.922852, 4185.127930, 4168.205078, 4174.871582, 4122.563965, 4156.922852, 0.000000, 8213.000000, 8139.000000, 0.000000, 0.000000, 0.000000, -21155.000000, 667.692322, 4.000000, 4.000000, 4.000000, 4.000000, 4.000000, 4.000000, 4.000000, 4.000000, 1.000000, 4.000000, 4.000000, 4.000000, 4.000000, 4.000000, 4.000000, 4.000000
47.000000, 0.000000, 4183.589844, 4187.179199, 4183.589844, 4203.076660, 4196.410156, 4197.436035, 4196.922852, 4197.436035, 4191.794922, 4186.153809, 4165.641113, 4169.743652, 4123.076660, 4161.025391, 0.000000, 8204.000000, 8126.000000, 0.000000, 0.000000, 0.000000, -21155.000000, 675.384583, 4.000000, 4.000000, 4.000000, 4.000000, 4.000000, 4.000000, 4.000000, 4.000000, 1.000000, 4.000000, 4.000000, 4.000000, 4.000000, 4.000000, 4.000000, 4.000000
48.000000, 0.000000, 4185.641113, 4194.358887, 4192.307617, 4206.153809, 4203.589844, 4206.153809, 4200.000000, 4204.615234, 4190.769043, 4188.717773, 4168.717773, 4176.922852, 4133.846191, 4173.333008, 0.000000, 8204.000000, 8126.000000, 0.000000, 0.000000, 0.000000, -21155.000000, 683.589722, 4.000000, 4.000000, 4.000000, 4.000000, 4.000000, 4.000000, 4.000000, 4.000000, 1.000000, 4.000000, 4.000000, 4.000000, 4.000000, 4.000000, 4.000000, 4.000000
49.000000, 0.000000, 4187.692383, 4197.436035, 4201.025391, 4204.615234, 4202.563965, 4212.307617, 4211.281738, 4204.615234, 4191.281738, 4194.358887, 4170.256348, 4183.076660, 4140.000000, 4173.333008, 0.000000, 8198.000000, 8121.000000, 0.000000, 0.000000, 0.000000, -21155.000000, 691.282043, 4.000000, 4.000000, 4.000000, 4.000000, 4.000000, 4.000000, 4.000000, 4.000000, 1.000000, 4.000000, 4.000000, 4.000000, 4.000000, 4.000000, 4.000000, 4.000000
50.000000, 0.000000, 4186.153809, 4188.717773, 4196.410156, 4196.922852, 4188.717773, 4204.615234, 4210.256348, 4201.025391, 4192.820313, 4200.512695, 4175.897461, 4188.717773, 4143.589844, 4173.846191, 0.000000, 8198.000000, 8121.000000, 0.000000, 0.000000, 0.000000, -21155.000000, 698.974365, 4.000000, 4.000000, 4.000000, 4.000000, 4.000000, 4.000000, 4.000000, 4.000000, 1.000000, 4.000000, 4.000000, 4.000000, 4.000000, 4.000000, 4.000000, 4.000000
51.000000, 0.000000, 4185.641113, 4183.076660, 4192.820313, 4194.358887, 4191.281738, 4204.615234, 4208.205078, 4205.641113, 4194.871582, 4203.589844, 4192.307617, 4198.461426, 4161.025391, 4186.153809, 0.000000, 8193.000000, 8121.000000, 0.000000, 0.000000, 0.000000, -21155.000000, 706.666626, 4.000000, 4.000000, 4.000000, 4.000000, 4.000000, 4.000000, 4.000000, 4.000000, 1.000000, 4.000000, 4.000000, 4.000000, 4.000000, 4.000000, 4.000000, 4.000000
52.000000, 0.000000, 4188.717773, 4188.717773, 4197.436035, 4198.974121, 4209.230469, 4214.358887, 4212.307617, 4215.384277, 4192.820313, 4205.641113, 4201.025391, 4203.076660, 4174.871582, 4192.820313, 0.000000, 8193.000000, 8121.000000, 0.000000, 0.000000, 0.000000, -21155.000000, 714.358948, 4.000000, 4.000000, 4.000000, 4.000000, 4.000000, 4.000000, 4.000000, 4.000000, 1.000000, 4.000000, 4.000000, 4.000000, 4.000000, 4.000000, 4.000000, 4.000000
53.000000, 0.000000, 4190.256348, 4190.769043, 4200.512695, 4202.051270, 4210.256348, 4211.281738, 4207.179199, 4214.358887, 4191.281738, 4207.179199, 4194.358887, 4199.487305, 4172.820313, 4188.717773, 0.000000, 8196.000000, 8121.000000, 0.000000, 0.000000, 0.000000, -21155.000000, 722.564087, 4.000000, 4.000000, 4.000000, 4.000000, 4.000000, 4.000000, 4.000000, 4.000000, 1.000000, 4.000000, 4.000000, 4.000000, 4.000000, 4.000000, 4.000000, 4.000000
54.000000, 0.000000, 4185.641113, 4186.153809, 4196.922852, 4200.000000, 4200.000000, 4200.512695, 4198.461426, 4204.615234, 4191.794922, 4204.102539, 4187.179199, 4195.897461, 4166.153809, 4184.102539, 0.000000, 8196.000000, 8121.000000, 0.000000, 0.000000, 0.000000, -21155.000000, 730.256409, 4.000000, 4.000000, 4.000000, 4.000000, 4.000000, 4.000000, 4.000000, 4.000000, 1.000000, 4.000000, 4.000000, 4.000000, 4.000000, 4.000000, 4.000000, 4.000000
55.000000, 0.000000, 4184.102539, 4186.666504, 4191.794922, 4198.974121, 4201.538574, 4199.487305, 4194.358887, 4201.025391, 4192.307617, 4200.000000, 4187.179199, 4193.846191, 4167.692383, 4184.615234, 0.000000, 8195.000000, 8125.000000, 0.000000, 0.000000, 0.000000, -21155.000000, 737.948669, 4.000000, 4.000000, 4.000000, 4.000000, 4.000000, 4.000000, 4.000000, 4.000000, 1.000000, 4.000000, 4.000000, 4.000000, 4.000000, 4.000000, 4.000000, 4.000000
56.000000, 0.000000, 4188.717773, 4190.769043, 4188.205078, 4202.563965, 4208.205078, 4201.025391, 4191.794922, 4201.025391, 4191.281738, 4201.538574, 4191.794922, 4192.307617, 4172.307617, 4187.179199, 0.000000, 8195.000000, 8125.000000, 0.000000, 0.000000, 0.000000, -21155.000000, 745.640991, 4.000000, 4.000000, 4.000000, 4.000000, 4.000000, 4.000000, 4.000000, 4.000000, 1.000000, 4.000000, 4.000000, 4.000000, 4.000000, 4.000000, 4.000000, 4.000000
57.000000, 0.000000, 4180.512695, 4188.205078, 4187.179199, 4198.461426, 4200.000000, 4198.974121, 4193.846191, 4203.076660, 4190.256348, 4200.000000, 4184.102539, 4188.717773, 4156.410156, 4173.846191, 0.000000, 8200.000000, 8122.000000, 0.000000, 0.000000, 0.000000, -21155.000000, 753.333313, 4.000000, 4.000000, 4.000000, 4.000000, 4.000000, 4.000000, 4.000000, 4.000000, 1.000000, 4.000000, 4.000000, 4.000000, 4.000000, 4.000000, 4.000000, 4.000000
58.000000, 0.000000, 4163.589844, 4181.538574, 4183.076660, 4188.717773, 4186.153809, 4198.461426, 4200.512695, 4205.641113, 4193.846191, 4194.358887, 4170.769043, 4181.538574, 4140.000000, 4156.410156, 0.000000, 8200.000000, 8122.000000, 0.000000, 0.000000, 0.000000, -21155.000000, 761.538452, 4.000000, 4.000000, 4.000000, 4.000000, 4.000000, 4.000000, 4.000000, 4.000000, 1.000000, 4.000000, 4.000000, 4.000000, 4.000000, 4.000000, 4.000000, 4.000000
59.000000, 0.000000, 4172.307617, 4189.230469, 4181.025391, 4194.871582, 4195.897461, 4201.025391, 4200.512695, 4203.076660, 4201.025391, 4200.512695, 4178.974121, 4181.538574, 4167.179199, 4166.666504, 0.000000, 8206.000000, 8112.000000, 0.000000, 0.000000, 0.000000, -21155.000000, 769.230774, 4.000000, 4.000000, 4.000000, 4.000000, 4.000000, 4.000000, 4.000000, 4.000000, 1.000000, 4.000000, 4.000000, 4.000000, 4.000000, 4.000000, 4.000000, 4.000000
60.000000, 0.000000, 4186.153809, 4199.487305, 4186.153809, 4205.127930, 4214.358887, 4203.076660, 4200.512695, 4198.974121, 4194.358887, 4210.256348, 4191.794922, 4186.666504, 4200.000000, 4182.051270, 0.000000, 8206.000000, 8112.000000, 0.000000, 0.000000, 0.000000, -21155.000000, 776.923035, 4.000000, 4.000000, 4.000000, 4.000000, 4.000000, 4.000000, 4.000000, 4.000000, 1.000000, 4.000000, 4.000000, 4.000000, 4.000000, 4.000000, 4.000000, 4.000000
61.000000, 0.000000, 4175.897461, 4190.769043, 4185.641113, 4193.333008, 4206.153809, 4201.025391, 4201.538574, 4198.461426, 4187.692383, 4203.076660, 4187.179199, 4180.000000, 4197.436035, 4174.871582, 0.000000, 8213.000000, 8081.000000, 0.000000, 0.000000, 0.000000, -21155.000000, 785.128174, 4.000000, 4.000000, 4.000000, 4.000000, 4.000000, 4.000000, 4.000000, 4.000000, 1.000000, 4.000000, 4.000000, 4.000000, 4.000000, 4.000000, 4.000000, 4.000000
62.000000, 0.000000, 4171.281738, 4181.025391, 4181.538574, 4185.127930, 4193.333008, 4198.974121, 4198.974121, 4201.025391, 4193.846191, 4203.589844, 4193.333008, 4182.051270, 4206.153809, 4180.000000, 0.000000, 8213.000000, 8081.000000, 0.000000, 0.000000, 0.000000, -21155.000000, 792.820496, 4.000000, 4.000000, 4.000000, 4.000000, 4.000000, 4.000000, 4.000000, 4.000000, 1.000000, 4.000000, 4.000000, 4.000000, 4.000000, 4.000000, 4.000000, 4.000000
63.000000, 0.000000, 4188.205078, 4188.205078, 4186.666504, 4196.410156, 4203.589844, 4202.051270, 4199.487305, 4202.563965, 4194.358887, 4220.512695, 4213.846191, 4198.461426, 4237.948730, 4203.589844, 0.000000, 8215.000000, 8063.000000, 0.000000, 0.000000, 0.000000, -21155.000000, 800.512817, 4.000000, 4.000000, 4.000000, 4.000000, 4.000000, 4.000000, 4.000000, 4.000000, 1.000000, 4.000000, 4.000000, 4.000000, 4.000000, 4.000000, 4.000000, 4.000000
64.000000, 0.000000, 4185.127930, 4188.717773, 4189.743652, 4193.846191, 4205.127930, 4203.589844, 4204.102539, 4197.948730, 4189.230469, 4215.897461, 4209.743652, 4194.871582, 4241.025391, 4201.538574, 3136.000000, 8215.000000, 8063.000000, 0.000000, 0.000000, 0.000000, -21155.000000, 808.205078, 4.000000, 4.000000, 4.000000, 4.000000, 4.000000, 4.000000, 4.000000, 4.000000, 1.000000, 4.000000, 4.000000, 4.000000, 4.000000, 4.000000, 4.000000, 4.000000
65.000000, 0.000000, 4169.743652, 4176.922852, 4183.589844, 4179.487305, 4189.743652, 4201.025391, 4207.692383, 4197.948730, 4193.333008, 4198.974121, 4195.897461, 4180.000000, 4227.179199, 4183.076660, 3515.000000, 8232.000000, 8038.000000, 0.000000, 0.000000, 0.000000, -21155.000000, 816.410217, 4.000000, 4.000000, 4.000000, 4.000000, 4.000000, 4.000000, 4.000000, 4.000000, 1.000000, 4.000000, 4.000000, 4.000000, 4.000000, 4.000000, 4.000000, 4.000000
66.000000, 0.000000, 4175.897461, 4175.897461, 4182.051270, 4181.025391, 4187.692383, 4200.000000, 4212.820313, 4205.641113, 4192.820313, 4204.102539, 4198.974121, 4184.102539, 4231.794922, 4185.127930, 3553.000000, 8232.000000, 8038.000000, 0.000000, 0.000000, 0.000000, -21155.000000, 824.102539, 4.000000, 4.000000, 4.000000, 4.000000, 4.000000, 4.000000, 4.000000, 4.000000, 1.000000, 4.000000, 4.000000, 4.000000, 4.000000, 4.000000, 4.000000, 4.000000
67.000000, 0.000000, 4188.205078, 4180.512695, 4185.641113, 4186.153809, 4190.769043, 4202.563965, 4217.436035, 4203.076660, 4189.743652, 4213.846191, 4203.589844, 4190.256348, 4237.948730, 4195.897461, 2450.000000, 8238.000000, 8024.000000, 0.000000, 0.000000, 0.000000, -21155.000000, 832.307678, 4.000000, 4.000000, 4.000000, 4.000000, 4.000000, 4.000000, 4.000000, 4.000000, 1.000000, 4.000000, 4.000000, 4.000000, 4.000000, 4.000000, 4.000000, 4.000000
68.000000, 0.000000, 4194.358887, 4184.102539, 4192.307617, 4183.589844, 4181.538574, 4201.538574, 4214.871582, 4204.615234, 4197.436035, 4212.820313, 4205.127930, 4191.794922, 4232.820313, 4200.000000, 3527.000000, 8238.000000, 8024.000000, 0.000000, 0.000000, 0.000000, -21155.000000, 840.000000, 4.000000, 4.000000, 4.000000, 4.000000, 4.000000, 4.000000, 4.000000, 4.000000, 1.000000, 4.000000, 4.000000, 4.000000, 4.000000, 4.000000, 4.000000, 4.000000
69.000000, 0.000000, 4201.025391, 4188.717773, 4201.538574, 4184.102539, 4183.589844, 4198.974121, 4207.692383, 4217.436035, 4195.897461, 4214.358887, 4213.846191, 4199.487305, 4232.820313, 4203.589844, 3562.000000, 8241.000000, 8010.000000, 0.000000, 0.000000, 0.000000, -21155.000000, 847.692261, 4.000000, 4.000000, 4.000000, 4.000000, 4.000000, 4.000000, 4.000000, 4.000000, 1.000000, 4.000000, 4.000000, 4.000000, 4.000000, 4.000000, 4.000000, 4.000000
70.000000, 0.000000, 4204.615234, 4190.769043, 4206.666504, 4187.692383, 4200.000000, 4198.461426, 4204.102539, 4209.743652, 4186.153809, 4217.948730, 4214.358887, 4202.563965, 4234.358887, 4206.666504, 3371.000000, 8241.000000, 8010.000000, 0.000000, 0.000000, 0.000000, -21155.000000, 855.384583, 4.000000, 4.000000, 4.000000, 4.000000, 4.000000, 4.000000, 4.000000, 4.000000, 1.000000, 4.000000, 4.000000, 4.000000, 4.000000, 4.000000, 4.000000, 4.000000
71.000000, 0.000000, 4200.512695, 4186.666504, 4204.615234, 4188.205078, 4202.563965, 4200.512695, 4206.666504, 4195.384277, 4191.281738, 4214.358887, 4205.127930, 4196.922852, 4231.281738, 4203.076660, 3508.000000, 8258.000000, 7999.000000, 0.000000, 0.000000, 0.000000, -21155.000000, 863.589722, 4.000000, 4.000000, 4.000000, 4.000000, 4.000000, 4.000000, 4.000000, 4.000000, 1.000000, 4.000000, 4.000000, 4.000000, 4.000000, 4.000000, 4.000000, 4.000000
72.000000, 0.000000, 4199.487305, 4183.589844, 4202.563965, 4186.666504, 4194.871582, 4201.025391, 4208.717773, 4208.205078, 4201.538574, 4208.717773, 4206.666504, 4198.461426, 4227.179199, 4198.461426, 92.000000, 8258.000000, 7999.000000, 0.000000, 0.000000, 0.000000, -21155.000000, 871.282043, 4.000000, 4.000000, 4.000000, 4.000000, 4.000000, 4.000000, 4.000000, 4.000000, 1.000000, 4.000000, 4.000000, 4.000000, 4.000000, 4.000000, 4.000000, 4.000000
73.000000, 0.000000, 4202.563965, 4187.692383, 4202.563965, 4186.666504, 4195.384277, 4198.974121, 4205.641113, 4222.051270, 4198.974121, 4207.692383, 4213.333008, 4204.102539, 4228.205078, 4203.076660, 2671.000000, 8259.000000, 7994.000000, 0.000000, 0.000000, 0.000000, -21155.000000, 879.487183, 4.000000, 4.000000, 4.000000, 4.000000, 4.000000, 4.000000, 4.000000, 4.000000, 1.000000, 4.000000, 4.000000, 4.000000, 4.000000, 4.000000, 4.000000, 4.000000
74.000000, 0.000000, 4203.589844, 4190.769043, 4204.615234, 4190.256348, 4200.512695, 4199.487305, 4207.179199, 4221.025391, 4194.871582, 4213.846191, 4215.897461, 4206.153809, 4234.358887, 4212.307617, 3589.000000, 8259.000000, 7994.000000, 0.000000, 0.000000, 0.000000, -21155.000000, 887.179443, 4.000000, 4.000000, 4.000000, 4.000000, 4.000000, 4.000000, 4.000000, 4.000000, 1.000000, 4.000000, 4.000000, 4.000000, 4.000000, 4.000000, 4.000000, 4.000000
75.000000, 0.000000, 4204.102539, 4189.230469, 4201.025391, 4190.769043, 4204.615234, 4202.563965, 4207.692383, 4220.512695, 4196.410156, 4217.948730, 4215.384277, 4205.641113, 4234.871582, 4209.230469, 3563.000000, 8278.000000, 7980.000000, 0.000000, 0.000000, 0.000000, -21155.000000, 894.871765, 4.000000, 4.000000, 4.000000, 4.000000, 4.000000, 4.000000, 4.000000, 4.000000, 1.000000, 4.000000, 4.000000, 4.000000, 4.000000, 4.000000, 4.000000, 4.000000
76.000000, 0.000000, 4198.461426, 4186.153809, 4192.820313, 4184.102539, 4195.897461, 4200.512695, 4202.563965, 4216.410156, 4197.948730, 4211.794922, 4208.717773, 4202.051270, 4229.230469, 4198.461426, 3520.000000, 8278.000000, 7980.000000, 0.000000, 0.000000, 0.000000, -21155.000000, 903.076904, 4.000000, 4.000000, 4.000000, 4.000000, 4.000000, 4.000000, 4.000000, 4.000000, 1.000000, 4.000000, 4.000000, 4.000000, 4.000000, 4.000000, 4.000000, 4.000000
77.000000, 0.000000, 4189.230469, 4185.641113, 4192.307617, 4183.076660, 4188.717773, 4197.948730, 4199.487305, 4215.897461, 4196.922852, 4210.256348, 4202.563965, 4196.922852, 4228.717773, 4197.436035, 3454.000000, 8281.000000, 7975.000000, 0.000000, 0.000000, 0.000000, -21155.000000, 910.769226, 4.000000, 4.000000, 4.000000, 4.000000, 4.000000, 4.000000, 4.000000, 4.000000, 1.000000, 4.000000, 4.000000, 4.000000, 4.000000, 4.000000, 4.000000, 4.000000
78.000000, 0.000000, 4186.666504, 4188.717773, 4193.333008, 4189.230469, 4199.487305, 4198.461426, 4202.563965, 4220.000000, 4190.769043, 4213.333008, 4206.153809, 4192.307617, 4235.897461, 4198.974121, 3589.000000, 8281.000000, 7975.000000, 0.000000, 0.000000, 0.000000, -21155.000000, 918.461487, 4.000000, 4.000000, 4.000000, 4.000000, 4.000000, 4.000000, 4.000000, 4.000000, 1.000000, 4.000000, 4.000000, 4.000000, 4.000000, 4.000000, 4.000000, 4.000000
79.000000, 0.000000, 4186.153809, 4184.615234, 4185.127930, 4183.076660, 4206.666504, 4201.538574, 4201.538574, 4205.127930, 4185.641113, 4205.127930, 4202.051270, 4182.563965, 4231.281738, 4186.666504, 3563.000000, 8294.000000, 7970.000000, 0.000000, 0.000000, 0.000000, -21155.000000, 926.666626, 4.000000, 4.000000, 4.000000, 4.000000, 4.000000, 4.000000, 4.000000, 4.000000, 1.000000, 4.000000, 4.000000, 4.000000, 4.000000, 4.000000, 4.000000, 4.000000
80.000000, 0.000000, 4175.384277, 4179.487305, 4179.487305, 4171.281738, 4198.974121, 4199.487305, 4198.974121, 4191.281738, 4188.205078, 4197.948730, 4188.205078, 4169.743652, 4221.025391, 4173.333008, 3520.000000, 8294.000000, 7970.000000, 0.000000, 0.000000, 0.000000, -21155.000000, 934.358948, 4.000000, 4.000000, 4.000000, 4.000000, 4.000000, 4.000000, 4.000000, 4.000000, 1.000000, 4.000000, 4.000000, 4.000000, 4.000000, 4.000000, 4.000000, 4.000000
81.000000, 0.000000, 4165.641113, 4181.025391, 4183.076660, 4175.897461, 4195.384277, 4189.230469, 4200.512695, 4199.487305, 4188.717773, 4199.487305, 4182.563965, 4166.153809, 4222.051270, 4168.205078, 3454.000000, 8320.000000, 7949.000000, 0.000000, 0.000000, 0.000000, -21155.000000, 942.051270, 4.000000, 4.000000, 4.000000, 4.000000, 4.000000, 4.000000, 4.000000, 4.000000, 1.000000, 4.000000, 4.000000, 4.000000, 4.000000, 4.000000, 4.000000, 4.000000
82.000000, 0.000000, 4172.820313, 4183.076660, 4183.589844, 4185.127930, 4199.487305, 4183.076660, 4196.410156, 4200.000000, 4186.153809, 4199.487305, 4185.127930, 4173.846191, 4227.692383, 4168.717773, 3589.000000, 8320.000000, 7949.000000, 0.000000, 0.000000, 0.000000, -21155.000000, 950.256409, 4.000000, 4.000000, 4.000000, 4.000000, 4.000000, 4.000000, 4.000000, 4.000000, 1.000000, 4.000000, 4.000000, 4.000000, 4.000000, 4.000000, 4.000000, 4.000000
83.000000, 0.000000, 4184.615234, 4184.102539, 4183.589844, 4185.127930, 4200.000000, 4187.692383, 4189.743652, 4188.205078, 4186.666504, 4200.000000, 4191.794922, 4182.051270, 4234.358887, 4177.436035, 3563.000000, 8334.000000, 7935.000000, 0.000000, 0.000000, 0.000000, -21155.000000, 957.948669, 4.000000, 4.000000, 4.000000, 4.000000, 4.000000, 4.000000, 4.000000, 4.000000, 1.000000, 4.000000, 4.000000, 4.000000, 4.000000, 4.000000, 4.000000, 4.000000
84.000000, 0.000000, 4186.666504, 4185.127930, 4191.281738, 4183.589844, 4196.410156, 4188.717773, 4187.692383, 4184.102539, 4188.205078, 4203.076660, 4200.512695, 4186.666504, 4241.538574, 4186.153809, 3520.000000, 8334.000000, 7935.000000, 0.000000, 0.000000, 0.000000, -21155.000000, 965.640991, 4.000000, 4.000000, 4.000000, 4.000000, 4.000000, 4.000000, 4.000000, 4.000000, 1.000000, 4.000000, 4.000000, 4.000000, 4.000000, 4.000000, 4.000000, 4.000000
85.000000, 0.000000, 4185.641113, 4184.102539, 4193.333008, 4186.666504, 4196.410156, 4183.076660, 4184.615234, 4182.051270, 4187.692383, 4202.563965, 4204.615234, 4189.230469, 4248.717773, 4187.179199, 3454.000000, 8360.000000, 7926.000000, 0.000000, 0.000000, 0.000000, -21155.000000, 973.846130, 4.000000, 4.000000, 4.000000, 4.000000, 4.000000, 4.000000, 4.000000, 4.000000, 1.000000, 4.000000, 4.000000, 4.000000, 4.000000, 4.000000, 4.000000, 4.000000
86.000000, 0.000000, 4188.717773, 4185.127930, 4191.281738, 4186.153809, 4198.461426, 4184.102539, 4184.102539, 4188.717773, 4189.230469, 4208.205078, 4205.127930, 4190.769043, 4257.948730, 4189.230469, 3589.000000, 8360.000000, 7926.000000, 0.000000, 0.000000, 0.000000, -21155.000000, 981.538452, 4.000000, 4.000000, 4.000000, 4.000000, 4.000000, 4.000000, 4.000000, 4.000000, 1.000000, 4.000000, 4.000000, 4.000000, 4.000000, 4.000000, 4.000000, 4.000000
87.000000, 0.000000, 4188.717773, 4187.692383, 4187.179199, 4183.589844, 4188.717773, 4188.717773, 4192.820313, 4200.512695, 4188.717773, 4213.333008, 4204.102539, 4188.205078, 4258.461426, 4190.256348, 3563.000000, 8375.000000, 7930.000000, 0.000000, 0.000000, 0.000000, -21155.000000, 989.743591, 4.000000, 4.000000, 4.000000, 4.000000, 4.000000, 4.000000, 4.000000, 4.000000, 1.000000, 4.000000, 4.000000, 4.000000, 4.000000, 4.000000, 4.000000, 4.000000
88.000000, 0.000000, 4187.179199, 4188.205078, 4184.102539, 4183.076660, 4182.051270, 4186.153809, 4196.410156, 4196.410156, 4187.179199, 4205.127930, 4199.487305, 4183.076660, 4248.205078, 4185.641113, 3520.000000, 8375.000000, 7930.000000, 0.000000, 0.000000, 0.000000, -21155.000000, 997.435852, 4.000000, 4.000000, 4.000000, 4.000000, 4.000000, 4.000000, 4.000000, 4.000000, 1.000000, 4.000000, 4.000000, 4.000000, 4.000000, 4.000000, 4.000000, 4.000000
89.000000, 0.000000, 4198.461426, 4189.743652, 4191.281738, 4185.641113, 4198.461426, 4188.205078, 4193.846191, 4193.846191, 4192.820313, 4204.102539, 4198.974121, 4188.717773, 4251.794922, 4188.717773, 3454.000000, 8397.000000, 7939.000000, 0.000000, 0.000000, 0.000000, -21154.000000, 5.128205, 4.000000, 4.000000, 4.000000, 4.000000, 4.000000, 4.000000, 4.000000, 4.000000, 1.000000, 4.000000, 4.000000, 4.000000, 4.000000, 4.000000, 4.000000, 4.000000
90.000000, 0.000000, 4213.333008, 4188.717773, 4202.563965, 4188.717773, 4211.281738, 4197.948730, 4199.487305, 4204.615234, 4200.000000, 4214.871582, 4209.230469, 4201.025391, 4269.743652, 4202.051270, 3589.000000, 8397.000000, 7939.000000, 0.000000, 0.000000, 0.000000, -21154.000000, 13.333333, 4.000000, 4.000000, 4.000000, 4.000000, 4.000000, 4.000000, 4.000000, 4.000000, 1.000000, 4.000000, 4.000000, 4.000000, 4.000000, 4.000000, 4.000000, 4.000000
91.000000, 0.000000, 4218.974121, 4192.307617, 4206.666504, 4191.281738, 4209.743652, 4202.563965, 4205.641113, 4212.307617, 4198.461426, 4218.974121, 4216.922852, 4204.102539, 4277.948730, 4212.820313, 3563.000000, 8404.000000, 7947.000000, 0.000000, 0.000000, 0.000000, -21154.000000, 21.025640, 4.000000, 4.000000, 4.000000, 4.000000, 4.000000, 4.000000, 4.000000, 4.000000, 1.000000, 4.000000, 4.000000, 4.000000, 4.000000, 4.000000, 4.000000, 4.000000
92.000000, 0.000000, 4217.948730, 4197.948730, 4201.538574, 4191.794922, 4211.794922, 4197.948730, 4200.000000, 4214.358887, 4195.897461, 4216.410156, 4215.897461, 4200.000000, 4278.974121, 4213.846191, 3520.000000, 8404.000000, 7947.000000, 0.000000, 0.000000, 0.000000, -21154.000000, 29.230768, 4.000000, 4.000000, 4.000000, 4.000000, 4.000000, 4.000000, 4.000000, 4.000000, 1.000000, 4.000000, 4.000000, 4.000000, 4.000000, 4.000000, 4.000000, 4.000000
93.000000, 0.000000, 4217.948730, 4193.846191, 4200.512695, 4191.794922, 4213.333008, 4197.436035, 4196.410156, 4217.436035, 4197.948730, 4216.410156, 4213.846191, 4200.512695, 4281.025391, 4208.717773, 3454.000000, 8408.000000, 7956.000000, 0.000000, 0.000000, 0.000000, -21154.000000, 36.923077, 4.000000, 4.000000, 4.000000, 4.000000, 4.000000, 4.000000, 4.000000, 4.000000, 1.000000, 4.000000, 4.000000, 4.000000, 4.000000, 4.000000, 4.000000, 4.000000
94.000000, 0.000000, 4218.974121, 4186.666504, 4204.102539, 4188.717773, 4211.794922, 4199.487305, 4201.025391, 4218.974121, 4200.000000, 4215.897461, 4212.820313, 4202.563965, 4280.000000, 4205.641113, 3589.000000, 8408.000000, 7956.000000, 0.000000, 0.000000, 0.000000, -21154.000000, 45.128204, 4.000000, 4.000000, 4.000000, 4.000000, 4.000000, 4.000000, 4.000000, 4.000000, 1.000000, 4.000000, 4.000000, 4.000000, 4.000000, 4.000000, 4.000000, 4.000000
95.000000, 0.000000, 4215.897461, 4185.127930, 4203.076660, 4187.179199, 4213.333008, 4198.974121, 4202.563965, 4212.820313, 4198.461426, 4213.333008, 4212.307617, 4201.538574, 4278.461426, 4204.615234, 3563.000000, 8411.000000, 7982.000000, 0.000000, 0.000000, 0.000000, -21154.000000, 52.820511, 4.000000, 4.000000, 4.000000, 4.000000, 4.000000, 4.000000, 4.000000, 4.000000, 1.000000, 4.000000, 4.000000, 4.000000, 4.000000, 4.000000, 4.000000, 4.000000
96.000000, 0.000000, 4215.384277, 4186.153809, 4203.076660, 4192.307617, 4213.846191, 4201.025391, 4200.512695, 4204.102539, 4195.897461, 4213.846191, 4212.820313, 4200.000000, 4279.487305, 4205.641113, 3520.000000, 8411.000000, 7982.000000, 0.000000, 0.000000, 0.000000, -21154.000000, 61.025639, 4.000000, 4.000000, 4.000000, 4.000000, 4.000000, 4.000000, 4.000000, 4.000000, 1.000000, 4.000000, 4.000000, 4.000000, 4.000000, 4.000000, 4.000000, 4.000000
97.000000, 0.000000, 4224.615234, 4188.717773, 4208.717773, 4197.948730, 4217.948730, 4204.102539, 4198.974121, 4205.641113, 4196.922852, 4219.487305, 4217.436035, 4203.589844, 4290.769043, 4214.358887, 3454.000000, 8407.000000, 7995.000000, 0.000000, 0.000000, 0.000000, -21154.000000, 68.717949, 4.000000, 4.000000, 4.000000, 4.000000, 4.000000, 4.000000, 4.000000, 4.000000, 1.000000, 4.000000, 4.000000, 4.000000, 4.000000, 4.000000, 4.000000, 4.000000
98.000000, 0.000000, 4226.666504, 4190.769043, 4206.666504, 4192.820313, 4220.000000, 4205.127930, 4202.563965, 4212.307617, 4199.487305, 4223.589844, 4223.076660, 4207.179199, 4299.487305, 4222.051270, 3589.000000, 8407.000000, 7995.000000, 0.000000, 0.000000, 0.000000, -21154.000000, 76.923073, 4.000000, 4.000000, 4.000000, 4.000000, 4.000000, 4.000000, 4.000000, 4.000000, 1.000000, 4.000000, 4.000000, 4.000000, 4.000000, 4.000000, 4.000000, 4.000000
99.000000, 0.000000, 4209.230469, 4183.076660, 4189.743652, 4179.487305, 4205.127930, 4203.076660, 4198.974121, 4201.538574, 4195.384277, 4216.922852, 4215.384277, 4195.897461, 4288.205078, 4205.127930, 3563.000000, 8401.000000, 8017.000000, 0.000000, 0.000000, 0.000000, -21154.000000, 84.615379, 4.000000, 4.000000, 4.000000, 4.000000, 4.000000, 4.000000, 4.000000, 4.000000, 1.000000, 4.000000, 4.000000, 4.000000, 4.000000, 4.000000, 4.000000, 4.000000
100.000000, 0.000000, 4192.307617, 4173.333008, 4180.000000, 4169.743652, 4193.846191, 4198.974121, 4189.230469, 4196.922852, 4194.358887, 4208.205078, 4200.000000, 4178.461426, 4275.897461, 4185.127930, 3520.000000, 8401.000000, 8017.000000, 0.000000, 0.000000, 0.000000, -21154.000000, 92.820511, 4.000000, 4.000000, 4.000000, 4.000000, 4.000000, 4.000000, 4.000000, 4.000000, 1.000000, 4.000000, 4.000000, 4.000000, 4.000000, 4.000000, 4.000000, 4.000000
101.000000, 0.000000, 4191.794922, 4171.794922, 4183.589844, 4169.743652, 4206.666504, 4199.487305, 4192.307617, 4209.743652, 4198.461426, 4209.230469, 4198.461426, 4176.922852, 4280.000000, 4185.127930, 3454.000000, 8397.000000, 8022.000000, 0.000000, 0.000000, 0.000000, -21154.000000, 100.512817, 4.000000, 4.000000, 4.000000, 4.000000, 4.000000, 4.000000, 4.000000, 4.000000, 1.000000, 4.000000, 4.000000, 4.000000, 4.000000, 4.000000, 4.000000, 4.000000
102.000000, 0.000000, 4196.922852, 4173.333008, 4184.615234, 4173.846191, 4218.974121, 4202.051270, 4198.974121, 4205.641113, 4198.461426, 4210.256348, 4204.102539, 4179.487305, 4282.563965, 4187.179199, 3589.000000, 8397.000000, 8022.000000, 0.000000, 0.000000, 0.000000, -21154.000000, 108.717949, 4.000000, 4.000000, 4.000000, 4.000000, 4.000000, 4.000000, 4.000000, 4.000000, 1.000000, 4.000000, 4.000000, 4.000000, 4.000000, 4.000000, 4.000000, 4.000000
103.000000, 0.000000, 4198.974121, 4172.307617, 4183.076660, 4174.871582, 4211.281738, 4201.538574, 4196.922852, 4197.436035, 4197.436035, 4205.127930, 4201.538574, 4175.384277, 4277.436035, 4184.102539, 3563.000000, 8390.000000, 8030.000000, 0.000000, 0.000000, 0.000000, -21154.000000, 116.410255, 4.000000, 4.000000, 4.000000, 4.000000, 4.000000, 4.000000, 4.000000, 4.000000, 1.000000, 4.000000, 4.000000, 4.000000, 4.000000, 4.000000, 4.000000, 4.000000
104.000000, 0.000000, 4195.897461, 4170.769043, 4183.589844, 4172.307617, 4203.076660, 4197.436035, 4194.871582, 4202.563965, 4198.974121, 4199.487305, 4193.333008, 4172.820313, 4276.410156, 4182.563965, 3520.000000, 8390.000000, 8030.000000, 0.000000, 0.000000, 0.000000, -21154.000000, 124.102562, 4.000000, 4.000000, 4.000000, 4.000000, 4.000000, 4.000000, 4.000000, 4.000000, 1.000000, 4.000000, 4.000000, 4.000000, 4.000000, 4.000000, 4.000000, 4.000000
105.000000, 0.000000, 4190.256348, 4169.743652, 4182.051270, 4169.743652, 4201.538574, 4194.358887, 4191.794922, 4200.000000, 4196.922852, 4197.436035, 4187.179199, 4171.794922, 4274.871582, 4174.871582, 3454.000000, 8366.000000, 8055.000000, 0.000000, 0.000000, 0.000000, -21154.000000, 132.307693, 4.000000, 4.000000, 4.000000, 4.000000, 4.000000, 4.000000, 4.000000, 4.000000, 1.000000, 4.000000, 4.000000, 4.000000, 4.000000, 4.000000, 4.000000, 4.000000
106.000000, 0.000000, 4192.307617, 4172.307617, 4183.076660, 4170.769043, 4201.538574, 4195.897461, 4184.102539, 4191.794922, 4197.436035, 4197.948730, 4190.769043, 4173.846191, 4274.358887, 4172.307617, 3589.000000, 8366.000000, 8055.000000, 0.000000, 0.000000, 0.000000, -21154.000000, 140.000000, 4.000000, 4.000000, 4.000000, 4.000000, 4.000000, 4.000000, 4.000000, 4.000000, 1.000000, 4.000000, 4.000000, 4.000000, 4.000000, 4.000000, 4.000000, 4.000000
107.000000, 0.000000, 4204.615234, 4173.846191, 4194.358887, 4177.948730, 4210.769043, 4200.512695, 4187.692383, 4197.948730, 4198.974121, 4202.051270, 4202.051270, 4184.102539, 4281.538574, 4184.102539, 3563.000000, 8360.000000, 8065.000000, 0.000000, 0.000000, 0.000000, -21154.000000, 148.205124, 4.000000, 4.000000, 4.000000, 4.000000, 4.000000, 4.000000, 4.000000, 4.000000, 1.000000, 4.000000, 4.000000, 4.000000, 4.000000, 4.000000, 4.000000, 4.000000
108.000000, 0.000000, 4211.794922, 4173.333008, 4202.051270, 4184.102539, 4212.820313, 4202.051270, 4193.846191, 4201.025391, 4193.333008, 4204.615234, 4203.589844, 4188.717773, 4287.692383, 4189.230469, 3520.000000, 8360.000000, 8065.000000, 0.000000, 0.000000, 0.000000, -21154.000000, 155.897430, 4.000000, 4.000000, 4.000000, 4.000000, 4.000000, 4.000000, 4.000000, 4.000000, 1.000000, 4.000000, 4.000000, 4.000000, 4.000000, 4.000000, 4.000000, 4.000000
109.000000, 0.000000, 4213.333008, 4177.436035, 4200.512695, 4185.127930, 4200.000000, 4200.512695, 4192.820313, 4195.897461, 4190.256348, 4202.051270, 4201.025391, 4185.127930, 4289.230469, 4189.743652, 3454.000000, 8339.000000, 8082.000000, 0.000000, 0.000000, 0.000000, -21154.000000, 163.589737, 4.000000, 4.000000, 4.000000, 4.000000, 4.000000, 4.000000, 4.000000, 4.000000, 1.000000, 4.000000, 4.000000, 4.000000, 4.000000, 4.000000, 4.000000, 4.000000
110.000000, 0.000000, 4218.974121, 4183.589844, 4201.025391, 4184.615234, 4204.615234, 4201.025391, 4194.358887, 4205.641113, 4194.358887, 4205.641113, 4207.692383, 4191.794922, 4292.307617, 4200.000000, 3589.000000, 8339.000000, 8082.000000, 0.000000, 0.000000, 0.000000, -21154.000000, 171.794861, 4.000000, 4.000000, 4.000000, 4.000000, 4.000000, 4.000000, 4.000000, 4.000000, 1.000000, 4.000000, 4.000000, 4.000000, 4.000000, 4.000000, 4.000000, 4.000000
111.000000, 0.000000, 4224.615234, 4184.615234, 4205.127930, 4187.179199, 4222.051270, 4207.692383, 4201.025391, 4218.461426, 4198.974121, 4217.436035, 4217.948730, 4205.641113, 4300.512695, 4209.230469, 3563.000000, 8327.000000, 8086.000000, 0.000000, 0.000000, 0.000000, -21154.000000, 179.487183, 4.000000, 4.000000, 4.000000, 4.000000, 4.000000, 4.000000, 4.000000, 4.000000, 1.000000, 4.000000, 4.000000, 4.000000, 4.000000, 4.000000, 4.000000, 4.000000
112.000000, 0.000000, 4220.000000, 4184.102539, 4202.563965, 4184.102539, 4218.974121, 4210.769043, 4206.153809, 4215.897461, 4194.871582, 4221.538574, 4218.974121, 4202.563965, 4303.589844, 4205.641113, 3520.000000, 8327.000000, 8086.000000, 0.000000, 0.000000, 0.000000, -21154.000000, 187.692307, 4.000000, 4.000000, 4.000000, 4.000000, 4.000000, 4.000000, 4.000000, 4.000000, 1.000000, 4.000000, 4.000000, 4.000000, 4.000000, 4.000000, 4.000000, 4.000000
113.000000, 0.000000, 4213.333008, 4184.102539, 4194.871582, 4176.410156, 4210.256348, 4203.589844, 4200.000000, 4208.717773, 4192.307617, 4210.769043, 4207.692383, 4187.692383, 4297.436035, 4200.000000, 3454.000000, 8309.000000, 8094.000000, 0.000000, 0.000000, 0.000000, -21154.000000, 195.384613, 4.000000, 4.000000, 4.000000, 4.000000, 4.000000, 4.000000, 4.000000, 4.000000, 1.000000, 4.000000, 4.000000, 4.000000, 4.000000, 4.000000, 4.000000, 4.000000
114.000000, 0.000000, 4221.538574, 4184.102539, 4197.436035, 4179.487305, 4215.897461, 4200.000000, 4193.333008, 4199.487305, 4195.897461, 4202.051270, 4199.487305, 4184.615234, 4291.794922, 4201.538574, 3589.000000, 8309.000000, 8094.000000, 0.000000, 0.000000, 0.000000, -21154.000000, 203.076920, 4.000000, 4.000000, 4.000000, 4.000000, 4.000000, 4.000000, 4.000000, 4.000000, 1.000000, 4.000000, 4.000000, 4.000000, 4.000000, 4.000000, 4.000000, 4.000000
115.000000, 0.000000, 4230.769043, 4186.666504, 4203.589844, 4187.179199, 4212.307617, 4198.974121, 4194.358887, 4187.692383, 4192.820313, 4202.563965, 4201.025391, 4188.717773, 4292.307617, 4205.127930, 3563.000000, 8301.000000, 8104.000000, 0.000000, 0.000000, 0.000000, -21154.000000, 211.282043, 4.000000, 4.000000, 4.000000, 4.000000, 4.000000, 4.000000, 4.000000, 4.000000, 1.000000, 4.000000, 4.000000, 4.000000, 4.000000, 4.000000, 4.000000, 4.000000
116.000000, 0.000000, 4222.563965, 4187.692383, 4196.922852, 4184.615234, 4206.666504, 4189.743652, 4190.256348, 4183.589844, 4186.153809, 4202.051270, 4202.563965, 4188.205078, 4294.358887, 4203.589844, 3520.000000, 8301.000000, 8104.000000, 0.000000, 0.000000, 0.000000, -21154.000000, 219.487167, 4.000000, 4.000000, 4.000000, 4.000000, 4.000000, 4.000000, 4.000000, 4.000000, 1.000000, 4.000000, 4.000000, 4.000000, 4.000000, 4.000000, 4.000000, 4.000000
117.000000, 0.000000, 4216.410156, 4185.641113, 4189.743652, 4180.512695, 4210.769043, 4183.076660, 4183.076660, 4181.538574, 4190.769043, 4199.487305, 4201.538574, 4185.641113, 4294.871582, 4200.512695, 3454.000000, 8295.000000, 8115.000000, 0.000000, 0.000000, 0.000000, -21154.000000, 227.179489, 4.000000, 4.000000, 4.000000, 4.000000, 4.000000, 4.000000, 4.000000, 4.000000, 1.000000, 4.000000, 4.000000, 4.000000, 4.000000, 4.000000, 4.000000, 4.000000
118.000000, 0.000000, 4226.666504, 4186.153809, 4196.922852, 4185.127930, 4203.589844, 4184.615234, 4182.051270, 4171.281738, 4198.974121, 4199.487305, 4201.025391, 4184.102539, 4294.358887, 4202.051270, 3589.000000, 8295.000000, 8115.000000, 0.000000, 0.000000, 0.000000, -21154.000000, 234.871796, 4.000000, 4.000000, 4.000000, 4.000000, 4.000000, 4.000000, 4.000000, 4.000000, 1.000000, 4.000000, 4.000000, 4.000000, 4.000000, 4.000000, 4.000000, 4.000000
119.000000, 0.000000, 4235.384277, 4190.769043, 4206.666504, 4186.666504, 4200.000000, 4183.589844, 4179.487305, 4165.641113, 4197.948730, 4197.948730, 4199.487305, 4190.256348, 4293.846191, 4205.641113, 3563.000000, 8292.000000, 8132.000000, 0.000000, 0.000000, 0.000000, -21154.000000, 243.076920, 4.000000, 4.000000, 4.000000, 4.000000, 4.000000, 4.000000, 4.000000, 4.000000, 1.000000, 4.000000, 4.000000, 4.000000, 4.000000, 4.000000, 4.000000, 4.000000
120.000000, 0.000000, 4229.743652, 4190.769043, 4209.230469, 4187.692383, 4216.922852, 4184.102539, 4177.948730, 4170.769043, 4198.974121, 4192.307617, 4202.051270, 4198.461426, 4293.333008, 4208.205078, 3520.000000, 8292.000000, 8132.000000, 0.000000, 0.000000, 0.000000, -21154.000000, 250.769226, 4.000000, 4.000000, 4.000000, 4.000000, 4.000000, 4.000000, 4.000000, 4.000000, 1.000000, 4.000000, 4.000000, 4.000000, 4.000000, 4.000000, 4.000000, 4.000000
121.000000, 0.000000, 4221.538574, 4180.512695, 4202.563965, 4190.256348, 4220.512695, 4193.846191, 4186.153809, 4174.358887, 4194.871582, 4186.153809, 4200.000000, 4193.333008, 4284.615234, 4202.563965, 3454.000000, 8287.000000, 8139.000000, 0.000000, 0.000000, 0.000000, -21154.000000, 258.461517, 4.000000, 4.000000, 4.000000, 4.000000, 4.000000, 4.000000, 4.000000, 4.000000, 1.000000, 4.000000, 4.000000, 4.000000, 4.000000, 4.000000, 4.000000, 4.000000
122.000000, 0.000000, 4211.281738, 4173.333008, 4191.794922, 4180.512695, 4203.589844, 4198.461426, 4189.743652, 4176.410156, 4187.179199, 4185.127930, 4187.692383, 4183.589844, 4273.333008, 4191.794922, 3589.000000, 8287.000000, 8139.000000, 0.000000, 0.000000, 0.000000, -21154.000000, 266.666656, 4.000000, 4.000000, 4.000000, 4.000000, 4.000000, 4.000000, 4.000000, 4.000000, 1.000000, 4.000000, 4.000000, 4.000000, 4.000000, 4.000000, 4.000000, 4.000000
123.000000, 0.000000, 4207.179199, 4171.281738, 4186.666504, 4170.256348, 4200.000000, 4192.307617, 4187.692383, 4182.563965, 4191.281738, 4193.846191, 4187.179199, 4186.666504, 4275.384277, 4192.307617, 3563.000000, 8278.000000, 8158.000000, 0.000000, 0.000000, 0.000000, -21154.000000, 274.358978, 4.000000, 4.000000, 4.000000, 4.000000, 4.000000, 4.000000, 4.000000, 4.000000, 1.000000, 4.000000, 4.000000, 4.000000, 4.000000, 4.000000, 4.000000, 4.000000
124.000000, 0.000000, 4212.820313, 4171.281738, 4190.256348, 4177.436035, 4197.948730, 4186.666504, 4186.666504, 4187.179199, 4194.358887, 4200.512695, 4200.000000, 4190.256348, 4285.641113, 4199.487305, 3520.000000, 8278.000000, 8158.000000, 0.000000, 0.000000, 0.000000, -21154.000000, 282.051270, 4.000000, 4.000000, 4.000000, 4.000000, 4.000000, 4.000000, 4.000000, 4.000000, 1.000000, 4.000000, 4.000000, 4.000000, 4.000000, 4.000000, 4.000000, 4.000000
125.000000, 0.000000, 4216.922852, 4177.948730, 4194.358887, 4187.692383, 4192.820313, 4185.641113, 4185.127930, 4188.717773, 4187.692383, 4198.461426, 4202.563965, 4186.666504, 4290.256348, 4200.512695, 3454.000000, 8275.000000, 8164.000000, 0.000000, 0.000000, 0.000000, -21154.000000, 290.256409, 4.000000, 4.000000, 4.000000, 4.000000, 4.000000, 4.000000, 4.000000, 4.000000, 1.000000, 4.000000, 4.000000, 4.000000, 4.000000, 4.000000, 4.000000, 4.000000
126.000000, 0.000000, 4217.436035, 4186.153809, 4195.384277, 4186.153809, 4202.563965, 4184.615234, 4183.589844, 4180.000000, 4187.692383, 4196.922852, 4199.487305, 4186.153809, 4291.281738, 4200.512695, 3589.000000, 8275.000000, 8164.000000, 0.000000, 0.000000, 0.000000, -21154.000000, 297.948700, 4.000000, 4.000000, 4.000000, 4.000000, 4.000000, 4.000000, 4.000000, 4.000000, 1.000000, 4.000000, 4.000000, 4.000000, 4.000000, 4.000000, 4.000000, 4.000000
127.000000, 0.000000, 4217.948730, 4185.127930, 4196.410156, 4183.589844, 4205.641113, 4182.051270, 4184.102539, 4172.820313, 4192.820313, 4199.487305, 4202.051270, 4189.230469, 4288.205078, 4201.025391, 57.000000, 8268.000000, 8178.000000, 0.000000, 0.000000, 0.000000, -21154.000000, 306.153839, 4.000000, 4.000000, 4.000000, 4.000000, 4.000000, 4.000000, 4.000000, 4.000000, 1.000000, 4.000000, 4.000000, 4.000000, 4.000000, 4.000000, 4.000000, 4.000000
0.000000, 0.000000, 4215.897461, 4178.974121, 4196.922852, 4184.102539, 4198.974121, 4182.563965, 4186.153809, 4185.641113, 4189.743652, 4200.512695, 4204.102539, 4190.256348, 4284.615234, 4201.025391, 3138.000000, 8268.000000, 8178.000000, 0.000000, 0.000000, 0.000000, -21154.000000, 313.846161, 4.000000, 4.000000, 4.000000, 4.000000, 4.000000, 4.000000, 4.000000, 4.000000, 1.000000, 4.000000, 4.000000, 4.000000, 4.000000, 4.000000, 4.000000, 4.000000
1.000000, 0.000000, 4213.846191, 4178.461426, 4192.307617, 4178.974121, 4200.000000, 4182.563965, 4187.692383, 4191.794922, 4188.205078, 4199.487305, 4203.076660, 4188.717773, 4282.051270, 4200.000000, 3515.000000, 8264.000000, 8191.000000, 0.000000, 0.000000, 0.000000, -21154.000000, 322.051270, 4.000000, 4.000000, 4.000000, 4.000000, 4.000000, 4.000000, 4.000000, 4.000000, 1.000000, 4.000000, 4.000000, 4.000000, 4.000000, 4.000000, 4.000000, 4.000000
2.000000, 0.000000, 4213.846191, 4181.538574, 4189.743652, 4175.897461, 4199.487305, 4182.563965, 4187.692383, 4180.512695, 4193.846191, 4197.948730, 4204.102539, 4189.743652, 4278.461426, 4197.948730, 3553.000000, 8264.000000, 8191.000000, 0.000000, 0.000000, 0.000000, -21154.000000, 329.743591, 4.000000, 4.000000, 4.000000, 4.000000, 4.000000, 4.000000, 4.000000, 4.000000, 1.000000, 4.000000, 4.000000, 4.000000, 4.000000, 4.000000, 4.000000, 4.000000
3.000000, 0.000000, 4217.436035, 4184.615234, 4196.410156, 4184.615234, 4199.487305, 4186.153809, 4187.179199, 4188.205078, 4196.410156, 4200.512695, 4206.666504, 4197.436035, 4285.641113, 4201.538574, 2450.000000, 8261.000000, 8191.000000, 0.000000, 0.000000, 0.000000, -21154.000000, 337.948700, 4.000000, 4.000000, 4.000000, 4.000000, 4.000000, 4.000000, 4.000000, 4.000000, 1.000000, 4.000000, 4.000000, 4.000000, 4.000000, 4.000000, 4.000000, 4.000000
4.000000, 0.000000, 4222.563965, 4187.179199, 4202.051270, 4194.871582, 4204.615234, 4188.205078, 4182.563965, 4203.076660, 4189.743652, 4204.102539, 4210.256348, 4202.051270, 4293.846191, 4204.615234, 3532.000000, 8261.000000, 8191.000000, 0.000000, 0.000000, 0.000000, -21154.000000, 345.641022, 4.000000, 4.000000, 4.000000, 4.000000, 4.000000, 4.000000, 4.000000, 4.000000, 1.000000, 4.000000, 4.000000, 4.000000, 4.000000, 4.000000, 4.000000, 4.000000
5.000000, 0.000000, 4226.666504, 4190.769043, 4202.563965, 4198.461426, 4194.358887, 4182.051270, 4177.436035, 4190.256348, 4187.692383, 4200.000000, 4211.281738, 4200.512695, 4287.179199, 4201.538574, 3734.000000, 8262.000000, 8178.000000, 0.000000, 0.000000, 0.000000, -21154.000000, 353.333313, 4.000000, 4.000000, 4.000000, 4.000000, 4.000000, 4.000000, 4.000000, 4.000000, 1.000000, 4.000000, 4.000000, 4.000000, 4.000000, 4.000000, 4.000000, 4.000000
6.000000, 0.000000, 4230.769043, 4192.820313, 4214.358887, 4197.948730, 4187.179199, 4177.948730, 4182.563965, 4182.563965, 4193.846191, 4199.487305, 4210.769043, 4202.563965, 4285.127930, 4207.179199, 3379.000000, 8262.000000, 8178.000000, 0.000000, 0.000000, 0.000000, -21154.000000, 361.538452, 4.000000, 4.000000, 4.000000, 4.000000, 4.000000, 4.000000, 4.000000, 4.000000, 1.000000, 4.000000, 4.000000, 4.000000, 4.000000, 4.000000, 4.000000, 4.000000
7.000000, 0.000000, 4231.794922, 4186.666504, 4218.974121, 4193.333008, 4198.974121, 4184.615234, 4189.230469, 4188.717773, 4192.820313, 4200.000000, 4208.717773, 4205.127930, 4293.846191, 4215.897461, 3517.000000, 8264.000000, 8173.000000, 0.000000, 0.000000, 0.000000, -21154.000000, 369.230774, 4.000000, 4.000000, 4.000000, 4.000000, 4.000000, 4.000000, 4.000000, 4.000000, 1.000000, 4.000000, 4.000000, 4.000000, 4.000000, 4.000000, 4.000000, 4.000000
8.000000, 0.000000, 4229.230469, 4183.076660, 4205.127930, 4185.127930, 4203.076660, 4186.666504, 4182.563965, 4176.922852, 4186.153809, 4192.307617, 4201.025391, 4200.512695, 4288.205078, 4210.256348, 92.000000, 8264.000000, 8173.000000, 0.000000, 0.000000, 0.000000, -21154.000000, 376.923065, 4.000000, 4.000000, 4.000000, 4.000000, 4.000000, 4.000000, 4.000000, 4.000000, 1.000000, 4.000000, 4.000000, 4.000000, 4.000000, 4.000000, 4.000000, 4.000000
9.000000, 0.000000, 4229.230469, 4191.794922, 4200.000000, 4183.076660, 4198.461426, 4183.076660, 4176.410156, 4163.076660, 4185.127930, 4189.743652, 4202.563965, 4196.410156, 4276.410156, 4207.692383, 2674.000000, 8267.000000, 8158.000000, 0.000000, 0.000000, 0.000000, -21154.000000, 385.128204, 4.000000, 4.000000, 4.000000, 4.000000, 4.000000, 4.000000, 4.000000, 4.000000, 1.000000, 4.000000, 4.000000, 4.000000, 4.000000, 4.000000, 4.000000, 4.000000
10.000000, 0.000000, 4224.102539, 4194.358887, 4198.974121, 4184.615234, 4200.512695, 4183.589844, 4181.538574, 4177.948730, 4190.769043, 4202.051270, 4210.769043, 4201.538574, 4264.615234, 4210.256348, 3724.000000, 8267.000000, 8158.000000, 0.000000, 0.000000, 0.000000, -21154.000000, 392.820496, 4.000000, 4.000000, 4.000000, 4.000000, 4.000000, 4.000000, 4.000000, 4.000000, 1.000000, 4.000000, 4.000000, 4.000000, 4.000000, 4.000000, 4.000000, 4.000000
11.000000, 0.000000, 4213.333008, 4196.410156, 4190.769043, 4185.127930, 4203.076660, 4187.179199, 4187.179199, 4195.384277, 4192.307617, 4202.563965, 4206.153809, 4203.589844, 4235.384277, 4203.589844, 3563.000000, 8265.000000, 8154.000000, 0.000000, 0.000000, 0.000000, -21154.000000, 401.025635, 4.000000, 4.000000, 4.000000, 4.000000, 4.000000, 4.000000, 4.000000, 4.000000, 1.000000, 4.000000, 4.000000, 4.000000, 4.000000, 4.000000, 4.000000, 4.000000
12.000000, 0.000000, 4220.000000, 4216.922852, 4191.794922, 4193.846191, 4203.076660, 4183.589844, 4186.153809, 4186.153809, 4188.205078, 4189.743652, 4196.922852, 4196.922852, 4208.717773, 4198.974121, 3520.000000, 8265.000000, 8154.000000, 0.000000, 0.000000, 0.000000, -21154.000000, 408.717926, 4.000000, 4.000000, 4.000000, 4.000000, 4.000000, 4.000000, 4.000000, 4.000000, 1.000000, 4.000000, 4.000000, 4.000000, 4.000000, 4.000000, 4.000000, 4.000000
13.000000, 0.000000, 4233.333008, 4233.333008, 4202.051270, 4204.102539, 4204.102539, 4175.384277, 4181.538574, 4172.307617, 4185.641113, 4187.692383, 4196.922852, 4193.333008, 4201.538574, 4201.538574, 3456.000000, 8267.000000, 8154.000000, 0.000000, 0.000000, 0.000000, -21154.000000, 416.923065, 4.000000, 4.000000, 4.000000, 4.000000, 4.000000, 4.000000, 4.000000, 4.000000, 1.000000, 4.000000, 4.000000, 4.000000, 4.000000, 4.000000, 4.000000, 4.000000
14.000000, 0.000000, 4233.333008, 4237.436035, 4210.256348, 4203.076660, 4201.538574, 4175.384277, 4180.512695, 4178.461426, 4192.820313, 4191.281738, 4200.000000, 4198.974121, 4200.512695, 4205.127930, 3724.000000, 8267.000000, 8154.000000, 0.000000, 0.000000, 0.000000, -21154.000000, 424.615387, 4.000000, 4.000000, 4.000000, 4.000000, 4.000000, 4.000000, 4.000000, 4.000000, 1.000000, 4.000000, 4.000000, 4.000000, 4.000000, 4.000000, 4.000000, 4.000000
15.000000, 0.000000, 4237.948730, 4246.153809, 4212.820313, 4199.487305, 4199.487305, 4185.641113, 4184.615234, 4190.256348, 4201.025391, 4189.743652, 4200.000000, 4204.102539, 4195.384277, 4213.333008, 3563.000000, 8270.000000, 8159.000000, 0.000000, 0.000000, 0.000000, -21154.000000, 432.307678, 4.000000, 4.000000, 4.000000, 4.000000, 4.000000, 4.000000, 4.000000, 4.000000, 1.000000, 4.000000, 4.000000, 4.000000, 4.000000, 4.000000, 4.000000, 4.000000
16.000000, 0.000000, 4250.769043, 4257.948730, 4208.205078, 4202.051270, 4204.615234, 4190.769043, 4187.692383, 4187.692383, 4195.384277, 4184.102539, 4200.000000, 4200.512695, 4192.820313, 4219.487305, 0.000000, 8270.000000, 8159.000000, 0.000000, 0.000000, 0.000000, -21154.000000, 440.000000, 4.000000, 4.000000, 4.000000, 4.000000, 4.000000, 4.000000, 4.000000, 4.000000, 1.000000, 4.000000, 4.000000, 4.000000, 4.000000, 4.000000, 4.000000, 4.000000
17.000000, 0.000000, 4247.692383, 4262.051270, 4198.461426, 4202.051270, 4209.743652, 4187.692383, 4188.717773, 4185.641113, 4190.256348, 4185.641113, 4199.487305, 4192.307617, 4194.871582, 4212.307617, 0.000000, 8272.000000, 8163.000000, 0.000000, 0.000000, 0.000000, -21154.000000, 448.205109, 4.000000, 4.000000, 4.000000, 4.000000, 4.000000, 4.000000, 4.000000, 4.000000, 1.000000, 4.000000, 4.000000, 4.000000, 4.000000, 4.000000, 4.000000, 4.000000
18.000000, 0.000000, 4231.794922, 4260.512695, 4186.153809, 4193.333008, 4200.000000, 4185.127930, 4183.076660, 4182.563965, 4192.820313, 4192.820313, 4199.487305, 4184.102539, 4190.769043, 4203.076660, 0.000000, 8272.000000, 8163.000000, 0.000000, 0.000000, 0.000000, -21154.000000, 455.897430, 4.000000, 4.000000, 4.000000, 4.000000, 4.000000, 4.000000, 4.000000, 4.000000, 1.000000, 4.000000, 4.000000, 4.000000, 4.000000, 4.000000, 4.000000, 4.000000
19.000000, 0.000000, 4220.000000, 4254.871582, 4177.948730, 4189.743652, 4190.769043, 4184.615234, 4173.333008, 4174.358887, 4193.333008, 4190.256348, 4197.948730, 4176.922852, 4175.897461, 4196.410156, 0.000000, 8262.000000, 8168.000000, 0.000000, 0.000000, 0.000000, -21154.000000, 464.102539, 4.000000, 4.000000, 4.000000, 4.000000, 4.000000, 4.000000, 4.000000, 4.000000, 1.000000, 4.000000, 4.000000, 4.000000, 4.000000, 4.000000, 4.000000, 4.000000
20.000000, 0.000000, 4215.384277, 4248.717773, 4174.871582, 4191.794922, 4208.205078, 4186.153809, 4172.307617, 4169.743652, 4187.692383, 4175.897461, 4182.563965, 4169.743652, 4165.127930, 4187.179199, 0.000000, 8262.000000, 8168.000000, 0.000000, 0.000000, 0.000000, -21154.000000, 471.794861, 4.000000, 4.000000, 4.000000, 4.000000, 4.000000, 4.000000, 4.000000, 4.000000, 1.000000, 4.000000, 4.000000, 4.000000, 4.000000, 4.000000, 4.000000, 4.000000
21.000000, 0.000000, 4215.897461, 4249.743652, 4174.871582, 4191.794922, 4220.000000, 4188.717773, 4181.025391, 4170.769043, 4186.153809, 4171.794922, 4165.127930, 4165.127930, 4168.205078, 4181.538574, 0.000000, 8244.000000, 8178.000000, 0.000000, 0.000000, 0.000000, -21154.000000, 480.000000, 4.000000, 4.000000, 4.000000, 4.000000, 4.000000, 4.000000, 4.000000, 4.000000, 1.000000, 4.000000, 4.000000, 4.000000, 4.000000, 4.000000, 4.000000, 4.000000
22.000000, 0.000000, 4216.410156, 4252.307617, 4176.410156, 4191.794922, 4203.589844, 4187.692383, 4187.179199, 4176.922852, 4191.794922, 4181.025391, 4167.692383, 4165.127930, 4172.307617, 4182.051270, 0.000000, 8244.000000, 8178.000000, 0.000000, 0.000000, 0.000000, -21154.000000, 487.692291, 4.000000, 4.000000, 4.000000, 4.000000, 4.000000, 4.000000, 4.000000, 4.000000, 1.000000, 4.000000, 4.000000, 4.000000, 4.000000, 4.000000, 4.000000, 4.000000
23.000000, 0.000000, 4213.333008, 4247.692383, 4180.512695, 4191.281738, 4192.820313, 4184.615234, 4187.179199, 4183.589844, 4197.948730, 4185.127930, 4177.948730, 4164.615234, 4174.871582, 4180.512695, 0.000000, 8225.000000, 8171.000000, 0.000000, 0.000000, 0.000000, -21154.000000, 495.897430, 4.000000, 4.000000, 4.000000, 4.000000, 4.000000, 4.000000, 4.000000, 4.000000, 1.000000, 4.000000, 4.000000, 4.000000, 4.000000, 4.000000, 4.000000, 4.000000
24.000000, 0.000000, 4212.307617, 4239.487305, 4183.076660, 4186.666504, 4197.436035, 4186.153809, 4187.179199, 4181.538574, 4197.948730, 4193.333008, 4182.563965, 4170.769043, 4190.769043, 4184.102539, 0.000000, 8225.000000, 8171.000000, 0.000000, 0.000000, 0.000000, -21154.000000, 503.589722, 4.000000, 4.000000, 4.000000, 4.000000, 4.000000, 4.000000, 4.000000, 4.000000, 1.000000, 4.000000, 4.000000, 4.000000, 4.000000, 4.000000, 4.000000, 4.000000
25.000000, 0.000000, 4218.461426, 4240.000000, 4190.769043, 4186.666504, 4199.487305, 4188.717773, 4187.692383, 4183.589844, 4196.922852, 4213.846191, 4193.333008, 4187.179199, 4214.871582, 4199.487305, 0.000000, 8193.000000, 8151.000000, 0.000000, 0.000000, 0.000000, -21154.000000, 511.282043, 4.000000, 4.000000, 4.000000, 4.000000, 4.000000, 4.000000, 4.000000, 4.000000, 1.000000, 4.000000, 4.000000, 4.000000, 4.000000, 4.000000, 4.000000, 4.000000
26.000000, 0.000000, 4230.256348, 4246.153809, 4201.538574, 4190.769043, 4195.897461, 4186.666504, 4181.025391, 4187.179199, 4197.436035, 4221.538574, 4201.538574, 4191.794922, 4222.051270, 4203.076660, 0.000000, 8193.000000, 8151.000000, 0.000000, 0.000000, 0.000000, -21154.000000, 519.487183, 4.000000, 4.000000, 4.000000, 4.000000, 4.000000, 4.000000, 4.000000, 4.000000, 1.000000, 4.000000, 4.000000, 4.000000, 4.000000, 4.000000, 4.000000, 4.000000
27.000000, 0.000000, 4232.820313, 4246.666504, 4202.563965, 4188.205078, 4190.256348, 4182.563965, 4170.256348, 4171.794922, 4191.794922, 4215.897461, 4194.871582, 4184.102539, 4215.897461, 4197.436035, 0.000000, 8172.000000, 8155.000000, 0.000000, 0.000000, 0.000000, -21154.000000, 527.179504, 4.000000, 4.000000, 4.000000, 4.000000, 4.000000, 4.000000, 4.000000, 4.000000, 1.000000, 4.000000, 4.000000, 4.000000, 4.000000, 4.000000, 4.000000, 4.000000
28.000000, 0.000000, 4231.281738, 4245.641113, 4201.538574, 4190.256348, 4194.358887, 4183.589844, 4173.333008, 4167.179199, 4185.127930, 4232.307617, 4196.410156, 4193.846191, 4227.692383, 4206.153809, 0.000000, 8172.000000, 8155.000000, 0.000000, 0.000000, 0.000000, -21154.000000, 535.384583, 4.000000, 4.000000, 4.000000, 4.000000, 4.000000, 4.000000, 4.000000, 4.000000, 1.000000, 4.000000, 4.000000, 4.000000, 4.000000, 4.000000, 4.000000, 4.000000
29.000000, 0.000000, 4239.487305, 4249.230469, 4204.102539, 4197.436035, 4211.794922, 4187.692383, 4189.230469, 4191.794922, 4188.717773, 4260.512695, 4210.256348, 4207.692383, 4246.666504, 4218.461426, 0.000000, 8151.000000, 8146.000000, 0.000000, 0.000000, 0.000000, -21154.000000, 543.076904, 4.000000, 4.000000, 4.000000, 4.000000, 4.000000, 4.000000, 4.000000, 4.000000, 1.000000, 4.000000, 4.000000, 4.000000, 4.000000, 4.000000, 4.000000, 4.000000
30.000000, 0.000000, 4246.666504, 4249.743652, 4200.000000, 4198.461426, 4215.384277, 4187.692383, 4197.436035, 4203.589844, 4196.410156, 4273.846191, 4213.333008, 4202.563965, 4247.179199, 4220.000000, 0.000000, 8151.000000, 8146.000000, 0.000000, 0.000000, 0.000000, -21154.000000, 550.769226, 4.000000, 4.000000, 4.000000, 4.000000, 4.000000, 4.000000, 4.000000, 4.000000, 1.000000, 4.000000, 4.000000, 4.000000, 4.000000, 4.000000, 4.000000, 4.000000
31.000000, 0.000000, 4243.589844, 4248.717773, 4203.076660, 4200.512695, 4203.076660, 4183.589844, 4197.436035, 4202.051270, 4195.384277, 4284.102539, 4211.281738, 4203.076660, 4241.538574, 4216.922852, 0.000000, 8135.000000, 8137.000000, 0.000000, 0.000000, 0.000000, -21154.000000, 558.974365, 4.000000, 4.000000, 4.000000, 4.000000, 4.000000, 4.000000, 4.000000, 4.000000, 1.000000, 4.000000, 4.000000, 4.000000, 4.000000, 4.000000, 4.000000, 4.000000
32.000000, 0.000000, 4242.051270, 4251.281738, 4215.897461, 4205.127930, 4200.512695, 4185.641113, 4200.512695, 4212.820313, 4191.794922, 4301.025391, 4213.333008, 4215.384277, 4244.102539, 4217.948730, 0.000000, 8135.000000, 8137.000000, 0.000000, 0.000000, 0.000000, -21154.000000, 567.179443, 4.000000, 4.000000, 4.000000, 4.000000, 4.000000, 4.000000, 4.000000, 4.000000, 1.000000, 4.000000, 4.000000, 4.000000, 4.000000, 4.000000, 4.000000, 4.000000
33.000000, 0.000000, 4248.205078, 4252.307617, 4219.487305, 4202.563965, 4211.794922, 4197.948730, 4208.717773, 4223.076660, 4195.897461, 4320.000000, 4216.922852, 4215.897461, 4249.230469, 4225.127930, 0.000000, 8130.000000, 8139.000000, 0.000000, 0.000000, 0.000000, -21154.000000, 574.871765, 4.000000, 4.000000, 4.000000, 4.000000, 4.000000, 4.000000, 4.000000, 4.000000, 1.000000, 4.000000, 4.000000, 4.000000, 4.000000, 4.000000, 4.000000, 4.000000
34.000000, 0.000000, 4249.743652, 4252.307617, 4217.436035, 4201.538574, 4211.281738, 4203.589844, 4210.256348, 4215.384277, 4201.025391, 4332.307617, 4213.846191, 4206.153809, 4245.127930, 4227.179199, 0.000000, 8130.000000, 8139.000000, 0.000000, 0.000000, 0.000000, -21154.000000, 582.564087, 4.000000, 4.000000, 4.000000, 4.000000, 4.000000, 4.000000, 4.000000, 4.000000, 1.000000, 4.000000, 4.000000, 4.000000, 4.000000, 4.000000, 4.000000, 4.000000
35.000000, 0.000000, 4244.102539, 4248.205078, 4214.358887, 4203.076660, 4199.487305, 4197.436035, 4196.922852, 4201.025391, 4197.948730, 4327.692383, 4201.025391, 4198.461426, 4228.717773, 4215.897461, 0.000000, 8128.000000, 8143.000000, 0.000000, 0.000000, 0.000000, -21154.000000, 590.769226, 4.000000, 4.000000, 4.000000, 4.000000, 4.000000, 4.000000, 4.000000, 4.000000, 1.000000, 4.000000, 4.000000, 4.000000, 4.000000, 4.000000, 4.000000, 4.000000
36.000000, 0.000000, 4243.589844, 4245.127930, 4207.179199, 4194.358887, 4200.512695, 4198.974121, 4192.820313, 4200.000000, 4195.384277, 4327.179199, 4197.948730, 4198.974121, 4226.666504, 4212.820313, 0.000000, 8128.000000, 8143.000000, 0.000000, 0.000000, 0.000000, -21154.000000, 598.461548, 4.000000, 4.000000, 4.000000, 4.000000, 4.000000, 4.000000, 4.000000, 4.000000, 1.000000, 4.000000, 4.000000, 4.000000, 4.000000, 4.000000, 4.000000, 4.000000
37.000000, 0.000000, 4249.230469, 4244.615234, 4202.051270, 4193.333008, 4210.256348, 4201.538574, 4198.974121, 4201.538574, 4199.487305, 4341.025391, 4201.538574, 4202.051270, 4235.897461, 4222.563965, 0.000000, 8131.000000, 8148.000000, 0.000000, 0.000000, 0.000000, -21154.000000, 606.666626, 4.000000, 4.000000, 4.000000, 4.000000, 4.000000, 4.000000, 4.000000, 4.000000, 1.000000, 4.000000, 4.000000, 4.000000, 4.000000, 4.000000, 4.000000, 4.000000
38.000000, 0.000000, 4245.641113, 4240.512695, 4201.538574, 4196.922852, 4202.563965, 4191.281738, 4188.205078, 4191.794922, 4198.974121, 4337.948730, 4192.307617, 4193.846191, 4227.692383, 4216.922852, 0.000000, 8131.000000, 8148.000000, 0.000000, 0.000000, 0.000000, -21154.000000, 614.358948, 4.000000, 4.000000, 4.000000, 4.000000, 4.000000, 4.000000, 4.000000, 4.000000, 1.000000, 4.000000, 4.000000, 4.000000, 4.000000, 4.000000, 4.000000, 4.000000
39.000000, 0.000000, 4236.922852, 4233.333008, 4198.974121, 4191.794922, 4184.615234, 4183.076660, 4179.487305, 4182.563965, 4195.897461, 4320.512695, 4183.076660, 4181.538574, 4212.820313, 4203.076660, 0.000000, 8133.000000, 8150.000000, 0.000000, 0.000000, 0.000000, -21154.000000, 622.051270, 4.000000, 4.000000, 4.000000, 4.000000, 4.000000, 4.000000, 4.000000, 4.000000, 1.000000, 4.000000, 4.000000, 4.000000, 4.000000, 4.000000, 4.000000, 4.000000
40.000000, 0.000000, 4235.897461, 4230.256348, 4196.410156, 4189.743652, 4188.717773, 4187.179199, 4193.333008, 4185.127930, 4196.410156, 4318.974121, 4186.666504, 4183.076660, 4214.871582, 4204.615234, 0.000000, 8133.000000, 8150.000000, 0.000000, 0.000000, 0.000000, -21154.000000, 630.256409, 4.000000, 4.000000, 4.000000, 4.000000, 4.000000, 4.000000, 4.000000, 4.000000, 1.000000, 4.000000, 4.000000, 4.000000, 4.000000, 4.000000, 4.000000, 4.000000
41.000000, 0.000000, 4240.000000, 4232.307617, 4198.461426, 4197.948730, 4203.589844, 4189.230469, 4200.512695, 4193.333008, 4199.487305, 4322.051270, 4194.358887, 4187.692383, 4217.948730, 4211.281738, 0.000000, 8124.000000, 8145.000000, 0.000000, 0.000000, 0.000000, -21154.000000, 637.948730, 4.000000, 4.000000, 4.000000, 4.000000, 4.000000, 4.000000, 4.000000, 4.000000, 1.000000, 4.000000, 4.000000, 4.000000, 4.000000, 4.000000, 4.000000, 4.000000
42.000000, 0.000000, 4242.563965, 4236.410156, 4201.025391, 4201.538574, 4194.871582, 4183.589844, 4194.358887, 4195.897461, 4198.461426, 4313.333008, 4197.948730, 4187.179199, 4215.897461, 4212.820313, 0.000000, 8124.000000, 8145.000000, 0.000000, 0.000000, 0.000000, -21154.000000, 645.640991, 4.000000, 4.000000, 4.000000, 4.000000, 4.000000, 4.000000, 4.000000, 4.000000, 1.000000, 4.000000, 4.000000, 4.000000, 4.000000, 4.000000, 4.000000, 4.000000
43.000000, 0.000000, 4247.692383, 4234.871582, 4201.025391, 4200.000000, 4178.974121, 4183.589844, 4198.461426, 4198.974121, 4196.410156, 4306.153809, 4202.563965, 4193.333008, 4217.436035, 4214.871582, 0.000000, 8112.000000, 8151.000000, 0.000000, 0.000000, 0.000000, -21154.000000, 653.846130, 4.000000, 4.000000, 4.000000, 4.000000, 4.000000, 4.000000, 4.000000, 4.000000, 1.000000, 4.000000, 4.000000, 4.000000, 4.000000, 4.000000, 4.000000, 4.000000
44.000000, 0.000000, 4246.666504, 4229.230469, 4198.461426, 4200.512695, 4197.436035, 4190.769043, 4205.127930, 4203.589844, 4198.461426, 4298.461426, 4200.512695, 4200.000000, 4209.743652, 4216.922852, 0.000000, 8112.000000, 8151.000000, 0.000000, 0.000000, 0.000000, -21154.000000, 662.051270, 4.000000, 4.000000, 4.000000, 4.000000, 4.000000, 4.000000, 4.000000, 4.000000, 1.000000, 4.000000, 4.000000, 4.000000, 4.000000, 4.000000, 4.000000, 4.000000
45.000000, 0.000000, 4238.461426, 4229.743652, 4197.436035, 4198.974121, 4220.512695, 4192.820313, 4198.461426, 4201.025391, 4197.436035, 4287.179199, 4197.436035, 4201.025391, 4201.538574, 4216.410156, 0.000000, 8102.000000, 8164.000000, 0.000000, 0.000000, 0.000000, -21154.000000, 669.743591, 4.000000, 4.000000, 4.000000, 4.000000, 4.000000, 4.000000, 4.000000, 4.000000, 1.000000, 4.000000, 4.000000, 4.000000, 4.000000, 4.000000, 4.000000, 4.000000
46.000000, 0.000000, 4234.358887, 4229.743652, 4200.000000, 4197.948730, 4207.179199, 4187.692383, 4187.179199, 4186.153809, 4191.794922, 4281.025391, 4199.487305, 4201.025391, 4203.076660, 4212.820313, 0.000000, 8102.000000, 8164.000000, 0.000000, 0.000000, 0.000000, -21154.000000, 677.948730, 4.000000, 4.000000, 4.000000, 4.000000, 4.000000, 4.000000, 4.000000, 4.000000, 1.000000, 4.000000, 4.000000, 4.000000, 4.000000, 4.000000, 4.000000, 4.000000
47.000000, 0.000000, 4235.384277, 4221.025391, 4201.025391, 4196.922852, 4193.333008, 4181.025391, 4186.153809, 4176.410156, 4186.666504, 4272.307617, 4194.871582, 4194.871582, 4195.384277, 4205.127930, 0.000000, 8096.000000, 8173.000000, 0.000000, 0.000000, 0.000000, -21154.000000, 685.640991, 4.000000, 4.000000, 4.000000, 4.000000, 4.000000, 4.000000, 4.000000, 4.000000, 1.000000, 4.000000, 4.000000, 4.000000, 4.000000, 4.000000, 4.000000, 4.000000
48.000000, 0.000000, 4233.846191, 4216.410156, 4199.487305, 4193.333008, 4202.563965, 4174.871582, 4192.307617, 4174.871582, 4187.179199, 4260.512695, 4185.127930, 4186.153809, 4182.563965, 4198.461426, 0.000000, 8096.000000, 8173.000000, 0.000000, 0.000000, 0.000000, -21154.000000, 693.846130, 4.000000, 4.000000, 4.000000, 4.000000, 4.000000, 4.000000, 4.000000, 4.000000, 1.000000, 4.000000, 4.000000, 4.000000, 4.000000, 4.000000, 4.000000, 4.000000
49.000000, 0.000000, 4232.820313, 4221.538574, 4200.512695, 4192.820313, 4204.102539, 4170.256348, 4188.717773, 4169.230469, 4192.820313, 4258.461426, 4184.102539, 4183.589844, 4184.615234, 4200.000000, 0.000000, 8089.000000, 8190.000000, 0.000000, 0.000000, 0.000000, -21154.000000, 701.538452, 4.000000, 4.000000, 4.000000, 4.000000, 4.000000, 4.000000, 4.000000, 4.000000, 1.000000, 4.000000, 4.000000, 4.000000, 4.000000, 4.000000, 4.000000, 4.000000
50.000000, 0.000000, 4233.846191, 4220.512695, 4204.102539, 4194.871582, 4188.205078, 4175.897461, 4181.025391, 4170.256348, 4198.461426, 4264.102539, 4186.666504, 4187.692383, 4189.743652, 4202.563965, 0.000000, 8089.000000, 8190.000000, 0.000000, 0.000000, 0.000000, -21154.000000, 709.743591, 4.000000, 4.000000, 4.000000, 4.000000, 4.000000, 4.000000, 4.000000, 4.000000, 1.000000, 4.000000, 4.000000, 4.000000, 4.000000, 4.000000, 4.000000, 4.000000
51.000000, 0.000000, 4231.281738, 4213.846191, 4201.538574, 4194.871582, 4183.589844, 4182.563965, 4188.205078, 4180.512695, 4200.000000, 4259.487305, 4181.538574, 4191.794922, 4181.025391, 4197.436035, 0.000000, 8082.000000, 8201.000000, 0.000000, 0.000000, 0.000000, -21154.000000, 717.435852, 4.000000, 4.000000, 4.000000, 4.000000, 4.000000, 4.000000, 4.000000, 4.000000, 1.000000, 4.000000, 4.000000, 4.000000, 4.000000, 4.000000, 4.000000, 4.000000
52.000000, 0.000000, 4235.897461, 4220.000000, 4202.051270, 4198.974121, 4202.563965, 4186.666504, 4201.538574, 4191.794922, 4198.461426, 4259.487305, 4189.230469, 4199.487305, 4187.179199, 4204.102539, 0.000000, 8082.000000, 8201.000000, 0.000000, 0.000000, 0.000000, -21154.000000, 725.640991, 4.000000, 4.000000, 4.000000, 4.000000, 4.000000, 4.000000, 4.000000, 4.000000, 1.000000, 4.000000, 4.000000, 4.000000, 4.000000, 4.000000, 4.000000, 4.000000
53.000000, 0.000000, 4247.692383, 4232.307617, 4212.307617, 4207.692383, 4222.563965, 4197.436035, 4203.076660, 4201.025391, 4197.436035, 4271.794922, 4204.102539, 4206.666504, 4207.692383, 4220.000000, 0.000000, 8093.000000, 8215.000000, 0.000000, 0.000000, 0.000000, -21154.000000, 733.846130, 4.000000, 4.000000, 4.000000, 4.000000, 4.000000, 4.000000, 4.000000, 4.000000, 1.000000, 4.000000, 4.000000, 4.000000, 4.000000, 4.000000, 4.000000, 4.000000
54.000000, 0.000000, 4243.589844, 4218.461426, 4212.820313, 4201.025391, 4216.922852, 4203.076660, 4205.127930, 4203.076660, 4197.436035, 4272.307617, 4193.846191, 4203.589844, 4193.846191, 4210.256348, 0.000000, 8093.000000, 8215.000000, 0.000000, 0.000000, 0.000000, -21154.000000, 741.538452, 4.000000, 4.000000, 4.000000, 4.000000, 4.000000, 4.000000, 4.000000, 4.000000, 1.000000, 4.000000, 4.000000, 4.000000, 4.000000, 4.000000, 4.000000, 4.000000
55.000000, 0.000000, 4228.717773, 4198.461426, 4204.102539, 4184.615234, 4199.487305, 4199.487305, 4214.358887, 4198.974121, 4197.436035, 4268.717773, 4186.153809, 4201.538574, 4175.384277, 4194.358887, 0.000000, 8097.000000, 8212.000000, 0.000000, 0.000000, 0.000000, -21154.000000, 749.743591, 4.000000, 4.000000, 4.000000, 4.000000, 4.000000, 4.000000, 4.000000, 4.000000, 1.000000, 4.000000, 4.000000, 4.000000, 4.000000, 4.000000, 4.000000, 4.000000
56.000000, 0.000000, 4230.256348, 4207.692383, 4203.076660, 4185.641113, 4198.974121, 4197.948730, 4214.871582, 4204.102539, 4197.436035, 4275.897461, 4205.127930, 4208.717773, 4201.538574, 4206.666504, 0.000000, 8097.000000, 8212.000000, 0.000000, 0.000000, 0.000000, -21154.000000, 757.435852, 4.000000, 4.000000, 4.000000, 4.000000, 4.000000, 4.000000, 4.000000, 4.000000, 1.000000, 4.000000, 4.000000, 4.000000, 4.000000, 4.000000, 4.000000, 4.000000
57.000000, 0.000000, 4240.512695, 4222.051270, 4208.717773, 4198.974121, 4212.307617, 4203.589844, 4208.717773, 4221.025391, 4197.948730, 4284.102539, 4220.512695, 4215.897461, 4229.743652, 4224.102539, 0.000000, 8103.000000, 8215.000000, 0.000000, 0.000000, 0.000000, -21154.000000, 765.640991, 4.000000, 4.000000, 4.000000, 4.000000, 4.000000, 4.000000, 4.000000, 4.000000, 1.000000, 4.000000, 4.000000, 4.000000, 4.000000, 4.000000, 4.000000, 4.000000
58.000000, 0.000000, 4236.922852, 4217.436035, 4204.615234, 4201.538574, 4211.794922, 4204.102539, 4210.769043, 4219.487305, 4198.461426, 4283.076660, 4215.897461, 4213.333008, 4231.794922, 4218.974121, 0.000000, 8103.000000, 8215.000000, 0.000000, 0.000000, 0.000000, -21154.000000, 773.333313, 4.000000, 4.000000, 4.000000, 4.000000, 4.000000, 4.000000, 4.000000, 4.000000, 1.000000, 4.000000, 4.000000, 4.000000, 4.000000, 4.000000, 4.000000, 4.000000
59.000000, 0.000000, 4230.769043, 4210.256348, 4197.948730, 4195.384277, 4201.025391, 4202.051270, 4215.384277, 4205.641113, 4196.410156, 4279.487305, 4214.871582, 4211.794922, 4239.487305, 4214.358887, 0.000000, 8120.000000, 8211.000000, 0.000000, 0.000000, 0.000000, -21154.000000, 781.538452, 4.000000, 4.000000, 4.000000, 4.000000, 4.000000, 4.000000, 4.000000, 4.000000, 1.000000, 4.000000, 4.000000, 4.000000, 4.000000, 4.000000, 4.000000, 4.000000
60.000000, 0.000000, 4233.333008, 4206.666504, 4206.666504, 4191.794922, 4202.563965, 4205.641113, 4216.922852, 4210.769043, 4196.410156, 4283.589844, 4225.641113, 4218.461426, 4253.846191, 4220.512695, 0.000000, 8120.000000, 8211.000000, 0.000000, 0.000000, 0.000000, -21154.000000, 789.743591, 4.000000, 4.000000, 4.000000, 4.000000, 4.000000, 4.000000, 4.000000, 4.000000, 1.000000, 4.000000, 4.000000, 4.000000, 4.000000, 4.000000, 4.000000, 4.000000
61.000000, 0.000000, 4231.794922, 4201.538574, 4214.871582, 4190.256348, 4203.076660, 4207.179199, 4213.846191, 4219.487305, 4198.974121, 4288.205078, 4232.820313, 4219.487305, 4258.974121, 4221.025391, 0.000000, 8122.000000, 8202.000000, 0.000000, 0.000000, 0.000000, -21154.000000, 797.435852, 4.000000, 4.000000, 4.000000, 4.000000, 4.000000, 4.000000, 4.000000, 4.000000, 1.000000, 4.000000, 4.000000, 4.000000, 4.000000, 4.000000, 4.000000, 4.000000
62.000000, 0.000000, 4224.102539, 4200.000000, 4208.205078, 4188.205078, 4196.410156, 4201.538574, 4203.076660, 4214.871582, 4200.000000, 4285.641113, 4227.179199, 4214.358887, 4260.512695, 4218.974121, 0.000000, 8122.000000, 8202.000000, 0.000000, 0.000000, 0.000000, -21154.000000, 805.640991, 4.000000, 4.000000, 4.000000, 4.000000, 4.000000, 4.000000, 4.000000, 4.000000, 1.000000, 4.000000, 4.000000, 4.000000, 4.000000, 4.000000, 4.000000, 4.000000
63.000000, 0.000000, 4218.974121, 4200.000000, 4200.512695, 4186.153809, 4201.025391, 4196.410156, 4198.974121, 4212.307617, 4199.487305, 4274.871582, 4217.948730, 4214.358887, 4254.871582, 4214.871582, 0.000000, 8129.000000, 8191.000000, 0.000000, 0.000000, 0.000000, -21154.000000, 813.333313, 4.000000, 4.000000, 4.000000, 4.000000, 4.000000, 4.000000, 4.000000, 4.000000, 1.000000, 4.000000, 4.000000, 4.000000, 4.000000, 4.000000, 4.000000, 4.000000
64.000000, 0.000000, 4215.384277, 4195.384277, 4202.563965, 4186.666504, 4206.666504, 4197.436035, 4202.563965, 4207.692383, 4197.948730, 4267.179199, 4214.358887, 4212.307617, 4243.076660, 4206.153809, 3134.000000, 8129.000000, 8191.000000, 0.000000, 0.000000, 0.000000, -21154.000000, 821.538452, 4.000000, 4.000000, 4.000000, 4.000000, 4.000000, 4.000000, 4.000000, 4.000000, 1.000000, 4.000000, 4.000000, 4.000000, 4.000000, 4.000000, 4.000000, 4.000000
65.000000, 0.000000, 4209.743652, 4193.333008, 4201.538574, 4183.076660, 4203.076660, 4199.487305, 4203.076660, 4197.948730, 4196.410156, 4261.025391, 4206.153809, 4204.615234, 4233.846191, 4198.461426, 3513.000000, 8136.000000, 8187.000000, 0.000000, 0.000000, 0.000000, -21154.000000, 829.230774, 4.000000, 4.000000, 4.000000, 4.000000, 4.000000, 4.000000, 4.000000, 4.000000, 1.000000, 4.000000, 4.000000, 4.000000, 4.000000, 4.000000, 4.000000, 4.000000
66.000000, 0.000000, 4204.102539, 4188.205078, 4196.410156, 4173.846191, 4204.615234, 4200.512695, 4207.179199, 4206.666504, 4197.948730, 4256.410156, 4198.974121, 4201.538574, 4230.769043, 4197.436035, 3549.000000, 8136.000000, 8187.000000, 0.000000, 0.000000, 0.000000, -21154.000000, 837.435852, 4.000000, 4.000000, 4.000000, 4.000000, 4.000000, 4.000000, 4.000000, 4.000000, 1.000000, 4.000000, 4.000000, 4.000000, 4.000000, 4.000000, 4.000000, 4.000000
67.000000, 0.000000, 4203.589844, 4185.127930, 4197.436035, 4176.922852, 4209.230469, 4202.051270, 4215.384277, 4217.436035, 4200.000000, 4261.025391, 4207.179199, 4205.127930, 4232.820313, 4198.974121, 2439.000000, 8138.000000, 8186.000000, 0.000000, 0.000000, 0.000000, -21154.000000, 845.128174, 4.000000, 4.000000, 4.000000, 4.000000, 4.000000, 4.000000, 4.000000, 4.000000, 1.000000, 4.000000, 4.000000, 4.000000, 4.000000, 4.000000, 4.000000, 4.000000
68.000000, 0.000000, 4204.102539, 4186.666504, 4196.922852, 4186.666504, 4208.205078, 4200.000000, 4208.717773, 4206.153809, 4196.410156, 4262.563965, 4211.794922, 4205.127930, 4231.794922, 4199.487305, 3536.000000, 8138.000000, 8186.000000, 0.000000, 0.000000, 0.000000, -21154.000000, 853.333313, 4.000000, 4.000000, 4.000000, 4.000000, 4.000000, 4.000000, 4.000000, 4.000000, 1.000000, 4.000000, 4.000000, 4.000000, 4.000000, 4.000000, 4.000000, 4.000000
69.000000, 0.000000, 4204.615234, 4187.179199, 4197.948730, 4184.102539, 4204.615234, 4198.461426, 4200.512695, 4198.974121, 4189.230469, 4256.922852, 4207.179199, 4204.615234, 4233.846191, 4198.461426, 3591.000000, 8143.000000, 8184.000000, 0.000000, 0.000000, 0.000000, -21154.000000, 861.538452, 4.000000, 4.000000, 4.000000, 4.000000, 4.000000, 4.000000, 4.000000, 4.000000, 1.000000, 4.000000, 4.000000, 4.000000, 4.000000, 4.000000, 4.000000, 4.000000
70.000000, 0.000000, 4204.615234, 4183.589844, 4204.615234, 4174.871582, 4200.000000, 4200.000000, 4206.666504, 4198.461426, 4185.641113, 4246.153809, 4198.461426, 4202.051270, 4232.820313, 4191.794922, 3381.000000, 8143.000000, 8184.000000, 0.000000, 0.000000, 0.000000, -21154.000000, 869.230774, 4.000000, 4.000000, 4.000000, 4.000000, 4.000000, 4.000000, 4.000000, 4.000000, 1.000000, 4.000000, 4.000000, 4.000000, 4.000000, 4.000000, 4.000000, 4.000000
71.000000, 0.000000, 4198.974121, 4178.974121, 4200.000000, 4171.794922, 4197.948730, 4195.384277, 4207.179199, 4187.692383, 4190.769043, 4229.743652, 4183.589844, 4188.717773, 4213.846191, 4179.487305, 3517.000000, 8150.000000, 8181.000000, 0.000000, 0.000000, 0.000000, -21154.000000, 877.435852, 4.000000, 4.000000, 4.000000, 4.000000, 4.000000, 4.000000, 4.000000, 4.000000, 1.000000, 4.000000, 4.000000, 4.000000, 4.000000, 4.000000, 4.000000, 4.000000
72.000000, 0.000000, 4198.461426, 4183.589844, 4190.256348, 4178.461426, 4203.076660, 4190.769043, 4198.461426, 4185.641113, 4197.948730, 4216.410156, 4177.436035, 4179.487305, 4211.794922, 4179.487305, 92.000000, 8150.000000, 8181.000000, 0.000000, 0.000000, 0.000000, -21154.000000, 885.128174, 4.000000, 4.000000, 4.000000, 4.000000, 4.000000, 4.000000, 4.000000, 4.000000, 1.000000, 4.000000, 4.000000, 4.000000, 4.000000, 4.000000, 4.000000, 4.000000
73.000000, 0.000000, 4211.794922, 4193.846191, 4196.922852, 4188.205078, 4211.281738, 4196.410156, 4202.051270, 4201.025391, 4198.974121, 4216.922852, 4194.358887, 4186.153809, 4236.922852, 4192.307617, 2685.000000, 8155.000000, 8184.000000, 0.000000, 0.000000, 0.000000, -21154.000000, 893.333313, 4.000000, 4.000000, 4.000000, 4.000000, 4.000000, 4.000000, 4.000000, 4.000000, 1.000000, 4.000000, 4.000000, 4.000000, 4.000000, 4.000000, 4.000000, 4.000000
74.000000, 0.000000, 4217.948730, 4193.333008, 4203.076660, 4191.281738, 4210.256348, 4197.436035, 4209.230469, 4205.641113, 4198.974121, 4221.025391, 4202.563965, 4194.358887, 4243.589844, 4196.922852, 3599.000000, 8155.000000, 8184.000000, 0.000000, 0.000000, 0.000000, -21154.000000, 901.025635, 4.000000, 4.000000, 4.000000, 4.000000, 4.000000, 4.000000, 4.000000, 4.000000, 1.000000, 4.000000, 4.000000, 4.000000, 4.000000, 4.000000, 4.000000, 4.000000
75.000000, 0.000000, 4206.153809, 4186.153809, 4191.281738, 4184.615234, 4199.487305, 4185.127930, 4203.589844, 4198.461426, 4197.948730, 4211.281738, 4186.153809, 4184.615234, 4228.717773, 4187.692383, 3561.000000, 8163.000000, 8186.000000, 0.000000, 0.000000, 0.000000, -21154.000000, 909.230774, 4.000000, 4.000000, 4.000000, 4.000000, 4.000000, 4.000000, 4.000000, 4.000000, 1.000000, 4.000000, 4.000000, 4.000000, 4.000000, 4.000000, 4.000000, 4.000000
76.000000, 0.000000, 4195.897461, 4186.153809, 4182.563965, 4182.051270, 4197.436035, 4181.538574, 4198.461426, 4197.436035, 4190.256348, 4200.512695, 4181.025391, 4171.794922, 4227.692383, 4177.948730, 3521.000000, 8163.000000, 8186.000000, 0.000000, 0.000000, 0.000000, -21154.000000, 917.435852, 4.000000, 4.000000, 4.000000, 4.000000, 4.000000, 4.000000, 4.000000, 4.000000, 1.000000, 4.000000, 4.000000, 4.000000, 4.000000, 4.000000, 4.000000, 4.000000
77.000000, 0.000000, 4193.846191, 4186.666504, 4182.563965, 4182.563965, 4197.948730, 4190.256348, 4204.615234, 4203.589844, 4185.127930, 4198.461426, 4185.641113, 4171.281738, 4231.281738, 4173.846191, 3456.000000, 8172.000000, 8178.000000, 0.000000, 0.000000, 0.000000, -21154.000000, 925.128174, 4.000000, 4.000000, 4.000000, 4.000000, 4.000000, 4.000000, 4.000000, 4.000000, 1.000000, 4.000000, 4.000000, 4.000000, 4.000000, 4.000000, 4.000000, 4.000000
78.000000, 0.000000, 4186.666504, 4180.512695, 4174.871582, 4172.820313, 4183.076660, 4189.743652, 4204.102539, 4205.641113, 4191.794922, 4192.820313, 4177.948730, 4166.153809, 4222.051270, 4168.717773, 3599.000000, 8172.000000, 8178.000000, 0.000000, 0.000000, 0.000000, -21154.000000, 933.333313, 4.000000, 4.000000, 4.000000, 4.000000, 4.000000, 4.000000, 4.000000, 4.000000, 1.000000, 4.000000, 4.000000, 4.000000, 4.000000, 4.000000, 4.000000, 4.000000
79.000000, 0.000000, 4180.512695, 4178.974121, 4167.179199, 4165.641113, 4182.051270, 4185.641113, 4191.794922, 4195.897461, 4199.487305, 4184.615234, 4171.281738, 4156.410156, 4216.922852, 4164.102539, 3561.000000, 8174.000000, 8177.000000, 0.000000, 0.000000, 0.000000, -21154.000000, 941.025635, 4.000000, 4.000000, 4.000000, 4.000000, 4.000000, 4.000000, 4.000000, 4.000000, 1.000000, 4.000000, 4.000000, 4.000000, 4.000000, 4.000000, 4.000000, 4.000000
80.000000, 0.000000, 4189.230469, 4186.666504, 4175.384277, 4174.358887, 4202.563965, 4191.794922, 4185.641113, 4192.307617, 4199.487305, 4185.127930, 4184.615234, 4162.051270, 4235.384277, 4172.820313, 3521.000000, 8174.000000, 8177.000000, 0.000000, 0.000000, 0.000000, -21154.000000, 949.230774, 4.000000, 4.000000, 4.000000, 4.000000, 4.000000, 4.000000, 4.000000, 4.000000, 1.000000, 4.000000, 4.000000, 4.000000, 4.000000, 4.000000, 4.000000, 4.000000
81.000000, 0.000000, 4201.538574, 4194.358887, 4186.153809, 4186.153809, 4207.179199, 4197.436035, 4187.692383, 4200.000000, 4194.358887, 4189.230469, 4195.897461, 4174.871582, 4252.307617, 4186.666504, 3456.000000, 8180.000000, 8175.000000, 0.000000, 0.000000, 0.000000, -21154.000000, 956.923035, 4.000000, 4.000000, 4.000000, 4.000000, 4.000000, 4.000000, 4.000000, 4.000000, 1.000000, 4.000000, 4.000000, 4.000000, 4.000000, 4.000000, 4.000000, 4.000000
82.000000, 0.000000, 4197.948730, 4192.820313, 4185.127930, 4186.153809, 4197.948730, 4193.333008, 4185.127930, 4191.281738, 4191.794922, 4181.025391, 4188.205078, 4172.820313, 4241.025391, 4183.589844, 3599.000000, 8180.000000, 8175.000000, 0.000000, 0.000000, 0.000000, -21154.000000, 965.128174, 4.000000, 4.000000, 4.000000, 4.000000, 4.000000, 4.000000, 4.000000, 4.000000, 1.000000, 4.000000, 4.000000, 4.000000, 4.000000, 4.000000, 4.000000, 4.000000
83.000000, 0.000000, 4183.076660, 4183.076660, 4178.974121, 4178.461426, 4203.076660, 4192.307617, 4184.102539, 4172.307617, 4197.436035, 4170.769043, 4180.000000, 4158.974121, 4227.692383, 4169.230469, 3561.000000, 8193.000000, 8177.000000, 0.000000, 0.000000, 0.000000, -21154.000000, 972.820496, 4.000000, 4.000000, 4.000000, 4.000000, 4.000000, 4.000000, 4.000000, 4.000000, 1.000000, 4.000000, 4.000000, 4.000000, 4.000000, 4.000000, 4.000000, 4.000000
84.000000, 0.000000, 4181.538574, 4182.051270, 4178.974121, 4173.846191, 4204.615234, 4199.487305, 4187.692383, 4171.281738, 4200.512695, 4169.230469, 4181.538574, 4152.820313, 4235.384277, 4168.205078, 3521.000000, 8193.000000, 8177.000000, 0.000000, 0.000000, 0.000000, -21154.000000, 981.025635, 4.000000, 4.000000, 4.000000, 4.000000, 4.000000, 4.000000, 4.000000, 4.000000, 1.000000, 4.000000, 4.000000, 4.000000, 4.000000, 4.000000, 4.000000, 4.000000
85.000000, 0.000000, 4184.615234, 4186.153809, 4184.102539, 4172.820313, 4189.230469, 4202.051270, 4189.743652, 4183.589844, 4195.384277, 4171.794922, 4179.487305, 4160.000000, 4232.307617, 4166.666504, 3456.000000, 8200.000000, 8170.000000, 0.000000, 0.000000, 0.000000, -21154.000000, 988.717896, 4.000000, 4.000000, 4.000000, 4.000000, 4.000000, 4.000000, 4.000000, 4.000000, 1.000000, 4.000000, 4.000000, 4.000000, 4.000000, 4.000000, 4.000000, 4.000000
86.000000, 0.000000, 4182.051270, 4184.615234, 4187.692383, 4173.333008, 4188.205078, 4200.000000, 4187.692383, 4187.179199, 4194.871582, 4176.410156, 4182.051270, 4168.717773, 4226.666504, 4166.153809, 3599.000000, 8200.000000, 8170.000000, 0.000000, 0.000000, 0.000000, -21154.000000, 996.923035, 4.000000, 4.000000, 4.000000, 4.000000, 4.000000, 4.000000, 4.000000, 4.000000, 1.000000, 4.000000, 4.000000, 4.000000, 4.000000, 4.000000, 4.000000, 4.000000
87.000000, 0.000000, 4189.230469, 4186.153809, 4186.153809, 4173.333008, 4201.538574, 4201.025391, 4188.205078, 4185.127930, 4199.487305, 4182.563965, 4196.922852, 4174.358887, 4248.717773, 4187.179199, 3561.000000, 8206.000000, 8175.000000, 0.000000, 0.000000, 0.000000, -21153.000000, 4.615385, 4.000000, 4.000000, 4.000000, 4.000000, 4.000000, 4.000000, 4.000000, 4.000000, 1.000000, 4.000000, 4.000000, 4.000000, 4.000000, 4.000000, 4.000000, 4.000000
88.000000, 0.000000, 4202.051270, 4190.769043, 4186.666504, 4174.358887, 4202.051270, 4202.051270, 4194.871582, 4191.281738, 4197.436035, 4182.563965, 4203.589844, 4180.512695, 4266.666504, 4203.589844, 3521.000000, 8206.000000, 8175.000000, 0.000000, 0.000000, 0.000000, -21153.000000, 12.820513, 4.000000, 4.000000, 4.000000, 4.000000, 4.000000, 4.000000, 4.000000, 4.000000, 1.000000, 4.000000, 4.000000, 4.000000, 4.000000, 4.000000, 4.000000, 4.000000
89.000000, 0.000000, 4206.666504, 4188.717773, 4193.333008, 4175.897461, 4193.846191, 4201.538574, 4202.563965, 4203.076660, 4196.922852, 4182.051270, 4200.000000, 4184.102539, 4263.076660, 4203.589844, 3456.000000, 8211.000000, 8178.000000, 0.000000, 0.000000, 0.000000, -21153.000000, 20.512819, 4.000000, 4.000000, 4.000000, 4.000000, 4.000000, 4.000000, 4.000000, 4.000000, 1.000000, 4.000000, 4.000000, 4.000000, 4.000000, 4.000000, 4.000000, 4.000000
90.000000, 0.000000, 4212.307617, 4187.179199, 4200.000000, 4180.512695, 4196.922852, 4202.563965, 4202.563965, 4206.153809, 4199.487305, 4190.769043, 4208.717773, 4183.076660, 4271.794922, 4210.769043, 3599.000000, 8211.000000, 8178.000000, 0.000000, 0.000000, 0.000000, -21153.000000, 28.717949, 4.000000, 4.000000, 4.000000, 4.000000, 4.000000, 4.000000, 4.000000, 4.000000, 1.000000, 4.000000, 4.000000, 4.000000, 4.000000, 4.000000, 4.000000, 4.000000
91.000000, 0.000000, 4218.461426, 4189.743652, 4202.563965, 4184.615234, 4203.589844, 4204.102539, 4198.461426, 4205.127930, 4197.948730, 4198.461426, 4220.000000, 4186.153809, 4285.641113, 4221.025391, 3561.000000, 8212.000000, 8179.000000, 0.000000, 0.000000, 0.000000, -21153.000000, 36.410255, 4.000000, 4.000000, 4.000000, 4.000000, 4.000000, 4.000000, 4.000000, 4.000000, 1.000000, 4.000000, 4.000000, 4.000000, 4.000000, 4.000000, 4.000000, 4.000000
92.000000, 0.000000, 4216.922852, 4189.743652, 4196.410156, 4181.538574, 4192.307617, 4200.512695, 4197.436035, 4212.820313, 4195.384277, 4194.871582, 4222.563965, 4185.127930, 4284.102539, 4223.076660, 3521.000000, 8212.000000, 8179.000000, 0.000000, 0.000000, 0.000000, -21153.000000, 44.615383, 4.000000, 4.000000, 4.000000, 4.000000, 4.000000, 4.000000, 4.000000, 4.000000, 1.000000, 4.000000, 4.000000, 4.000000, 4.000000, 4.000000, 4.000000, 4.000000
93.000000, 0.000000, 4216.922852, 4188.205078, 4192.307617, 4182.563965, 4184.615234, 4198.461426, 4200.000000, 4214.871582, 4200.000000, 4191.794922, 4227.692383, 4183.589844, 4284.102539, 4230.256348, 3456.000000, 8212.000000, 8187.000000, 0.000000, 0.000000, 0.000000, -21153.000000, 52.307690, 4.000000, 4.000000, 4.000000, 4.000000, 4.000000, 4.000000, 4.000000, 4.000000, 1.000000, 4.000000, 4.000000, 4.000000, 4.000000, 4.000000, 4.000000, 4.000000
94.000000, 0.000000, 4221.025391, 4189.743652, 4197.948730, 4187.692383, 4197.436035, 4208.205078, 4204.102539, 4206.153809, 4198.974121, 4190.256348, 4232.820313, 4193.333008, 4286.153809, 4234.871582, 3599.000000, 8212.000000, 8187.000000, 0.000000, 0.000000, 0.000000, -21153.000000, 60.512817, 4.000000, 4.000000, 4.000000, 4.000000, 4.000000, 4.000000, 4.000000, 4.000000, 1.000000, 4.000000, 4.000000, 4.000000, 4.000000, 4.000000, 4.000000, 4.000000
95.000000, 0.000000, 4213.846191, 4184.615234, 4197.436035, 4177.436035, 4209.230469, 4214.358887, 4205.641113, 4201.538574, 4186.153809, 4178.461426, 4219.487305, 4193.333008, 4268.205078, 4224.615234, 3561.000000, 8210.000000, 8186.000000, 0.000000, 0.000000, 0.000000, -21153.000000, 68.205124, 4.000000, 4.000000, 4.000000, 4.000000, 4.000000, 4.000000, 4.000000, 4.000000, 1.000000, 4.000000, 4.000000, 4.000000, 4.000000, 4.000000, 4.000000, 4.000000
96.000000, 0.000000, 4194.358887, 4170.256348, 4185.127930, 4164.102539, 4199.487305, 4210.769043, 4209.743652, 4201.025391, 4186.153809, 4164.102539, 4200.000000, 4175.384277, 4244.102539, 4208.717773, 3521.000000, 8210.000000, 8186.000000, 0.000000, 0.000000, 0.000000, -21153.000000, 76.410255, 4.000000, 4.000000, 4.000000, 4.000000, 4.000000, 4.000000, 4.000000, 4.000000, 1.000000, 4.000000, 4.000000, 4.000000, 4.000000, 4.000000, 4.000000, 4.000000
97.000000, 0.000000, 4184.615234, 4162.051270, 4180.512695, 4166.153809, 4189.743652, 4208.205078, 4216.410156, 4201.025391, 4196.922852, 4170.769043, 4203.076660, 4171.281738, 4243.589844, 4203.076660, 3456.000000, 8203.000000, 8189.000000, 0.000000, 0.000000, 0.000000, -21153.000000, 84.102562, 4.000000, 4.000000, 4.000000, 4.000000, 4.000000, 4.000000, 4.000000, 4.000000, 1.000000, 4.000000, 4.000000, 4.000000, 4.000000, 4.000000, 4.000000, 4.000000
98.000000, 0.000000, 4192.307617, 4168.205078, 4186.666504, 4169.743652, 4187.692383, 4204.102539, 4211.281738, 4199.487305, 4195.897461, 4184.102539, 4216.922852, 4184.102539, 4260.000000, 4209.230469, 3599.000000, 8203.000000, 8189.000000, 0.000000, 0.000000, 0.000000, -21153.000000, 92.307693, 4.000000, 4.000000, 4.000000, 4.000000, 4.000000, 4.000000, 4.000000, 4.000000, 1.000000, 4.000000, 4.000000, 4.000000, 4.000000, 4.000000, 4.000000, 4.000000
99.000000, 0.000000, 4198.974121, 4172.820313, 4190.256348, 4169.230469, 4189.230469, 4197.436035, 4198.461426, 4195.384277, 4187.179199, 4181.538574, 4217.436035, 4190.769043, 4262.051270, 4216.410156, 3561.000000, 8203.000000, 8195.000000, 0.000000, 0.000000, 0.000000, -21153.000000, 100.000000, 4.000000, 4.000000, 4.000000, 4.000000, 4.000000, 4.000000, 4.000000, 4.000000, 1.000000, 4.000000, 4.000000, 4.000000, 4.000000, 4.000000, 4.000000, 4.000000
100.000000, 0.000000, 4206.666504, 4171.794922, 4200.000000, 4180.000000, 4195.897461, 4200.000000, 4196.922852, 4203.589844, 4188.717773, 4181.025391, 4222.051270, 4197.436035, 4262.563965, 4224.615234, 3521.000000, 8203.000000, 8195.000000, 0.000000, 0.000000, 0.000000, -21153.000000, 108.205124, 4.000000, 4.000000, 4.000000, 4.000000, 4.000000, 4.000000, 4.000000, 4.000000, 1.000000, 4.000000, 4.000000, 4.000000, 4.000000, 4.000000, 4.000000, 4.000000
101.000000, 0.000000, 4211.281738, 4171.794922, 4208.717773, 4186.153809, 4188.205078, 4198.974121, 4199.487305, 4213.846191, 4197.436035, 4187.692383, 4236.410156, 4210.769043, 4275.897461, 4234.871582, 3456.000000, 8205.000000, 8211.000000, 0.000000, 0.000000, 0.000000, -21153.000000, 115.897430, 4.000000, 4.000000, 4.000000, 4.000000, 4.000000, 4.000000, 4.000000, 4.000000, 1.000000, 4.000000, 4.000000, 4.000000, 4.000000, 4.000000, 4.000000, 4.000000
102.000000, 0.000000, 4205.127930, 4171.794922, 4206.666504, 4176.922852, 4176.922852, 4192.820313, 4198.974121, 4206.666504, 4198.974121, 4186.153809, 4237.436035, 4209.743652, 4274.358887, 4233.846191, 3599.000000, 8205.000000, 8211.000000, 0.000000, 0.000000, 0.000000, -21153.000000, 124.102562, 4.000000, 4.000000, 4.000000, 4.000000, 4.000000, 4.000000, 4.000000, 4.000000, 1.000000, 4.000000, 4.000000, 4.000000, 4.000000, 4.000000, 4.000000, 4.000000
103.000000, 0.000000, 4199.487305, 4171.794922, 4202.051270, 4174.358887, 4186.153809, 4197.436035, 4202.563965, 4200.512695, 4196.922852, 4183.589844, 4232.307617, 4202.051270, 4264.102539, 4227.692383, 3561.000000, 8200.000000, 8206.000000, 0.000000, 0.000000, 0.000000, -21153.000000, 132.307693, 4.000000, 4.000000, 4.000000, 4.000000, 4.000000, 4.000000, 4.000000, 4.000000, 1.000000, 4.000000, 4.000000, 4.000000, 4.000000, 4.000000, 4.000000, 4.000000
104.000000, 0.000000, 4200.512695, 4172.820313, 4201.025391, 4181.538574, 4192.820313, 4201.025391, 4200.512695, 4202.051270, 4198.461426, 4185.127930, 4232.820313, 4201.538574, 4264.615234, 4229.743652, 3521.000000, 8200.000000, 8206.000000, 0.000000, 0.000000, 0.000000, -21153.000000, 140.000000, 4.000000, 4.000000, 4.000000, 4.000000, 4.000000, 4.000000, 4.000000, 4.000000, 1.000000, 4.000000, 4.000000, 4.000000, 4.000000, 4.000000, 4.000000, 4.000000
105.000000, 0.000000, 4208.205078, 4174.871582, 4208.717773, 4186.153809, 4188.717773, 4197.948730, 4201.025391, 4202.051270, 4196.410156, 4182.563965, 4233.333008, 4204.615234, 4268.205078, 4233.846191, 3456.000000, 8199.000000, 8200.000000, 0.000000, 0.000000, 0.000000, -21153.000000, 148.205124, 4.000000, 4.000000, 4.000000, 4.000000, 4.000000, 4.000000, 4.000000, 4.000000, 1.000000, 4.000000, 4.000000, 4.000000, 4.000000, 4.000000, 4.000000, 4.000000
106.000000, 0.000000, 4215.384277, 4174.871582, 4218.461426, 4188.205078, 4190.256348, 4199.487305, 4210.769043, 4203.076660, 4190.769043, 4183.589844, 4233.333008, 4209.230469, 4268.205078, 4232.820313, 3599.000000, 8199.000000, 8200.000000, 0.000000, 0.000000, 0.000000, -21153.000000, 155.897430, 4.000000, 4.000000, 4.000000, 4.000000, 4.000000, 4.000000, 4.000000, 4.000000, 1.000000, 4.000000, 4.000000, 4.000000, 4.000000, 4.000000, 4.000000, 4.000000
107.000000, 0.000000, 4212.307617, 4173.846191, 4214.871582, 4186.153809, 4191.794922, 4201.025391, 4212.820313, 4206.153809, 4191.794922, 4185.641113, 4235.384277, 4210.256348, 4271.794922, 4235.384277, 3561.000000, 8201.000000, 8196.000000, 0.000000, 0.000000, 0.000000, -21153.000000, 164.102554, 4.000000, 4.000000, 4.000000, 4.000000, 4.000000, 4.000000, 4.000000, 4.000000, 1.000000, 4.000000, 4.000000, 4.000000, 4.000000, 4.000000, 4.000000, 4.000000
108.000000, 0.000000, 4202.051270, 4170.769043, 4201.538574, 4174.358887, 4181.025391, 4195.384277, 4205.641113, 4199.487305, 4198.974121, 4177.436035, 4231.281738, 4203.076660, 4266.666504, 4229.743652, 3521.000000, 8201.000000, 8196.000000, 0.000000, 0.000000, 0.000000, -21153.000000, 171.794861, 4.000000, 4.000000, 4.000000, 4.000000, 4.000000, 4.000000, 4.000000, 4.000000, 1.000000, 4.000000, 4.000000, 4.000000, 4.000000, 4.000000, 4.000000, 4.000000
109.000000, 0.000000, 4200.000000, 4166.666504, 4200.000000, 4168.205078, 4170.769043, 4192.820313, 4202.563965, 4200.512695, 4196.922852, 4170.256348, 4221.025391, 4195.384277, 4250.256348, 4217.436035, 3456.000000, 8200.000000, 8193.000000, 0.000000, 0.000000, 0.000000, -21153.000000, 180.000000, 4.000000, 4.000000, 4.000000, 4.000000, 4.000000, 4.000000, 4.000000, 4.000000, 1.000000, 4.000000, 4.000000, 4.000000, 4.000000, 4.000000, 4.000000, 4.000000
110.000000, 0.000000, 4203.589844, 4174.358887, 4210.769043, 4176.922852, 4175.384277, 4197.948730, 4203.589844, 4210.256348, 4192.307617, 4174.358887, 4221.538574, 4196.410156, 4247.179199, 4218.461426, 3599.000000, 8200.000000, 8193.000000, 0.000000, 0.000000, 0.000000, -21153.000000, 187.692307, 4.000000, 4.000000, 4.000000, 4.000000, 4.000000, 4.000000, 4.000000, 4.000000, 1.000000, 4.000000, 4.000000, 4.000000, 4.000000, 4.000000, 4.000000, 4.000000
111.000000, 0.000000, 4207.179199, 4184.615234, 4215.897461, 4184.102539, 4187.692383, 4203.076660, 4203.589844, 4210.256348, 4195.384277, 4181.025391, 4230.769043, 4205.127930, 4250.256348, 4229.230469, 3561.000000, 8187.000000, 8199.000000, 0.000000, 0.000000, 0.000000, -21153.000000, 195.897430, 4.000000, 4.000000, 4.000000, 4.000000, 4.000000, 4.000000, 4.000000, 4.000000, 1.000000, 4.000000, 4.000000, 4.000000, 4.000000, 4.000000, 4.000000, 4.000000
112.000000, 0.000000, 4215.897461, 4186.666504, 4216.922852, 4185.641113, 4191.281738, 4201.538574, 4203.589844, 4206.153809, 4198.974121, 4183.589844, 4235.897461, 4216.922852, 4233.846191, 4233.846191, 3521.000000, 8187.000000, 8199.000000, 0.000000, 0.000000, 0.000000, -21153.000000, 203.589737, 4.000000, 4.000000, 4.000000, 4.000000, 4.000000, 4.000000, 4.000000, 4.000000, 1.000000, 4.000000, 4.000000, 4.000000, 4.000000, 4.000000, 4.000000, 4.000000
113.000000, 0.000000, 4217.948730, 4191.794922, 4220.512695, 4184.615234, 4186.153809, 4192.307617, 4201.538574, 4202.051270, 4197.436035, 4178.974121, 4231.281738, 4216.922852, 4203.076660, 4230.769043, 3456.000000, 8182.000000, 8215.000000, 0.000000, 0.000000, 0.000000, -21153.000000, 211.794861, 4.000000, 4.000000, 4.000000, 4.000000, 4.000000, 4.000000, 4.000000, 4.000000, 1.000000, 4.000000, 4.000000, 4.000000, 4.000000, 4.000000, 4.000000, 4.000000
114.000000, 0.000000, 4207.692383, 4198.974121, 4216.410156, 4178.461426, 4180.512695, 4187.692383, 4200.512695, 4201.025391, 4197.948730, 4163.589844, 4223.076660, 4205.127930, 4178.461426, 4217.948730, 3599.000000, 8182.000000, 8215.000000, 0.000000, 0.000000, 0.000000, -21153.000000, 220.000000, 4.000000, 4.000000, 4.000000, 4.000000, 4.000000, 4.000000, 4.000000, 4.000000, 1.000000, 4.000000, 4.000000, 4.000000, 4.000000, 4.000000, 4.000000, 4.000000
115.000000, 0.000000, 4195.384277, 4198.974121, 4200.512695, 4167.692383, 4170.769043, 4191.281738, 4202.051270, 4199.487305, 4197.948730, 4155.897461, 4213.846191, 4194.871582, 4163.076660, 4204.102539, 3561.000000, 8179.000000, 8218.000000, 0.000000, 0.000000, 0.000000, -21153.000000, 227.692307, 4.000000, 4.000000, 4.000000, 4.000000, 4.000000, 4.000000, 4.000000, 4.000000, 1.000000, 4.000000, 4.000000, 4.000000, 4.000000, 4.000000, 4.000000, 4.000000
116.000000, 0.000000, 4196.922852, 4204.615234, 4196.922852, 4168.717773, 4172.307617, 4196.410156, 4202.051270, 4196.922852, 4191.794922, 4165.641113, 4214.871582, 4196.922852, 4161.025391, 4208.205078, 3521.000000, 8179.000000, 8218.000000, 0.000000, 0.000000, 0.000000, -21153.000000, 235.897430, 4.000000, 4.000000, 4.000000, 4.000000, 4.000000, 4.000000, 4.000000, 4.000000, 1.000000, 4.000000, 4.000000, 4.000000, 4.000000, 4.000000, 4.000000, 4.000000
117.000000, 0.000000, 4208.205078, 4216.922852, 4208.205078, 4182.051270, 4187.179199, 4202.051270, 4203.589844, 4208.717773, 4192.820313, 4175.384277, 4229.743652, 4211.281738, 4170.769043, 4220.000000, 3456.000000, 8176.000000, 8227.000000, 0.000000, 0.000000, 0.000000, -21153.000000, 243.589737, 4.000000, 4.000000, 4.000000, 4.000000, 4.000000, 4.000000, 4.000000, 4.000000, 1.000000, 4.000000, 4.000000, 4.000000, 4.000000, 4.000000, 4.000000, 4.000000
118.000000, 0.000000, 4210.769043, 4221.025391, 4209.743652, 4190.256348, 4187.179199, 4203.076660, 4204.102539, 4217.436035, 4201.025391, 4174.871582, 4235.897461, 4218.974121, 4176.922852, 4221.025391, 3599.000000, 8176.000000, 8227.000000, 0.000000, 0.000000, 0.000000, -21153.000000, 251.794861, 4.000000, 4.000000, 4.000000, 4.000000, 4.000000, 4.000000, 4.000000, 4.000000, 1.000000, 4.000000, 4.000000, 4.000000, 4.000000, 4.000000, 4.000000, 4.000000
119.000000, 0.000000, 4200.512695, 4217.948730, 4198.974121, 4184.615234, 4180.000000, 4198.974121, 4200.512695, 4206.666504, 4194.871582, 4165.127930, 4222.051270, 4208.205078, 4167.692383, 4212.307617, 3561.000000, 8171.000000, 8226.000000, 0.000000, 0.000000, 0.000000, -21153.000000, 259.487183, 4.000000, 4.000000, 4.000000, 4.000000, 4.000000, 4.000000, 4.000000, 4.000000, 1.000000, 4.000000, 4.000000, 4.000000, 4.000000, 4.000000, 4.000000, 4.000000
120.000000, 0.000000, 4187.692383, 4213.846191, 4197.436035, 4174.871582, 4185.127930, 4197.948730, 4200.000000, 4202.051270, 4188.717773, 4158.974121, 4209.743652, 4198.974121, 4160.512695, 4204.102539, 3521.000000, 8171.000000, 8226.000000, 0.000000, 0.000000, 0.000000, -21153.000000, 267.692291, 4.000000, 4.000000, 4.000000, 4.000000, 4.000000, 4.000000, 4.000000, 4.000000, 1.000000, 4.000000, 4.000000, 4.000000, 4.000000, 4.000000, 4.000000, 4.000000
121.000000, 0.000000, 4189.230469, 4214.871582, 4206.153809, 4178.461426, 4190.256348, 4202.051270, 4201.538574, 4209.230469, 4197.436035, 4164.615234, 4213.333008, 4200.000000, 4171.794922, 4207.179199, 3456.000000, 8168.000000, 8215.000000, 0.000000, 0.000000, 0.000000, -21153.000000, 275.384613, 4.000000, 4.000000, 4.000000, 4.000000, 4.000000, 4.000000, 4.000000, 4.000000, 1.000000, 4.000000, 4.000000, 4.000000, 4.000000, 4.000000, 4.000000, 4.000000
122.000000, 0.000000, 4207.179199, 4221.538574, 4207.692383, 4190.256348, 4189.230469, 4205.127930, 4202.051270, 4203.589844, 4200.000000, 4171.281738, 4217.948730, 4199.487305, 4186.153809, 4217.436035, 3599.000000, 8168.000000, 8215.000000, 0.000000, 0.000000, 0.000000, -21153.000000, 283.589722, 4.000000, 4.000000, 4.000000, 4.000000, 4.000000, 4.000000, 4.000000, 4.000000, 1.000000, 4.000000, 4.000000, 4.000000, 4.000000, 4.000000, 4.000000, 4.000000
123.000000, 0.000000, 4220.512695, 4222.563965, 4208.205078, 4193.333008, 4188.205078, 4205.641113, 4203.589844, 4197.436035, 4193.333008, 4171.281738, 4222.563965, 4200.000000, 4195.897461, 4226.153809, 3561.000000, 8168.000000, 8213.000000, 0.000000, 0.000000, 0.000000, -21153.000000, 291.282043, 4.000000, 4.000000, 4.000000, 4.000000, 4.000000, 4.000000, 4.000000, 4.000000, 1.000000, 4.000000, 4.000000, 4.000000, 4.000000, 4.000000, 4.000000, 4.000000
124.000000, 0.000000, 4218.974121, 4216.922852, 4211.794922, 4188.717773, 4187.692383, 4204.615234, 4202.051270, 4201.025391, 4195.897461, 4172.307617, 4229.743652, 4207.179199, 4207.692383, 4231.281738, 3521.000000, 8168.000000, 8213.000000, 0.000000, 0.000000, 0.000000, -21153.000000, 299.487183, 4.000000, 4.000000, 4.000000, 4.000000, 4.000000, 4.000000, 4.000000, 4.000000, 1.000000, 4.000000, 4.000000, 4.000000, 4.000000, 4.000000, 4.000000, 4.000000
125.000000, 0.000000, 4216.410156, 4215.897461, 4209.230469, 4186.666504, 4188.717773, 4202.051270, 4200.000000, 4205.127930, 4202.563965, 4174.871582, 4234.358887, 4215.384277, 4218.461426, 4235.384277, 3456.000000, 8159.000000, 8195.000000, 0.000000, 0.000000, 0.000000, -21153.000000, 307.179474, 4.000000, 4.000000, 4.000000, 4.000000, 4.000000, 4.000000, 4.000000, 4.000000, 1.000000, 4.000000, 4.000000, 4.000000, 4.000000, 4.000000, 4.000000, 4.000000
126.000000, 0.000000, 4212.307617, 4215.897461, 4202.563965, 4185.127930, 4181.025391, 4203.076660, 4201.025391, 4203.076660, 4196.410156, 4171.794922, 4229.230469, 4213.846191, 4213.333008, 4230.256348, 3599.000000, 8159.000000, 8195.000000, 0.000000, 0.000000, 0.000000, -21153.000000, 315.384613, 4.000000, 4.000000, 4.000000, 4.000000, 4.000000, 4.000000, 4.000000, 4.000000, 1.000000, 4.000000, 4.000000, 4.000000, 4.000000, 4.000000, 4.000000, 4.000000
127.000000, 0.000000, 4203.589844, 4213.333008, 4205.127930, 4185.127930, 4172.307617, 4200.512695, 4200.512695, 4193.846191, 4187.179199, 4164.615234, 4220.000000, 4203.589844, 4204.102539, 4220.000000, 57.000000, 8157.000000, 8190.000000, 0.000000, 0.000000, 0.000000, -21153.000000, 323.589722, 4.000000, 4.000000, 4.000000, 4.000000, 4.000000, 4.000000, 4.000000, 4.000000, 1.000000, 4.000000, 4.000000, 4.000000, 4.000000, 4.000000, 4.000000, 4.000000
0.000000, 0.000000, 4207.179199, 4214.871582, 4215.384277, 4191.794922, 4180.512695, 4191.794922, 4196.922852, 4184.615234, 4190.769043, 4157.436035, 4214.358887, 4195.897461, 4204.615234, 4219.487305, 3138.000000, 8157.000000, 8190.000000, 0.000000, 0.000000, 0.000000, -21153.000000, 331.282043, 4.000000, 4.000000, 4.000000, 4.000000, 4.000000, 4.000000, 4.000000, 4.000000, 1.000000, 4.000000, 4.000000, 4.000000, 4.000000, 4.000000, 4.000000, 4.000000
1.000000, 0.000000, 4217.948730, 4216.410156, 4217.436035, 4193.333008, 4191.794922, 4187.692383, 4197.948730, 4186.666504, 4198.974121, 4158.974121, 4217.948730, 4200.000000, 4210.769043, 4227.692383, 3513.000000, 8165.000000, 8179.000000, 0.000000, 0.000000, 0.000000, -21153.000000, 339.487183, 4.000000, 4.000000, 4.000000, 4.000000, 4.000000, 4.000000, 4.000000, 4.000000, 1.000000, 4.000000, 4.000000, 4.000000, 4.000000, 4.000000, 4.000000, 4.000000
2.000000, 0.000000, 4221.538574, 4217.436035, 4218.461426, 4192.307617, 4183.589844, 4189.230469, 4198.461426, 4196.410156, 4200.000000, 4170.769043, 4230.256348, 4211.794922, 4224.615234, 4235.897461, 3551.000000, 8165.000000, 8179.000000, 0.000000, 0.000000, 0.000000, -21153.000000, 347.179474, 4.000000, 4.000000, 4.000000, 4.000000, 4.000000, 4.000000, 4.000000, 4.000000, 1.000000, 4.000000, 4.000000, 4.000000, 4.000000, 4.000000, 4.000000, 4.000000
3.000000, 0.000000, 4215.897461, 4214.871582, 4215.384277, 4187.692383, 4170.256348, 4188.717773, 4200.000000, 4207.179199, 4196.410156, 4174.358887, 4233.846191, 4215.384277, 4230.769043, 4233.846191, 2439.000000, 8161.000000, 8179.000000, 0.000000, 0.000000, 0.000000, -21153.000000, 355.384613, 4.000000, 4.000000, 4.000000, 4.000000, 4.000000, 4.000000, 4.000000, 4.000000, 1.000000, 4.000000, 4.000000, 4.000000, 4.000000, 4.000000, 4.000000, 4.000000
4.000000, 0.000000, 4207.179199, 4204.615234, 4204.102539, 4175.897461, 4168.717773, 4187.692383, 4207.179199, 4208.205078, 4198.461426, 4167.692383, 4230.769043, 4205.641113, 4225.641113, 4226.666504, 3535.000000, 8161.000000, 8179.000000, 0.000000, 0.000000, 0.000000, -21153.000000, 363.076904, 4.000000, 4.000000, 4.000000, 4.000000, 4.000000, 4.000000, 4.000000, 4.000000, 1.000000, 4.000000, 4.000000, 4.000000, 4.000000, 4.000000, 4.000000, 4.000000
5.000000, 0.000000, 4201.538574, 4201.025391, 4202.051270, 4172.307617, 4171.794922, 4188.717773, 4205.641113, 4205.641113, 4200.000000, 4169.743652, 4233.846191, 4202.563965, 4227.179199, 4222.051270, 3571.000000, 8163.000000, 8177.000000, 0.000000, 0.000000, 0.000000, -21153.000000, 371.282043, 4.000000, 4.000000, 4.000000, 4.000000, 4.000000, 4.000000, 4.000000, 4.000000, 1.000000, 4.000000, 4.000000, 4.000000, 4.000000, 4.000000, 4.000000, 4.000000
6.000000, 0.000000, 4202.051270, 4210.256348, 4203.589844, 4182.563965, 4168.205078, 4187.692383, 4190.769043, 4204.102539, 4196.410156, 4170.256348, 4231.794922, 4204.102539, 4227.692383, 4218.461426, 3374.000000, 8163.000000, 8177.000000, 0.000000, 0.000000, 0.000000, -21153.000000, 378.974335, 4.000000, 4.000000, 4.000000, 4.000000, 4.000000, 4.000000, 4.000000, 4.000000, 1.000000, 4.000000, 4.000000, 4.000000, 4.000000, 4.000000, 4.000000, 4.000000
7.000000, 0.000000, 4207.179199, 4214.871582, 4200.000000, 4185.127930, 4165.641113, 4183.076660, 4177.436035, 4190.256348, 4195.897461, 4162.051270, 4222.051270, 4197.436035, 4220.000000, 4216.410156, 3518.000000, 8167.000000, 8164.000000, 0.000000, 0.000000, 0.000000, -21153.000000, 387.179474, 4.000000, 4.000000, 4.000000, 4.000000, 4.000000, 4.000000, 4.000000, 4.000000, 1.000000, 4.000000, 4.000000, 4.000000, 4.000000, 4.000000, 4.000000, 4.000000
8.000000, 0.000000, 4216.922852, 4214.358887, 4205.641113, 4185.641113, 4179.487305, 4185.641113, 4181.025391, 4180.512695, 4198.461426, 4164.615234, 4224.102539, 4200.512695, 4220.512695, 4224.102539, 92.000000, 8167.000000, 8164.000000, 0.000000, 0.000000, 0.000000, -21153.000000, 394.871796, 4.000000, 4.000000, 4.000000, 4.000000, 4.000000, 4.000000, 4.000000, 4.000000, 1.000000, 4.000000, 4.000000, 4.000000, 4.000000, 4.000000, 4.000000, 4.000000
9.000000, 0.000000, 4227.179199, 4218.974121, 4215.384277, 4202.563965, 4194.871582, 4196.922852, 4193.333008, 4197.436035, 4198.461426, 4174.871582, 4233.846191, 4214.871582, 4234.871582, 4238.461426, 2684.000000, 8165.000000, 8165.000000, 0.000000, 0.000000, 0.000000, -21153.000000, 403.076904, 4.000000, 4.000000, 4.000000, 4.000000, 4.000000, 4.000000, 4.000000, 4.000000, 1.000000, 4.000000, 4.000000, 4.000000, 4.000000, 4.000000, 4.000000, 4.000000
10.000000, 0.000000, 4222.563965, 4220.000000, 4210.256348, 4204.102539, 4191.794922, 4201.538574, 4201.025391, 4209.743652, 4196.410156, 4175.384277, 4231.794922, 4210.769043, 4244.102539, 4237.948730, 3591.000000, 8165.000000, 8165.000000, 0.000000, 0.000000, 0.000000, -21153.000000, 410.769226, 4.000000, 4.000000, 4.000000, 4.000000, 4.000000, 4.000000, 4.000000, 4.000000, 1.000000, 4.000000, 4.000000, 4.000000, 4.000000, 4.000000, 4.000000, 4.000000
11.000000, 0.000000, 4212.307617, 4213.846191, 4200.000000, 4185.641113, 4182.051270, 4191.281738, 4198.974121, 4202.051270, 4198.461426, 4171.281738, 4227.179199, 4197.436035, 4243.076660, 4225.641113, 3561.000000, 8166.000000, 8170.000000, 0.000000, 0.000000, 0.000000, -21153.000000, 418.974335, 4.000000, 4.000000, 4.000000, 4.000000, 4.000000, 4.000000, 4.000000, 4.000000, 1.000000, 4.000000, 4.000000, 4.000000, 4.000000, 4.000000, 4.000000, 4.000000
12.000000, 0.000000, 4214.358887, 4213.333008, 4203.076660, 4186.153809, 4182.051270, 4185.127930, 4197.948730, 4198.974121, 4202.563965, 4170.256348, 4223.589844, 4197.948730, 4242.563965, 4224.615234, 3523.000000, 8166.000000, 8170.000000, 0.000000, 0.000000, 0.000000, -21153.000000, 426.666656, 4.000000, 4.000000, 4.000000, 4.000000, 4.000000, 4.000000, 4.000000, 4.000000, 1.000000, 4.000000, 4.000000, 4.000000, 4.000000, 4.000000, 4.000000, 4.000000
13.000000, 0.000000, 4222.563965, 4219.487305, 4214.871582, 4203.076660, 4189.743652, 4189.743652, 4202.051270, 4206.666504, 4200.512695, 4171.794922, 4221.025391, 4205.127930, 4245.641113, 4234.871582, 3456.000000, 8173.000000, 8164.000000, 0.000000, 0.000000, 0.000000, -21153.000000, 434.871796, 4.000000, 4.000000, 4.000000, 4.000000, 4.000000, 4.000000, 4.000000, 4.000000, 1.000000, 4.000000, 4.000000, 4.000000, 4.000000, 4.000000, 4.000000, 4.000000
14.000000, 0.000000, 4224.102539, 4221.025391, 4215.897461, 4202.563965, 4185.127930, 4189.743652, 4198.461426, 4205.127930, 4190.256348, 4170.256348, 4218.974121, 4198.974121, 4243.076660, 4232.820313, 3591.000000, 8173.000000, 8164.000000, 0.000000, 0.000000, 0.000000, -21153.000000, 442.564087, 4.000000, 4.000000, 4.000000, 4.000000, 4.000000, 4.000000, 4.000000, 4.000000, 1.000000, 4.000000, 4.000000, 4.000000, 4.000000, 4.000000, 4.000000, 4.000000
15.000000, 0.000000, 4214.871582, 4217.436035, 4206.153809, 4190.769043, 4170.769043, 4181.025391, 4191.281738, 4189.743652, 4184.102539, 4161.025391, 4210.256348, 4186.666504, 4230.256348, 4217.436035, 3561.000000, 8179.000000, 8163.000000, 0.000000, 0.000000, 0.000000, -21153.000000, 450.769226, 4.000000, 4.000000, 4.000000, 4.000000, 4.000000, 4.000000, 4.000000, 4.000000, 1.000000, 4.000000, 4.000000, 4.000000, 4.000000, 4.000000, 4.000000, 4.000000
16.000000, 0.000000, 4204.615234, 4215.384277, 4202.563965, 4188.717773, 4176.410156, 4185.127930, 4197.436035, 4188.717773, 4187.692383, 4160.512695, 4206.153809, 4185.127930, 4223.076660, 4211.794922, 0.000000, 8179.000000, 8163.000000, 0.000000, 0.000000, 0.000000, -21153.000000, 458.461517, 4.000000, 4.000000, 4.000000, 4.000000, 4.000000, 4.000000, 4.000000, 4.000000, 1.000000, 4.000000, 4.000000, 4.000000, 4.000000, 4.000000, 4.000000, 4.000000
17.000000, 0.000000, 4202.563965, 4216.922852, 4202.563965, 4190.769043, 4192.820313, 4195.897461, 4207.692383, 4202.563965, 4189.743652, 4167.179199, 4211.281738, 4188.717773, 4227.179199, 4214.358887, 0.000000, 8181.000000, 8171.000000, 0.000000, 0.000000, 0.000000, -21153.000000, 466.153839, 4.000000, 4.000000, 4.000000, 4.000000, 4.000000, 4.000000, 4.000000, 4.000000, 1.000000, 4.000000, 4.000000, 4.000000, 4.000000, 4.000000, 4.000000, 4.000000
18.000000, 0.000000, 4204.102539, 4218.974121, 4196.410156, 4186.666504, 4185.127930, 4190.769043, 4201.025391, 4197.436035, 4188.205078, 4160.512695, 4207.692383, 4186.666504, 4220.512695, 4204.102539, 0.000000, 8181.000000, 8171.000000, 0.000000, 0.000000, 0.000000, -21153.000000, 474.358948, 4.000000, 4.000000, 4.000000, 4.000000, 4.000000, 4.000000, 4.000000, 4.000000, 1.000000, 4.000000, 4.000000, 4.000000, 4.000000, 4.000000, 4.000000, 4.000000
19.000000, 0.000000, 4193.846191, 4211.794922, 4194.871582, 4182.563965, 4168.205078, 4182.051270, 4187.692383, 4175.384277, 4188.717773, 4151.794922, 4198.461426, 4181.025391, 4207.692383, 4195.384277, 0.000000, 8181.000000, 8172.000000, 0.000000, 0.000000, 0.000000, -21153.000000, 482.051270, 4.000000, 4.000000, 4.000000, 4.000000, 4.000000, 4.000000, 4.000000, 4.000000, 1.000000, 4.000000, 4.000000, 4.000000, 4.000000, 4.000000, 4.000000, 4.000000
20.000000, 0.000000, 4187.692383, 4203.076660, 4198.461426, 4183.076660, 4171.281738, 4184.102539, 4186.666504, 4172.820313, 4188.717773, 4153.333008, 4198.461426, 4181.025391, 4205.127930, 4197.436035, 0.000000, 8181.000000, 8172.000000, 0.000000, 0.000000, 0.000000, -21153.000000, 489.743591, 4.000000, 4.000000, 4.000000, 4.000000, 4.000000, 4.000000, 4.000000, 4.000000, 1.000000, 4.000000, 4.000000, 4.000000, 4.000000, 4.000000, 4.000000, 4.000000
21.000000, 0.000000, 4195.384277, 4209.230469, 4203.589844, 4185.641113, 4184.102539, 4186.153809, 4188.717773, 4182.563965, 4194.358887, 4159.487305, 4206.153809, 4189.230469, 4214.358887, 4201.025391, 0.000000, 8180.000000, 8169.000000, 0.000000, 0.000000, 0.000000, -21153.000000, 497.948700, 4.000000, 4.000000, 4.000000, 4.000000, 4.000000, 4.000000, 4.000000, 4.000000, 1.000000, 4.000000, 4.000000, 4.000000, 4.000000, 4.000000, 4.000000, 4.000000
22.000000, 0.000000, 4203.589844, 4218.461426, 4211.281738, 4186.666504, 4188.205078, 4184.102539, 4186.153809, 4187.179199, 4201.025391, 4169.230469, 4216.922852, 4204.102539, 4227.179199, 4210.256348, 0.000000, 8180.000000, 8169.000000, 0.000000, 0.000000, 0.000000, -21153.000000, 506.153839, 4.000000, 4.000000, 4.000000, 4.000000, 4.000000, 4.000000, 4.000000, 4.000000, 1.000000, 4.000000, 4.000000, 4.000000, 4.000000, 4.000000, 4.000000, 4.000000
23.000000, 0.000000, 4208.205078, 4214.871582, 4210.769043, 4185.641113, 4174.358887, 4183.076660, 4180.000000, 4193.333008, 4194.871582, 4174.358887, 4223.076660, 4207.179199, 4232.820313, 4217.948730, 0.000000, 8189.000000, 8177.000000, 0.000000, 0.000000, 0.000000, -21153.000000, 513.846130, 4.000000, 4.000000, 4.000000, 4.000000, 4.000000, 4.000000, 4.000000, 4.000000, 1.000000, 4.000000, 4.000000, 4.000000, 4.000000, 4.000000, 4.000000, 4.000000
24.000000, 0.000000, 4213.333008, 4210.256348, 4205.127930, 4185.127930, 4163.589844, 4181.025391, 4182.563965, 4195.897461, 4190.256348, 4171.281738, 4216.922852, 4198.461426, 4228.205078, 4214.358887, 0.000000, 8189.000000, 8177.000000, 0.000000, 0.000000, 0.000000, -21153.000000, 522.051270, 4.000000, 4.000000, 4.000000, 4.000000, 4.000000, 4.000000, 4.000000, 4.000000, 1.000000, 4.000000, 4.000000, 4.000000, 4.000000, 4.000000, 4.000000, 4.000000
25.000000, 0.000000, 4218.461426, 4214.871582, 4211.281738, 4187.179199, 4177.948730, 4185.641113, 4197.436035, 4201.538574, 4197.436035, 4180.000000, 4219.487305, 4203.589844, 4231.794922, 4221.025391, 0.000000, 8192.000000, 8182.000000, 0.000000, 0.000000, 0.000000, -21153.000000, 529.743591, 4.000000, 4.000000, 4.000000, 4.000000, 4.000000, 4.000000, 4.000000, 4.000000, 1.000000, 4.000000, 4.000000, 4.000000, 4.000000, 4.000000, 4.000000, 4.000000
26.000000, 0.000000, 4219.487305, 4218.461426, 4221.538574, 4188.717773, 4188.205078, 4194.358887, 4208.717773, 4210.256348, 4200.000000, 4195.384277, 4233.846191, 4218.461426, 4243.076660, 4234.871582, 0.000000, 8192.000000, 8182.000000, 0.000000, 0.000000, 0.000000, -21153.000000, 537.948730, 4.000000, 4.000000, 4.000000, 4.000000, 4.000000, 4.000000, 4.000000, 4.000000, 1.000000, 4.000000, 4.000000, 4.000000, 4.000000, 4.000000, 4.000000, 4.000000
