title:winkLeft3, recorded:16.05.18 19.59.58, timestamp started:2018-05-12T20:28:52.032863+02:00            , sampling:128, subject:Noé, labels:COUNTER INTERPOLATED AF3 F7 F3 FC5 T7 P7 O1 O2 P8 T8 FC6 F4 F8 AF4 RAW_CQ GYROX GYROY MARKER MARKER_HARDWARE SYNC TIME_STAMP_s TIME_STAMP_ms CQ_AF3 CQ_F7 CQ_F3 CQ_FC5 CQ_T7 CQ_P7 CQ_O1 CQ_O2 CQ_P8 CQ_T8 CQ_FC6 CQ_F4 CQ_F8 CQ_AF4 CQ_CMS CQ_DRL, chan:40, samples:7129, units:emotiv
118.000000, 0.000000, 4208.205078, 4226.666504, 4194.871582, 4201.538574, 4200.512695, 4196.410156, 4198.974121, 4208.717773, 4221.025391, 4200.000000, 4198.461426, 4209.230469, 4240.512695, 4218.461426, 3204.000000, 8195.000000, 8183.000000, 0.000000, 0.000000, 0.000000, 16187.000000, 216.923065, 4.000000, 4.000000, 4.000000, 4.000000, 4.000000, 4.000000, 4.000000, 4.000000, 4.000000, 4.000000, 4.000000, 4.000000, 4.000000, 4.000000, 4.000000, 4.000000
119.000000, 0.000000, 4215.384277, 4238.974121, 4194.871582, 4204.102539, 4196.410156, 4203.589844, 4198.974121, 4200.512695, 4200.512695, 4200.512695, 4203.589844, 4212.820313, 4242.051270, 4221.538574, 2160.000000, 8199.000000, 8182.000000, 0.000000, 0.000000, 0.000000, 16187.000000, 225.128204, 4.000000, 4.000000, 4.000000, 4.000000, 4.000000, 4.000000, 4.000000, 4.000000, 4.000000, 4.000000, 4.000000, 4.000000, 4.000000, 4.000000, 4.000000, 4.000000
120.000000, 0.000000, 4221.025391, 4243.589844, 4183.589844, 4201.025391, 4203.076660, 4197.436035, 4199.487305, 4188.717773, 4188.717773, 4188.717773, 4203.589844, 4207.179199, 4242.051270, 4213.846191, 3480.000000, 8199.000000, 8182.000000, 0.000000, 0.000000, 0.000000, 16187.000000, 232.820511, 4.000000, 4.000000, 4.000000, 4.000000, 4.000000, 4.000000, 4.000000, 4.000000, 4.000000, 4.000000, 4.000000, 4.000000, 4.000000, 4.000000, 4.000000, 4.000000
121.000000, 0.000000, 4215.897461, 4229.743652, 4182.563965, 4196.410156, 4203.589844, 4188.205078, 4191.794922, 4190.769043, 4200.000000, 4183.076660, 4202.563965, 4210.256348, 4235.384277, 4210.769043, 2389.000000, 8200.000000, 8182.000000, 0.000000, 0.000000, 0.000000, 16187.000000, 241.025635, 4.000000, 4.000000, 4.000000, 4.000000, 4.000000, 4.000000, 4.000000, 4.000000, 4.000000, 4.000000, 4.000000, 4.000000, 4.000000, 4.000000, 4.000000, 4.000000
122.000000, 0.000000, 4215.384277, 4224.615234, 4187.179199, 4198.974121, 4198.974121, 4182.051270, 4183.589844, 4184.615234, 4193.333008, 4188.717773, 4201.538574, 4207.692383, 4233.333008, 4211.281738, 3204.000000, 8200.000000, 8182.000000, 0.000000, 0.000000, 0.000000, 16187.000000, 248.717941, 4.000000, 4.000000, 4.000000, 4.000000, 4.000000, 4.000000, 4.000000, 4.000000, 4.000000, 4.000000, 4.000000, 4.000000, 4.000000, 4.000000, 4.000000, 4.000000
123.000000, 0.000000, 4226.153809, 4234.871582, 4188.717773, 4204.615234, 4208.717773, 4184.102539, 4185.127930, 4175.897461, 4182.051270, 4192.820313, 4207.179199, 4208.717773, 4243.076660, 4212.307617, 2160.000000, 8214.000000, 8186.000000, 0.000000, 0.000000, 0.000000, 16187.000000, 256.923065, 4.000000, 4.000000, 4.000000, 4.000000, 4.000000, 4.000000, 4.000000, 4.000000, 4.000000, 4.000000, 4.000000, 4.000000, 4.000000, 4.000000, 4.000000, 4.000000
124.000000, 0.000000, 4219.487305, 4231.281738, 4187.692383, 4203.076660, 4213.333008, 4188.205078, 4189.230469, 4183.589844, 4190.256348, 4188.717773, 4208.717773, 4214.871582, 4238.974121, 4213.333008, 3480.000000, 8214.000000, 8186.000000, 0.000000, 0.000000, 0.000000, 16187.000000, 264.615387, 4.000000, 4.000000, 4.000000, 4.000000, 4.000000, 4.000000, 4.000000, 4.000000, 4.000000, 4.000000, 4.000000, 4.000000, 4.000000, 4.000000, 4.000000, 4.000000
125.000000, 0.000000, 4210.256348, 4219.487305, 4186.153809, 4200.512695, 4208.205078, 4187.692383, 4185.127930, 4189.230469, 4196.922852, 4188.717773, 4206.666504, 4209.743652, 4228.717773, 4205.127930, 2389.000000, 8221.000000, 8188.000000, 0.000000, 0.000000, 0.000000, 16187.000000, 272.820496, 4.000000, 4.000000, 4.000000, 4.000000, 4.000000, 4.000000, 4.000000, 4.000000, 4.000000, 4.000000, 4.000000, 4.000000, 4.000000, 4.000000, 4.000000, 4.000000
126.000000, 0.000000, 4209.230469, 4220.512695, 4188.717773, 4203.589844, 4216.410156, 4190.256348, 4184.102539, 4187.179199, 4193.846191, 4202.563965, 4212.820313, 4215.384277, 4233.333008, 4204.102539, 3204.000000, 8221.000000, 8188.000000, 0.000000, 0.000000, 0.000000, 16187.000000, 280.512817, 4.000000, 4.000000, 4.000000, 4.000000, 4.000000, 4.000000, 4.000000, 4.000000, 4.000000, 4.000000, 4.000000, 4.000000, 4.000000, 4.000000, 4.000000, 4.000000
127.000000, 0.000000, 4205.127930, 4223.076660, 4186.666504, 4205.641113, 4215.897461, 4196.410156, 4187.692383, 4183.589844, 4190.769043, 4204.102539, 4210.256348, 4212.820313, 4229.230469, 4202.051270, 55.000000, 8232.000000, 8177.000000, 0.000000, 0.000000, 0.000000, 16187.000000, 288.717957, 4.000000, 4.000000, 4.000000, 4.000000, 4.000000, 4.000000, 4.000000, 4.000000, 4.000000, 4.000000, 4.000000, 4.000000, 4.000000, 4.000000, 4.000000, 4.000000
0.000000, 0.000000, 4194.358887, 4206.153809, 4176.410156, 4199.487305, 4198.974121, 4182.051270, 4174.871582, 4175.897461, 4181.025391, 4184.102539, 4191.281738, 4193.846191, 4212.307617, 4192.307617, 3304.000000, 8232.000000, 8177.000000, 0.000000, 0.000000, 0.000000, 16187.000000, 296.410248, 4.000000, 4.000000, 4.000000, 4.000000, 4.000000, 4.000000, 4.000000, 4.000000, 4.000000, 4.000000, 4.000000, 4.000000, 4.000000, 4.000000, 4.000000, 4.000000
1.000000, 0.000000, 4183.076660, 4191.794922, 4175.384277, 4195.384277, 4206.666504, 4171.281738, 4165.641113, 4176.922852, 4184.615234, 4182.563965, 4185.641113, 4196.410156, 4210.769043, 4194.871582, 3524.000000, 8231.000000, 8169.000000, 0.000000, 0.000000, 0.000000, 16187.000000, 304.615387, 4.000000, 4.000000, 4.000000, 4.000000, 4.000000, 4.000000, 4.000000, 4.000000, 4.000000, 4.000000, 4.000000, 4.000000, 4.000000, 4.000000, 4.000000, 4.000000
2.000000, 0.000000, 4190.256348, 4207.692383, 4186.666504, 4202.563965, 4230.769043, 4188.717773, 4180.512695, 4189.230469, 4203.589844, 4202.563965, 4196.922852, 4207.179199, 4217.436035, 4198.974121, 2812.000000, 8231.000000, 8169.000000, 0.000000, 0.000000, 0.000000, 16187.000000, 312.307678, 4.000000, 4.000000, 4.000000, 4.000000, 4.000000, 4.000000, 4.000000, 4.000000, 4.000000, 4.000000, 4.000000, 4.000000, 4.000000, 4.000000, 4.000000, 4.000000
3.000000, 0.000000, 4194.871582, 4218.461426, 4189.230469, 4208.205078, 4229.230469, 4197.436035, 4186.666504, 4187.179199, 4205.127930, 4207.692383, 4203.589844, 4209.230469, 4214.358887, 4200.512695, 3553.000000, 8234.000000, 8163.000000, 0.000000, 0.000000, 0.000000, 16187.000000, 320.512817, 4.000000, 4.000000, 4.000000, 4.000000, 4.000000, 4.000000, 4.000000, 4.000000, 4.000000, 4.000000, 4.000000, 4.000000, 4.000000, 4.000000, 4.000000, 4.000000
4.000000, 0.000000, 4181.538574, 4201.025391, 4180.000000, 4201.538574, 4218.461426, 4187.179199, 4177.948730, 4176.922852, 4197.436035, 4191.794922, 4199.487305, 4204.615234, 4204.615234, 4196.922852, 3519.000000, 8234.000000, 8163.000000, 0.000000, 0.000000, 0.000000, 16187.000000, 328.205109, 4.000000, 4.000000, 4.000000, 4.000000, 4.000000, 4.000000, 4.000000, 4.000000, 4.000000, 4.000000, 4.000000, 4.000000, 4.000000, 4.000000, 4.000000, 4.000000
5.000000, 0.000000, 4168.717773, 4184.615234, 4173.333008, 4191.281738, 4220.000000, 4184.615234, 4184.102539, 4182.563965, 4200.000000, 4182.563965, 4188.717773, 4197.436035, 4193.333008, 4188.205078, 3537.000000, 8222.000000, 8082.000000, 0.000000, 0.000000, 0.000000, 16187.000000, 336.410248, 4.000000, 4.000000, 4.000000, 4.000000, 4.000000, 4.000000, 4.000000, 4.000000, 4.000000, 4.000000, 4.000000, 4.000000, 4.000000, 4.000000, 4.000000, 4.000000
6.000000, 0.000000, 4158.974121, 4177.436035, 4168.717773, 4186.666504, 4222.563965, 4185.641113, 4189.230469, 4188.717773, 4204.615234, 4194.358887, 4182.051270, 4197.948730, 4187.179199, 4191.281738, 3454.000000, 8222.000000, 8082.000000, 0.000000, 0.000000, 0.000000, 16187.000000, 344.615387, 4.000000, 4.000000, 4.000000, 4.000000, 4.000000, 4.000000, 4.000000, 4.000000, 4.000000, 4.000000, 4.000000, 4.000000, 4.000000, 4.000000, 4.000000, 4.000000
7.000000, 0.000000, 4157.948730, 4173.846191, 4171.281738, 4188.205078, 4220.000000, 4184.102539, 4181.025391, 4185.127930, 4205.127930, 4201.538574, 4186.153809, 4198.974121, 4188.717773, 4195.384277, 3198.000000, 8206.000000, 8034.000000, 0.000000, 0.000000, 0.000000, 16187.000000, 352.307678, 4.000000, 4.000000, 4.000000, 4.000000, 4.000000, 4.000000, 4.000000, 4.000000, 4.000000, 4.000000, 4.000000, 4.000000, 4.000000, 4.000000, 4.000000, 4.000000
8.000000, 0.000000, 4157.436035, 4173.846191, 4176.410156, 4187.692383, 4215.384277, 4187.692383, 4188.205078, 4184.102539, 4200.000000, 4190.769043, 4191.794922, 4200.512695, 4188.717773, 4195.897461, 3529.000000, 8206.000000, 8034.000000, 0.000000, 0.000000, 0.000000, 16187.000000, 360.512817, 4.000000, 4.000000, 4.000000, 4.000000, 4.000000, 4.000000, 4.000000, 4.000000, 4.000000, 4.000000, 4.000000, 4.000000, 4.000000, 4.000000, 4.000000, 4.000000
9.000000, 0.000000, 4151.794922, 4173.846191, 4173.333008, 4184.102539, 4216.410156, 4187.179199, 4202.051270, 4188.205078, 4194.358887, 4178.461426, 4190.769043, 4198.974121, 4187.692383, 4197.948730, 3531.000000, 8185.000000, 8003.000000, 0.000000, 0.000000, 0.000000, 16187.000000, 368.205109, 4.000000, 4.000000, 4.000000, 4.000000, 4.000000, 4.000000, 4.000000, 4.000000, 4.000000, 4.000000, 4.000000, 4.000000, 4.000000, 4.000000, 4.000000, 4.000000
10.000000, 0.000000, 4150.256348, 4170.769043, 4171.281738, 4185.641113, 4217.948730, 4184.102539, 4196.410156, 4198.461426, 4198.461426, 4182.563965, 4190.256348, 4196.922852, 4187.692383, 4195.897461, 3197.000000, 8185.000000, 8003.000000, 0.000000, 0.000000, 0.000000, 16187.000000, 376.410248, 4.000000, 4.000000, 4.000000, 4.000000, 4.000000, 4.000000, 4.000000, 4.000000, 4.000000, 4.000000, 4.000000, 4.000000, 4.000000, 4.000000, 4.000000, 4.000000
11.000000, 0.000000, 4144.615234, 4165.641113, 4172.307617, 4184.102539, 4204.615234, 4185.641113, 4184.615234, 4203.076660, 4202.051270, 4190.769043, 4187.179199, 4198.974121, 4182.563965, 4195.384277, 2170.000000, 8179.000000, 8009.000000, 0.000000, 0.000000, 0.000000, 16187.000000, 384.102570, 4.000000, 4.000000, 4.000000, 4.000000, 4.000000, 4.000000, 4.000000, 4.000000, 4.000000, 4.000000, 4.000000, 4.000000, 4.000000, 4.000000, 4.000000, 4.000000
12.000000, 0.000000, 4136.410156, 4152.820313, 4165.641113, 4172.307617, 4197.436035, 4176.410156, 4182.563965, 4189.743652, 4188.717773, 4186.666504, 4174.871582, 4189.743652, 4175.384277, 4189.743652, 3480.000000, 8179.000000, 8009.000000, 0.000000, 0.000000, 0.000000, 16187.000000, 392.307678, 4.000000, 4.000000, 4.000000, 4.000000, 4.000000, 4.000000, 4.000000, 4.000000, 4.000000, 4.000000, 4.000000, 4.000000, 4.000000, 4.000000, 4.000000, 4.000000
13.000000, 0.000000, 4131.281738, 4139.487305, 4163.076660, 4168.717773, 4211.794922, 4171.281738, 4185.641113, 4183.076660, 4181.025391, 4178.974121, 4165.641113, 4187.692383, 4180.512695, 4190.256348, 2392.000000, 8171.000000, 8001.000000, 0.000000, 0.000000, 0.000000, 16187.000000, 400.000000, 4.000000, 4.000000, 4.000000, 4.000000, 4.000000, 4.000000, 4.000000, 4.000000, 4.000000, 4.000000, 4.000000, 4.000000, 4.000000, 4.000000, 4.000000, 4.000000
14.000000, 0.000000, 4134.358887, 4140.000000, 4170.256348, 4180.512695, 4221.538574, 4191.794922, 4190.256348, 4198.974121, 4202.051270, 4190.256348, 4175.384277, 4196.922852, 4191.281738, 4197.948730, 3197.000000, 8171.000000, 8001.000000, 0.000000, 0.000000, 0.000000, 16187.000000, 408.205109, 4.000000, 4.000000, 4.000000, 4.000000, 4.000000, 4.000000, 4.000000, 4.000000, 4.000000, 4.000000, 4.000000, 4.000000, 4.000000, 4.000000, 4.000000, 4.000000
15.000000, 0.000000, 4141.025391, 4140.000000, 4172.307617, 4185.127930, 4217.948730, 4206.666504, 4196.410156, 4206.666504, 4219.487305, 4205.641113, 4183.589844, 4195.384277, 4186.666504, 4193.846191, 2170.000000, 8168.000000, 8000.000000, 0.000000, 0.000000, 0.000000, 16187.000000, 415.897430, 4.000000, 4.000000, 4.000000, 4.000000, 4.000000, 4.000000, 4.000000, 4.000000, 4.000000, 4.000000, 4.000000, 4.000000, 4.000000, 4.000000, 4.000000, 4.000000
16.000000, 0.000000, 4134.871582, 4135.897461, 4172.820313, 4181.538574, 4221.538574, 4202.563965, 4198.974121, 4194.871582, 4209.230469, 4202.563965, 4177.948730, 4196.922852, 4181.025391, 4195.897461, 0.000000, 8168.000000, 8000.000000, 0.000000, 0.000000, 0.000000, 16187.000000, 424.102539, 4.000000, 4.000000, 4.000000, 4.000000, 4.000000, 4.000000, 4.000000, 4.000000, 4.000000, 4.000000, 4.000000, 4.000000, 4.000000, 4.000000, 4.000000, 4.000000
17.000000, 0.000000, 4134.358887, 4140.512695, 4183.076660, 4182.563965, 4226.666504, 4201.025391, 4196.410156, 4187.692383, 4197.948730, 4198.974121, 4177.436035, 4200.512695, 4187.179199, 4201.025391, 0.000000, 8166.000000, 8016.000000, 0.000000, 0.000000, 0.000000, 16187.000000, 431.794861, 4.000000, 4.000000, 4.000000, 4.000000, 4.000000, 4.000000, 4.000000, 4.000000, 4.000000, 4.000000, 4.000000, 4.000000, 4.000000, 4.000000, 4.000000, 4.000000
18.000000, 0.000000, 4140.000000, 4142.051270, 4189.743652, 4185.641113, 4220.512695, 4203.076660, 4197.948730, 4188.717773, 4200.512695, 4203.076660, 4179.487305, 4207.692383, 4184.102539, 4200.000000, 0.000000, 8166.000000, 8016.000000, 0.000000, 0.000000, 0.000000, 16187.000000, 440.000000, 4.000000, 4.000000, 4.000000, 4.000000, 4.000000, 4.000000, 4.000000, 4.000000, 4.000000, 4.000000, 4.000000, 4.000000, 4.000000, 4.000000, 4.000000, 4.000000
19.000000, 0.000000, 4130.256348, 4132.307617, 4181.025391, 4185.127930, 4215.384277, 4198.974121, 4201.025391, 4186.666504, 4198.974121, 4196.410156, 4173.333008, 4210.256348, 4171.794922, 4200.512695, 0.000000, 8176.000000, 8039.000000, 0.000000, 0.000000, 0.000000, 16187.000000, 447.692291, 4.000000, 4.000000, 4.000000, 4.000000, 4.000000, 4.000000, 4.000000, 4.000000, 4.000000, 4.000000, 4.000000, 4.000000, 4.000000, 4.000000, 4.000000, 4.000000
20.000000, 0.000000, 4125.641113, 4126.666504, 4168.205078, 4180.512695, 4216.922852, 4198.461426, 4199.487305, 4184.102539, 4190.256348, 4185.127930, 4166.153809, 4202.051270, 4169.230469, 4194.871582, 0.000000, 8176.000000, 8039.000000, 0.000000, 0.000000, 0.000000, 16187.000000, 455.897430, 4.000000, 4.000000, 4.000000, 4.000000, 4.000000, 4.000000, 4.000000, 4.000000, 4.000000, 4.000000, 4.000000, 4.000000, 4.000000, 4.000000, 4.000000, 4.000000
21.000000, 0.000000, 4126.666504, 4126.666504, 4165.641113, 4172.820313, 4216.410156, 4203.076660, 4200.512695, 4185.127930, 4183.076660, 4183.589844, 4166.666504, 4203.076660, 4173.846191, 4193.846191, 0.000000, 8184.000000, 8043.000000, 0.000000, 0.000000, 0.000000, 16187.000000, 464.102539, 4.000000, 4.000000, 4.000000, 4.000000, 4.000000, 4.000000, 4.000000, 4.000000, 4.000000, 4.000000, 4.000000, 4.000000, 4.000000, 4.000000, 4.000000, 4.000000
22.000000, 0.000000, 4125.127930, 4123.076660, 4168.717773, 4169.743652, 4215.384277, 4202.563965, 4206.666504, 4186.153809, 4183.589844, 4186.666504, 4168.205078, 4198.974121, 4171.794922, 4196.410156, 0.000000, 8184.000000, 8043.000000, 0.000000, 0.000000, 0.000000, 16187.000000, 471.794861, 4.000000, 4.000000, 4.000000, 4.000000, 4.000000, 4.000000, 4.000000, 4.000000, 4.000000, 4.000000, 4.000000, 4.000000, 4.000000, 4.000000, 4.000000, 4.000000
23.000000, 0.000000, 4128.205078, 4123.076660, 4176.922852, 4176.922852, 4209.743652, 4197.436035, 4201.538574, 4192.820313, 4192.307617, 4194.871582, 4169.230469, 4200.000000, 4174.358887, 4198.461426, 0.000000, 8193.000000, 8053.000000, 0.000000, 0.000000, 0.000000, 16187.000000, 480.000000, 4.000000, 4.000000, 4.000000, 4.000000, 4.000000, 4.000000, 4.000000, 4.000000, 4.000000, 4.000000, 4.000000, 4.000000, 4.000000, 4.000000, 4.000000, 4.000000
24.000000, 0.000000, 4133.333008, 4132.820313, 4186.666504, 4181.025391, 4202.563965, 4195.384277, 4187.692383, 4201.538574, 4196.410156, 4201.538574, 4173.846191, 4213.846191, 4186.666504, 4204.615234, 0.000000, 8193.000000, 8053.000000, 0.000000, 0.000000, 0.000000, 16187.000000, 487.692291, 4.000000, 4.000000, 4.000000, 4.000000, 4.000000, 4.000000, 4.000000, 4.000000, 4.000000, 4.000000, 4.000000, 4.000000, 4.000000, 4.000000, 4.000000, 4.000000
25.000000, 0.000000, 4137.948730, 4138.461426, 4184.615234, 4177.948730, 4205.641113, 4196.922852, 4183.076660, 4197.948730, 4191.281738, 4201.025391, 4176.922852, 4212.307617, 4189.230469, 4200.512695, 0.000000, 8209.000000, 8076.000000, 0.000000, 0.000000, 0.000000, 16187.000000, 495.897430, 4.000000, 4.000000, 4.000000, 4.000000, 4.000000, 4.000000, 4.000000, 4.000000, 4.000000, 4.000000, 4.000000, 4.000000, 4.000000, 4.000000, 4.000000, 4.000000
26.000000, 0.000000, 4132.820313, 4136.410156, 4172.820313, 4173.333008, 4214.871582, 4189.743652, 4183.589844, 4184.615234, 4185.127930, 4198.461426, 4175.384277, 4205.127930, 4180.000000, 4196.922852, 0.000000, 8209.000000, 8076.000000, 0.000000, 0.000000, 0.000000, 16187.000000, 503.589722, 4.000000, 4.000000, 4.000000, 4.000000, 4.000000, 4.000000, 4.000000, 4.000000, 4.000000, 4.000000, 4.000000, 4.000000, 4.000000, 4.000000, 4.000000, 4.000000
27.000000, 0.000000, 4129.743652, 4134.358887, 4165.127930, 4175.897461, 4217.436035, 4182.563965, 4182.563965, 4180.000000, 4185.127930, 4198.974121, 4173.333008, 4201.025391, 4179.487305, 4198.974121, 0.000000, 8216.000000, 8091.000000, 0.000000, 0.000000, 0.000000, 16187.000000, 511.794861, 4.000000, 4.000000, 4.000000, 4.000000, 4.000000, 4.000000, 4.000000, 4.000000, 4.000000, 4.000000, 4.000000, 4.000000, 4.000000, 4.000000, 4.000000, 4.000000
28.000000, 0.000000, 4136.922852, 4137.948730, 4171.281738, 4183.589844, 4217.436035, 4192.820313, 4185.127930, 4184.102539, 4189.743652, 4208.717773, 4179.487305, 4200.512695, 4190.769043, 4200.000000, 0.000000, 8216.000000, 8091.000000, 0.000000, 0.000000, 0.000000, 16187.000000, 519.487183, 4.000000, 4.000000, 4.000000, 4.000000, 4.000000, 4.000000, 4.000000, 4.000000, 4.000000, 4.000000, 4.000000, 4.000000, 4.000000, 4.000000, 4.000000, 4.000000
29.000000, 0.000000, 4136.410156, 4143.076660, 4181.025391, 4188.717773, 4218.461426, 4205.127930, 4188.717773, 4186.666504, 4190.769043, 4214.358887, 4186.153809, 4204.615234, 4195.384277, 4203.589844, 0.000000, 8232.000000, 8138.000000, 0.000000, 0.000000, 0.000000, 16187.000000, 527.692322, 4.000000, 4.000000, 4.000000, 4.000000, 4.000000, 4.000000, 4.000000, 4.000000, 4.000000, 4.000000, 4.000000, 4.000000, 4.000000, 4.000000, 4.000000, 4.000000
30.000000, 0.000000, 4136.922852, 4144.615234, 4182.051270, 4189.230469, 4219.487305, 4201.538574, 4187.692383, 4190.256348, 4189.743652, 4213.846191, 4184.102539, 4201.538574, 4186.153809, 4197.436035, 0.000000, 8232.000000, 8138.000000, 0.000000, 0.000000, 0.000000, 16187.000000, 535.384583, 4.000000, 4.000000, 4.000000, 4.000000, 4.000000, 4.000000, 4.000000, 4.000000, 4.000000, 4.000000, 4.000000, 4.000000, 4.000000, 4.000000, 4.000000, 4.000000
31.000000, 0.000000, 4141.025391, 4143.589844, 4179.487305, 4189.230469, 4224.102539, 4196.410156, 4187.179199, 4197.436035, 4195.897461, 4210.256348, 4181.538574, 4206.153809, 4181.025391, 4196.922852, 0.000000, 8230.000000, 8168.000000, 0.000000, 0.000000, 0.000000, 16187.000000, 543.589722, 4.000000, 4.000000, 4.000000, 4.000000, 4.000000, 4.000000, 4.000000, 4.000000, 4.000000, 4.000000, 4.000000, 4.000000, 4.000000, 4.000000, 4.000000, 4.000000
32.000000, 0.000000, 4141.538574, 4143.589844, 4182.051270, 4187.692383, 4224.102539, 4202.051270, 4194.871582, 4196.410156, 4202.051270, 4204.102539, 4183.076660, 4210.256348, 4188.717773, 4202.563965, 0.000000, 8230.000000, 8168.000000, 0.000000, 0.000000, 0.000000, 16187.000000, 551.794861, 4.000000, 4.000000, 4.000000, 4.000000, 4.000000, 4.000000, 4.000000, 4.000000, 4.000000, 4.000000, 4.000000, 4.000000, 4.000000, 4.000000, 4.000000, 4.000000
33.000000, 0.000000, 4142.563965, 4148.205078, 4185.127930, 4185.641113, 4220.000000, 4204.102539, 4205.127930, 4191.281738, 4201.025391, 4207.179199, 4183.589844, 4207.692383, 4193.846191, 4201.025391, 0.000000, 8231.000000, 8224.000000, 0.000000, 0.000000, 0.000000, 16187.000000, 559.487183, 4.000000, 4.000000, 4.000000, 4.000000, 4.000000, 4.000000, 4.000000, 4.000000, 4.000000, 4.000000, 4.000000, 4.000000, 4.000000, 4.000000, 4.000000, 4.000000
34.000000, 0.000000, 4142.051270, 4153.846191, 4185.127930, 4193.846191, 4222.563965, 4195.897461, 4200.000000, 4195.897461, 4204.615234, 4219.487305, 4185.127930, 4208.205078, 4191.794922, 4202.051270, 0.000000, 8231.000000, 8224.000000, 0.000000, 0.000000, 0.000000, 16187.000000, 567.692322, 4.000000, 4.000000, 4.000000, 4.000000, 4.000000, 4.000000, 4.000000, 4.000000, 4.000000, 4.000000, 4.000000, 4.000000, 4.000000, 4.000000, 4.000000, 4.000000
35.000000, 0.000000, 4143.076660, 4152.307617, 4185.641113, 4200.512695, 4220.000000, 4196.410156, 4185.127930, 4200.000000, 4209.743652, 4222.563965, 4187.692383, 4203.589844, 4190.256348, 4198.974121, 0.000000, 8227.000000, 8252.000000, 0.000000, 0.000000, 0.000000, 16187.000000, 575.384583, 4.000000, 4.000000, 4.000000, 4.000000, 4.000000, 4.000000, 4.000000, 4.000000, 4.000000, 4.000000, 4.000000, 4.000000, 4.000000, 4.000000, 4.000000, 4.000000
36.000000, 0.000000, 4143.076660, 4141.538574, 4186.153809, 4192.307617, 4218.974121, 4204.615234, 4183.589844, 4191.794922, 4203.589844, 4214.358887, 4186.153809, 4205.641113, 4191.281738, 4198.974121, 0.000000, 8227.000000, 8252.000000, 0.000000, 0.000000, 0.000000, 16187.000000, 583.589722, 4.000000, 4.000000, 4.000000, 4.000000, 4.000000, 4.000000, 4.000000, 4.000000, 4.000000, 4.000000, 4.000000, 4.000000, 4.000000, 4.000000, 4.000000, 4.000000
37.000000, 0.000000, 4142.563965, 4137.436035, 4185.641113, 4185.127930, 4217.948730, 4194.871582, 4188.717773, 4181.025391, 4192.307617, 4209.230469, 4182.563965, 4205.641113, 4190.769043, 4201.538574, 0.000000, 8223.000000, 8275.000000, 0.000000, 0.000000, 0.000000, 16187.000000, 591.282043, 4.000000, 4.000000, 4.000000, 4.000000, 4.000000, 4.000000, 4.000000, 4.000000, 4.000000, 4.000000, 4.000000, 4.000000, 4.000000, 4.000000, 4.000000, 4.000000
38.000000, 0.000000, 4143.076660, 4140.512695, 4183.076660, 4187.692383, 4205.641113, 4183.076660, 4182.051270, 4171.794922, 4178.461426, 4194.358887, 4171.794922, 4194.358887, 4182.051270, 4196.922852, 0.000000, 8223.000000, 8275.000000, 0.000000, 0.000000, 0.000000, 16187.000000, 599.487183, 4.000000, 4.000000, 4.000000, 4.000000, 4.000000, 4.000000, 4.000000, 4.000000, 4.000000, 4.000000, 4.000000, 4.000000, 4.000000, 4.000000, 4.000000, 4.000000
39.000000, 0.000000, 4127.692383, 4130.769043, 4171.794922, 4181.025391, 4204.615234, 4195.384277, 4184.102539, 4165.641113, 4165.127930, 4172.820313, 4152.307617, 4186.153809, 4167.692383, 4193.333008, 0.000000, 8213.000000, 8327.000000, 0.000000, 0.000000, 0.000000, 16187.000000, 607.179443, 4.000000, 4.000000, 4.000000, 4.000000, 4.000000, 4.000000, 4.000000, 4.000000, 4.000000, 4.000000, 4.000000, 4.000000, 4.000000, 4.000000, 4.000000, 4.000000
40.000000, 0.000000, 4122.563965, 4117.436035, 4169.230469, 4169.743652, 4218.974121, 4213.846191, 4201.538574, 4171.794922, 4171.794922, 4170.256348, 4147.179199, 4181.025391, 4165.641113, 4190.769043, 0.000000, 8213.000000, 8327.000000, 0.000000, 0.000000, 0.000000, 16187.000000, 615.384583, 4.000000, 4.000000, 4.000000, 4.000000, 4.000000, 4.000000, 4.000000, 4.000000, 4.000000, 4.000000, 4.000000, 4.000000, 4.000000, 4.000000, 4.000000, 4.000000
41.000000, 0.000000, 4135.384277, 4122.563965, 4182.563965, 4174.358887, 4218.461426, 4214.358887, 4205.127930, 4190.769043, 4195.897461, 4180.512695, 4164.102539, 4191.794922, 4180.512695, 4200.512695, 0.000000, 8214.000000, 8350.000000, 0.000000, 0.000000, 0.000000, 16187.000000, 623.076904, 4.000000, 4.000000, 4.000000, 4.000000, 4.000000, 4.000000, 4.000000, 4.000000, 4.000000, 4.000000, 4.000000, 4.000000, 4.000000, 4.000000, 4.000000, 4.000000
42.000000, 0.000000, 4141.538574, 4133.846191, 4188.205078, 4186.153809, 4210.769043, 4205.127930, 4201.538574, 4204.102539, 4211.281738, 4194.358887, 4179.487305, 4201.538574, 4196.922852, 4209.743652, 0.000000, 8214.000000, 8350.000000, 0.000000, 0.000000, 0.000000, 16187.000000, 631.282043, 4.000000, 4.000000, 4.000000, 4.000000, 4.000000, 4.000000, 4.000000, 4.000000, 4.000000, 4.000000, 4.000000, 4.000000, 4.000000, 4.000000, 4.000000, 4.000000
43.000000, 0.000000, 4148.717773, 4138.461426, 4185.641113, 4187.692383, 4215.384277, 4200.512695, 4202.563965, 4200.512695, 4209.230469, 4211.281738, 4190.256348, 4200.512695, 4208.205078, 4206.153809, 0.000000, 8222.000000, 8369.000000, 0.000000, 0.000000, 0.000000, 16187.000000, 639.487183, 4.000000, 4.000000, 4.000000, 4.000000, 4.000000, 4.000000, 4.000000, 4.000000, 4.000000, 4.000000, 4.000000, 4.000000, 4.000000, 4.000000, 4.000000, 4.000000
44.000000, 0.000000, 4152.307617, 4147.692383, 4189.743652, 4186.153809, 4215.384277, 4203.076660, 4196.410156, 4189.230469, 4203.076660, 4217.948730, 4201.025391, 4207.179199, 4215.384277, 4208.717773, 0.000000, 8222.000000, 8369.000000, 0.000000, 0.000000, 0.000000, 16187.000000, 647.179443, 4.000000, 4.000000, 4.000000, 4.000000, 4.000000, 4.000000, 4.000000, 4.000000, 4.000000, 4.000000, 4.000000, 4.000000, 4.000000, 4.000000, 4.000000, 4.000000
45.000000, 0.000000, 4153.846191, 4154.358887, 4186.153809, 4188.205078, 4213.333008, 4199.487305, 4185.127930, 4185.127930, 4203.076660, 4209.743652, 4198.461426, 4206.153809, 4211.281738, 4205.127930, 0.000000, 8221.000000, 8373.000000, 0.000000, 0.000000, 0.000000, 16187.000000, 655.384583, 4.000000, 4.000000, 4.000000, 4.000000, 4.000000, 4.000000, 4.000000, 4.000000, 4.000000, 4.000000, 4.000000, 4.000000, 4.000000, 4.000000, 4.000000, 4.000000
46.000000, 0.000000, 4150.769043, 4148.205078, 4175.384277, 4187.692383, 4215.897461, 4184.102539, 4181.538574, 4182.563965, 4198.461426, 4194.871582, 4184.102539, 4195.897461, 4194.871582, 4195.897461, 0.000000, 8221.000000, 8373.000000, 0.000000, 0.000000, 0.000000, 16187.000000, 663.076904, 4.000000, 4.000000, 4.000000, 4.000000, 4.000000, 4.000000, 4.000000, 4.000000, 4.000000, 4.000000, 4.000000, 4.000000, 4.000000, 4.000000, 4.000000, 4.000000
47.000000, 0.000000, 4143.076660, 4147.179199, 4172.307617, 4185.641113, 4212.307617, 4180.000000, 4182.563965, 4176.410156, 4190.769043, 4187.179199, 4181.025391, 4185.641113, 4186.666504, 4195.897461, 0.000000, 8224.000000, 8364.000000, 0.000000, 0.000000, 0.000000, 16187.000000, 671.282043, 4.000000, 4.000000, 4.000000, 4.000000, 4.000000, 4.000000, 4.000000, 4.000000, 4.000000, 4.000000, 4.000000, 4.000000, 4.000000, 4.000000, 4.000000, 4.000000
48.000000, 0.000000, 4146.666504, 4156.410156, 4176.410156, 4187.692383, 4211.281738, 4188.717773, 4179.487305, 4169.743652, 4191.794922, 4187.179199, 4188.205078, 4184.102539, 4196.922852, 4195.897461, 0.000000, 8224.000000, 8364.000000, 0.000000, 0.000000, 0.000000, 16187.000000, 678.974365, 4.000000, 4.000000, 4.000000, 4.000000, 4.000000, 4.000000, 4.000000, 4.000000, 4.000000, 4.000000, 4.000000, 4.000000, 4.000000, 4.000000, 4.000000, 4.000000
49.000000, 0.000000, 4146.666504, 4155.384277, 4174.871582, 4187.692383, 4207.179199, 4189.230469, 4182.051270, 4169.230469, 4197.948730, 4187.179199, 4185.641113, 4192.307617, 4198.461426, 4199.487305, 0.000000, 8280.000000, 8325.000000, 0.000000, 0.000000, 0.000000, 16187.000000, 687.179443, 4.000000, 4.000000, 4.000000, 4.000000, 4.000000, 4.000000, 4.000000, 4.000000, 4.000000, 4.000000, 4.000000, 4.000000, 4.000000, 4.000000, 4.000000, 4.000000
50.000000, 0.000000, 4143.589844, 4153.846191, 4171.281738, 4186.153809, 4203.076660, 4184.615234, 4184.615234, 4174.871582, 4201.538574, 4186.666504, 4183.589844, 4185.641113, 4190.256348, 4198.461426, 0.000000, 8280.000000, 8325.000000, 0.000000, 0.000000, 0.000000, 16187.000000, 694.871765, 4.000000, 4.000000, 4.000000, 4.000000, 4.000000, 4.000000, 4.000000, 4.000000, 4.000000, 4.000000, 4.000000, 4.000000, 4.000000, 4.000000, 4.000000, 4.000000
51.000000, 0.000000, 4145.641113, 4161.025391, 4172.307617, 4185.641113, 4209.230469, 4187.179199, 4176.410156, 4173.333008, 4202.051270, 4189.230469, 4184.615234, 4184.102539, 4193.846191, 4194.871582, 0.000000, 8314.000000, 8309.000000, 0.000000, 0.000000, 0.000000, 16187.000000, 703.076904, 4.000000, 4.000000, 4.000000, 4.000000, 4.000000, 4.000000, 4.000000, 4.000000, 4.000000, 4.000000, 4.000000, 4.000000, 4.000000, 4.000000, 4.000000, 4.000000
52.000000, 0.000000, 4138.461426, 4158.974121, 4171.281738, 4186.666504, 4204.102539, 4184.615234, 4166.153809, 4166.153809, 4202.051270, 4184.102539, 4178.461426, 4190.769043, 4196.922852, 4193.846191, 0.000000, 8314.000000, 8309.000000, 0.000000, 0.000000, 0.000000, 16187.000000, 710.769226, 4.000000, 4.000000, 4.000000, 4.000000, 4.000000, 4.000000, 4.000000, 4.000000, 4.000000, 4.000000, 4.000000, 4.000000, 4.000000, 4.000000, 4.000000, 4.000000
53.000000, 0.000000, 4133.846191, 4157.436035, 4168.717773, 4187.179199, 4191.281738, 4171.794922, 4165.127930, 4166.153809, 4201.538574, 4169.743652, 4167.692383, 4183.589844, 4185.641113, 4187.692383, 0.000000, 8365.000000, 8219.000000, 0.000000, 0.000000, 0.000000, 16187.000000, 718.461548, 4.000000, 4.000000, 4.000000, 4.000000, 4.000000, 4.000000, 4.000000, 4.000000, 4.000000, 4.000000, 4.000000, 4.000000, 4.000000, 4.000000, 4.000000, 4.000000
54.000000, 0.000000, 4133.333008, 4166.153809, 4168.205078, 4186.666504, 4203.076660, 4167.179199, 4168.205078, 4167.179199, 4197.436035, 4164.102539, 4160.512695, 4178.974121, 4177.948730, 4188.205078, 0.000000, 8365.000000, 8219.000000, 0.000000, 0.000000, 0.000000, 16187.000000, 726.666626, 4.000000, 4.000000, 4.000000, 4.000000, 4.000000, 4.000000, 4.000000, 4.000000, 4.000000, 4.000000, 4.000000, 4.000000, 4.000000, 4.000000, 4.000000, 4.000000
55.000000, 0.000000, 4137.436035, 4174.358887, 4164.615234, 4186.153809, 4217.436035, 4176.410156, 4168.717773, 4154.871582, 4195.897461, 4170.256348, 4162.563965, 4180.000000, 4184.615234, 4189.743652, 0.000000, 8385.000000, 8135.000000, 0.000000, 0.000000, 0.000000, 16187.000000, 734.871765, 4.000000, 4.000000, 4.000000, 4.000000, 4.000000, 4.000000, 4.000000, 4.000000, 4.000000, 4.000000, 4.000000, 4.000000, 4.000000, 4.000000, 4.000000, 4.000000
56.000000, 0.000000, 4141.538574, 4171.281738, 4164.102539, 4186.666504, 4204.102539, 4184.102539, 4172.307617, 4150.256348, 4198.461426, 4176.922852, 4167.179199, 4186.666504, 4188.717773, 4191.281738, 0.000000, 8385.000000, 8135.000000, 0.000000, 0.000000, 0.000000, 16187.000000, 742.564087, 4.000000, 4.000000, 4.000000, 4.000000, 4.000000, 4.000000, 4.000000, 4.000000, 4.000000, 4.000000, 4.000000, 4.000000, 4.000000, 4.000000, 4.000000, 4.000000
57.000000, 0.000000, 4139.487305, 4168.717773, 4167.179199, 4184.102539, 4195.897461, 4185.127930, 4173.846191, 4161.025391, 4199.487305, 4178.461426, 4170.769043, 4193.333008, 4190.769043, 4195.384277, 0.000000, 8397.000000, 7986.000000, 0.000000, 0.000000, 0.000000, 16187.000000, 750.769226, 4.000000, 4.000000, 4.000000, 4.000000, 4.000000, 4.000000, 4.000000, 4.000000, 4.000000, 4.000000, 4.000000, 4.000000, 4.000000, 4.000000, 4.000000, 4.000000
58.000000, 0.000000, 4142.051270, 4176.410156, 4170.769043, 4183.589844, 4204.615234, 4187.179199, 4178.461426, 4167.692383, 4206.153809, 4185.127930, 4177.948730, 4191.281738, 4193.846191, 4193.846191, 0.000000, 8397.000000, 7986.000000, 0.000000, 0.000000, 0.000000, 16187.000000, 758.461548, 4.000000, 4.000000, 4.000000, 4.000000, 4.000000, 4.000000, 4.000000, 4.000000, 4.000000, 4.000000, 4.000000, 4.000000, 4.000000, 4.000000, 4.000000, 4.000000
59.000000, 0.000000, 4144.102539, 4184.615234, 4180.512695, 4193.846191, 4204.615234, 4191.794922, 4188.205078, 4177.948730, 4216.410156, 4195.897461, 4187.179199, 4201.025391, 4194.358887, 4195.384277, 0.000000, 8387.000000, 7956.000000, 0.000000, 0.000000, 0.000000, 16187.000000, 766.153809, 4.000000, 4.000000, 4.000000, 4.000000, 4.000000, 4.000000, 4.000000, 4.000000, 4.000000, 4.000000, 4.000000, 4.000000, 4.000000, 4.000000, 4.000000, 4.000000
60.000000, 0.000000, 4146.666504, 4186.666504, 4184.615234, 4198.461426, 4198.974121, 4187.179199, 4186.666504, 4185.641113, 4212.820313, 4195.897461, 4187.692383, 4208.717773, 4184.102539, 4193.333008, 0.000000, 8387.000000, 7956.000000, 0.000000, 0.000000, 0.000000, 16187.000000, 773.846130, 4.000000, 4.000000, 4.000000, 4.000000, 4.000000, 4.000000, 4.000000, 4.000000, 4.000000, 4.000000, 4.000000, 4.000000, 4.000000, 4.000000, 4.000000, 4.000000
61.000000, 0.000000, 4148.205078, 4177.948730, 4175.384277, 4189.743652, 4196.410156, 4181.025391, 4179.487305, 4172.820313, 4197.948730, 4185.127930, 4180.000000, 4201.538574, 4169.743652, 4187.692383, 0.000000, 8371.000000, 7943.000000, 0.000000, 0.000000, 0.000000, 16187.000000, 782.051270, 4.000000, 4.000000, 4.000000, 4.000000, 4.000000, 4.000000, 4.000000, 4.000000, 4.000000, 4.000000, 4.000000, 4.000000, 4.000000, 4.000000, 4.000000, 4.000000
62.000000, 0.000000, 4145.127930, 4170.769043, 4172.820313, 4184.615234, 4198.974121, 4185.641113, 4182.051270, 4162.051270, 4188.205078, 4183.076660, 4184.102539, 4202.563965, 4167.179199, 4196.410156, 0.000000, 8371.000000, 7943.000000, 0.000000, 0.000000, 0.000000, 16187.000000, 790.256409, 4.000000, 4.000000, 4.000000, 4.000000, 4.000000, 4.000000, 4.000000, 4.000000, 4.000000, 4.000000, 4.000000, 4.000000, 4.000000, 4.000000, 4.000000, 4.000000
63.000000, 0.000000, 4151.281738, 4171.281738, 4177.948730, 4187.179199, 4202.051270, 4186.153809, 4182.051270, 4163.589844, 4186.666504, 4189.743652, 4188.717773, 4211.281738, 4167.692383, 4198.461426, 0.000000, 8339.000000, 7945.000000, 0.000000, 0.000000, 0.000000, 16187.000000, 797.948669, 4.000000, 4.000000, 4.000000, 4.000000, 4.000000, 4.000000, 4.000000, 4.000000, 4.000000, 4.000000, 4.000000, 4.000000, 4.000000, 4.000000, 4.000000, 4.000000
64.000000, 0.000000, 4153.846191, 4169.230469, 4174.871582, 4188.205078, 4196.922852, 4183.076660, 4174.871582, 4157.948730, 4191.281738, 4186.153809, 4187.179199, 4220.512695, 4161.538574, 4195.897461, 3306.000000, 8339.000000, 7945.000000, 0.000000, 0.000000, 0.000000, 16187.000000, 805.640991, 4.000000, 4.000000, 4.000000, 4.000000, 4.000000, 4.000000, 4.000000, 4.000000, 4.000000, 4.000000, 4.000000, 4.000000, 4.000000, 4.000000, 4.000000, 4.000000
65.000000, 0.000000, 4156.922852, 4166.666504, 4177.436035, 4192.307617, 4198.461426, 4184.102539, 4178.461426, 4153.846191, 4194.871582, 4185.127930, 4193.846191, 4220.512695, 4161.025391, 4199.487305, 3530.000000, 8325.000000, 7964.000000, 0.000000, 0.000000, 0.000000, 16187.000000, 813.846130, 4.000000, 4.000000, 4.000000, 4.000000, 4.000000, 4.000000, 4.000000, 4.000000, 4.000000, 4.000000, 4.000000, 4.000000, 4.000000, 4.000000, 4.000000, 4.000000
66.000000, 0.000000, 4168.717773, 4169.230469, 4188.205078, 4201.025391, 4196.922852, 4178.974121, 4184.615234, 4165.641113, 4193.333008, 4194.871582, 4203.076660, 4224.102539, 4164.102539, 4202.563965, 2815.000000, 8325.000000, 7964.000000, 0.000000, 0.000000, 0.000000, 16187.000000, 821.538452, 4.000000, 4.000000, 4.000000, 4.000000, 4.000000, 4.000000, 4.000000, 4.000000, 4.000000, 4.000000, 4.000000, 4.000000, 4.000000, 4.000000, 4.000000, 4.000000
67.000000, 0.000000, 4173.333008, 4167.692383, 4190.256348, 4205.127930, 4180.512695, 4172.820313, 4186.153809, 4177.436035, 4193.846191, 4196.922852, 4204.102539, 4241.538574, 4162.563965, 4209.230469, 3561.000000, 8293.000000, 8019.000000, 0.000000, 0.000000, 0.000000, 16187.000000, 829.743591, 4.000000, 4.000000, 4.000000, 4.000000, 4.000000, 4.000000, 4.000000, 4.000000, 4.000000, 4.000000, 4.000000, 4.000000, 4.000000, 4.000000, 4.000000, 4.000000
68.000000, 0.000000, 4169.743652, 4155.384277, 4184.615234, 4201.025391, 4187.179199, 4180.000000, 4183.589844, 4178.461426, 4192.307617, 4189.230469, 4202.563965, 4239.487305, 4160.000000, 4203.076660, 3521.000000, 8293.000000, 8019.000000, 0.000000, 0.000000, 0.000000, 16187.000000, 837.435852, 4.000000, 4.000000, 4.000000, 4.000000, 4.000000, 4.000000, 4.000000, 4.000000, 4.000000, 4.000000, 4.000000, 4.000000, 4.000000, 4.000000, 4.000000, 4.000000
69.000000, 0.000000, 4158.461426, 4140.512695, 4177.948730, 4189.230469, 4213.333008, 4191.281738, 4188.205078, 4176.410156, 4186.666504, 4184.615234, 4201.025391, 4227.179199, 4158.461426, 4191.794922, 3544.000000, 8279.000000, 8041.000000, 0.000000, 0.000000, 0.000000, 16187.000000, 845.640991, 4.000000, 4.000000, 4.000000, 4.000000, 4.000000, 4.000000, 4.000000, 4.000000, 4.000000, 4.000000, 4.000000, 4.000000, 4.000000, 4.000000, 4.000000, 4.000000
70.000000, 0.000000, 4148.717773, 4125.641113, 4171.794922, 4174.358887, 4208.717773, 4189.743652, 4194.358887, 4169.743652, 4178.461426, 4182.563965, 4188.205078, 4219.487305, 4149.230469, 4192.307617, 3457.000000, 8279.000000, 8041.000000, 0.000000, 0.000000, 0.000000, 16187.000000, 853.333313, 4.000000, 4.000000, 4.000000, 4.000000, 4.000000, 4.000000, 4.000000, 4.000000, 4.000000, 4.000000, 4.000000, 4.000000, 4.000000, 4.000000, 4.000000, 4.000000
71.000000, 0.000000, 4145.127930, 4115.897461, 4167.692383, 4171.794922, 4194.871582, 4185.641113, 4192.307617, 4166.153809, 4174.871582, 4184.615234, 4180.000000, 4215.897461, 4146.666504, 4192.820313, 3205.000000, 8264.000000, 8047.000000, 0.000000, 0.000000, 0.000000, 16187.000000, 861.538452, 4.000000, 4.000000, 4.000000, 4.000000, 4.000000, 4.000000, 4.000000, 4.000000, 4.000000, 4.000000, 4.000000, 4.000000, 4.000000, 4.000000, 4.000000, 4.000000
72.000000, 0.000000, 4144.102539, 4120.000000, 4171.794922, 4182.563965, 4204.615234, 4189.743652, 4186.153809, 4174.871582, 4181.025391, 4194.871582, 4189.743652, 4221.025391, 4161.538574, 4200.000000, 3536.000000, 8264.000000, 8047.000000, 0.000000, 0.000000, 0.000000, 16187.000000, 869.230774, 4.000000, 4.000000, 4.000000, 4.000000, 4.000000, 4.000000, 4.000000, 4.000000, 4.000000, 4.000000, 4.000000, 4.000000, 4.000000, 4.000000, 4.000000, 4.000000
73.000000, 0.000000, 4150.769043, 4130.256348, 4179.487305, 4189.743652, 4207.692383, 4190.256348, 4178.461426, 4178.461426, 4185.641113, 4201.538574, 4201.538574, 4217.948730, 4171.281738, 4203.076660, 3526.000000, 8243.000000, 8046.000000, 0.000000, 0.000000, 0.000000, 16187.000000, 877.435852, 4.000000, 4.000000, 4.000000, 4.000000, 4.000000, 4.000000, 4.000000, 4.000000, 4.000000, 4.000000, 4.000000, 4.000000, 4.000000, 4.000000, 4.000000, 4.000000
74.000000, 0.000000, 4151.794922, 4134.358887, 4182.563965, 4194.871582, 4206.666504, 4186.153809, 4178.974121, 4171.794922, 4182.051270, 4200.512695, 4204.102539, 4218.461426, 4172.820313, 4201.025391, 3197.000000, 8243.000000, 8046.000000, 0.000000, 0.000000, 0.000000, 16187.000000, 885.128174, 4.000000, 4.000000, 4.000000, 4.000000, 4.000000, 4.000000, 4.000000, 4.000000, 4.000000, 4.000000, 4.000000, 4.000000, 4.000000, 4.000000, 4.000000, 4.000000
75.000000, 0.000000, 4151.794922, 4136.410156, 4183.076660, 4201.538574, 4214.358887, 4185.641113, 4184.615234, 4172.307617, 4178.461426, 4200.000000, 4202.563965, 4224.615234, 4178.974121, 4203.589844, 2161.000000, 8238.000000, 8060.000000, 0.000000, 0.000000, 0.000000, 16187.000000, 893.333313, 4.000000, 4.000000, 4.000000, 4.000000, 4.000000, 4.000000, 4.000000, 4.000000, 4.000000, 4.000000, 4.000000, 4.000000, 4.000000, 4.000000, 4.000000, 4.000000
76.000000, 0.000000, 4153.846191, 4126.666504, 4183.589844, 4196.410156, 4214.871582, 4193.333008, 4188.205078, 4185.641113, 4183.589844, 4206.153809, 4207.179199, 4224.102539, 4185.641113, 4201.025391, 3480.000000, 8238.000000, 8060.000000, 0.000000, 0.000000, 0.000000, 16187.000000, 901.025635, 4.000000, 4.000000, 4.000000, 4.000000, 4.000000, 4.000000, 4.000000, 4.000000, 4.000000, 4.000000, 4.000000, 4.000000, 4.000000, 4.000000, 4.000000, 4.000000
77.000000, 0.000000, 4149.230469, 4106.666504, 4188.205078, 4188.717773, 4213.846191, 4198.974121, 4194.358887, 4192.307617, 4194.871582, 4212.307617, 4213.846191, 4228.717773, 4190.769043, 4201.025391, 2383.000000, 8256.000000, 8122.000000, 0.000000, 0.000000, 0.000000, 16187.000000, 908.717957, 4.000000, 4.000000, 4.000000, 4.000000, 4.000000, 4.000000, 4.000000, 4.000000, 4.000000, 4.000000, 4.000000, 4.000000, 4.000000, 4.000000, 4.000000, 4.000000
78.000000, 0.000000, 4151.281738, 4113.846191, 4195.897461, 4198.461426, 4219.487305, 4198.974121, 4201.538574, 4187.692383, 4200.512695, 4210.256348, 4209.230469, 4229.230469, 4199.487305, 4201.538574, 3197.000000, 8256.000000, 8122.000000, 0.000000, 0.000000, 0.000000, 16187.000000, 916.923035, 4.000000, 4.000000, 4.000000, 4.000000, 4.000000, 4.000000, 4.000000, 4.000000, 4.000000, 4.000000, 4.000000, 4.000000, 4.000000, 4.000000, 4.000000, 4.000000
79.000000, 0.000000, 4154.358887, 4137.948730, 4194.358887, 4206.153809, 4219.487305, 4198.974121, 4203.076660, 4187.692383, 4191.281738, 4204.102539, 4196.922852, 4224.102539, 4198.974121, 4198.461426, 2161.000000, 8273.000000, 8144.000000, 0.000000, 0.000000, 0.000000, 16187.000000, 925.128174, 4.000000, 4.000000, 4.000000, 4.000000, 4.000000, 4.000000, 4.000000, 4.000000, 4.000000, 4.000000, 4.000000, 4.000000, 4.000000, 4.000000, 4.000000, 4.000000
80.000000, 0.000000, 4154.358887, 4134.358887, 4185.641113, 4198.974121, 4212.820313, 4194.358887, 4196.410156, 4183.589844, 4178.974121, 4197.436035, 4185.641113, 4216.922852, 4186.666504, 4195.897461, 3480.000000, 8273.000000, 8144.000000, 0.000000, 0.000000, 0.000000, 16187.000000, 932.820496, 4.000000, 4.000000, 4.000000, 4.000000, 4.000000, 4.000000, 4.000000, 4.000000, 4.000000, 4.000000, 4.000000, 4.000000, 4.000000, 4.000000, 4.000000, 4.000000
81.000000, 0.000000, 4152.820313, 4118.461426, 4181.538574, 4196.410156, 4211.281738, 4178.974121, 4185.641113, 4173.333008, 4173.846191, 4195.897461, 4181.025391, 4207.692383, 4186.666504, 4192.820313, 2383.000000, 8280.000000, 8136.000000, 0.000000, 0.000000, 0.000000, 16187.000000, 940.512817, 4.000000, 4.000000, 4.000000, 4.000000, 4.000000, 4.000000, 4.000000, 4.000000, 4.000000, 4.000000, 4.000000, 4.000000, 4.000000, 4.000000, 4.000000, 4.000000
82.000000, 0.000000, 4150.769043, 4129.230469, 4181.538574, 4198.461426, 4206.153809, 4167.692383, 4168.717773, 4167.179199, 4167.692383, 4195.384277, 4188.205078, 4213.846191, 4201.538574, 4201.538574, 3197.000000, 8280.000000, 8136.000000, 0.000000, 0.000000, 0.000000, 16187.000000, 948.205078, 4.000000, 4.000000, 4.000000, 4.000000, 4.000000, 4.000000, 4.000000, 4.000000, 4.000000, 4.000000, 4.000000, 4.000000, 4.000000, 4.000000, 4.000000, 4.000000
83.000000, 0.000000, 4156.410156, 4140.512695, 4182.051270, 4195.897461, 4199.487305, 4175.384277, 4162.051270, 4167.179199, 4166.153809, 4190.769043, 4196.922852, 4217.436035, 4211.281738, 4205.641113, 2161.000000, 8293.000000, 8126.000000, 0.000000, 0.000000, 0.000000, 16187.000000, 956.410217, 4.000000, 4.000000, 4.000000, 4.000000, 4.000000, 4.000000, 4.000000, 4.000000, 4.000000, 4.000000, 4.000000, 4.000000, 4.000000, 4.000000, 4.000000, 4.000000
84.000000, 0.000000, 4154.871582, 4137.436035, 4182.563965, 4196.410156, 4204.615234, 4178.974121, 4171.281738, 4170.256348, 4170.256348, 4191.794922, 4197.436035, 4214.871582, 4213.333008, 4198.974121, 3480.000000, 8293.000000, 8126.000000, 0.000000, 0.000000, 0.000000, 16187.000000, 964.102539, 4.000000, 4.000000, 4.000000, 4.000000, 4.000000, 4.000000, 4.000000, 4.000000, 4.000000, 4.000000, 4.000000, 4.000000, 4.000000, 4.000000, 4.000000, 4.000000
85.000000, 0.000000, 4147.179199, 4137.948730, 4183.076660, 4195.897461, 4216.922852, 4170.769043, 4171.794922, 4171.281738, 4170.256348, 4202.051270, 4197.436035, 4216.410156, 4215.897461, 4202.051270, 2383.000000, 8291.000000, 8123.000000, 0.000000, 0.000000, 0.000000, 16187.000000, 971.794861, 4.000000, 4.000000, 4.000000, 4.000000, 4.000000, 4.000000, 4.000000, 4.000000, 4.000000, 4.000000, 4.000000, 4.000000, 4.000000, 4.000000, 4.000000, 4.000000
86.000000, 0.000000, 4144.102539, 4128.205078, 4178.461426, 4188.205078, 4220.000000, 4175.897461, 4165.127930, 4170.256348, 4176.922852, 4210.769043, 4203.589844, 4212.820313, 4217.948730, 4198.974121, 3197.000000, 8291.000000, 8123.000000, 0.000000, 0.000000, 0.000000, 16187.000000, 979.487183, 4.000000, 4.000000, 4.000000, 4.000000, 4.000000, 4.000000, 4.000000, 4.000000, 4.000000, 4.000000, 4.000000, 4.000000, 4.000000, 4.000000, 4.000000, 4.000000
87.000000, 0.000000, 4139.487305, 4121.538574, 4173.333008, 4182.051270, 4211.281738, 4187.692383, 4172.307617, 4171.794922, 4182.051270, 4207.692383, 4204.615234, 4214.871582, 4217.948730, 4196.410156, 2161.000000, 8275.000000, 8157.000000, 0.000000, 0.000000, 0.000000, 16187.000000, 987.692261, 4.000000, 4.000000, 4.000000, 4.000000, 4.000000, 4.000000, 4.000000, 4.000000, 4.000000, 4.000000, 4.000000, 4.000000, 4.000000, 4.000000, 4.000000, 4.000000
88.000000, 0.000000, 4139.487305, 4140.000000, 4175.384277, 4184.102539, 4209.743652, 4188.717773, 4185.641113, 4173.333008, 4173.846191, 4204.102539, 4200.512695, 4214.871582, 4224.102539, 4200.512695, 3480.000000, 8275.000000, 8157.000000, 0.000000, 0.000000, 0.000000, 16187.000000, 995.384583, 4.000000, 4.000000, 4.000000, 4.000000, 4.000000, 4.000000, 4.000000, 4.000000, 4.000000, 4.000000, 4.000000, 4.000000, 4.000000, 4.000000, 4.000000, 4.000000
89.000000, 0.000000, 4145.127930, 4158.461426, 4178.461426, 4188.717773, 4214.358887, 4187.179199, 4187.179199, 4171.794922, 4173.846191, 4203.589844, 4202.563965, 4212.820313, 4231.794922, 4202.051270, 2383.000000, 8265.000000, 8178.000000, 0.000000, 0.000000, 0.000000, 16188.000000, 3.589744, 4.000000, 4.000000, 4.000000, 4.000000, 4.000000, 4.000000, 4.000000, 4.000000, 4.000000, 4.000000, 4.000000, 4.000000, 4.000000, 4.000000, 4.000000, 4.000000
90.000000, 0.000000, 4148.717773, 4158.974121, 4179.487305, 4186.666504, 4211.281738, 4181.538574, 4183.076660, 4168.717773, 4182.563965, 4194.358887, 4202.051270, 4215.384277, 4231.794922, 4203.589844, 3197.000000, 8265.000000, 8178.000000, 0.000000, 0.000000, 0.000000, 16188.000000, 11.282051, 4.000000, 4.000000, 4.000000, 4.000000, 4.000000, 4.000000, 4.000000, 4.000000, 4.000000, 4.000000, 4.000000, 4.000000, 4.000000, 4.000000, 4.000000, 4.000000
91.000000, 0.000000, 4151.794922, 4168.205078, 4184.615234, 4187.179199, 4206.153809, 4171.281738, 4180.000000, 4167.692383, 4184.615234, 4192.307617, 4197.948730, 4212.820313, 4232.820313, 4203.076660, 2161.000000, 8225.000000, 8219.000000, 0.000000, 0.000000, 0.000000, 16188.000000, 18.974358, 4.000000, 4.000000, 4.000000, 4.000000, 4.000000, 4.000000, 4.000000, 4.000000, 4.000000, 4.000000, 4.000000, 4.000000, 4.000000, 4.000000, 4.000000, 4.000000
92.000000, 0.000000, 4154.358887, 4183.589844, 4189.230469, 4198.461426, 4209.743652, 4170.256348, 4172.307617, 4169.743652, 4193.333008, 4206.153809, 4202.051270, 4221.025391, 4238.461426, 4207.692383, 3480.000000, 8225.000000, 8219.000000, 0.000000, 0.000000, 0.000000, 16188.000000, 26.666666, 4.000000, 4.000000, 4.000000, 4.000000, 4.000000, 4.000000, 4.000000, 4.000000, 4.000000, 4.000000, 4.000000, 4.000000, 4.000000, 4.000000, 4.000000, 4.000000
93.000000, 0.000000, 4157.436035, 4182.051270, 4187.692383, 4203.589844, 4210.256348, 4177.948730, 4168.717773, 4178.461426, 4207.692383, 4212.307617, 4205.641113, 4221.538574, 4241.025391, 4205.641113, 2383.000000, 8206.000000, 8215.000000, 0.000000, 0.000000, 0.000000, 16188.000000, 34.871796, 4.000000, 4.000000, 4.000000, 4.000000, 4.000000, 4.000000, 4.000000, 4.000000, 4.000000, 4.000000, 4.000000, 4.000000, 4.000000, 4.000000, 4.000000, 4.000000
94.000000, 0.000000, 4149.743652, 4170.256348, 4178.974121, 4191.281738, 4194.871582, 4178.461426, 4172.820313, 4183.589844, 4203.589844, 4200.512695, 4194.358887, 4209.743652, 4228.205078, 4193.846191, 3197.000000, 8206.000000, 8215.000000, 0.000000, 0.000000, 0.000000, 16188.000000, 42.564102, 4.000000, 4.000000, 4.000000, 4.000000, 4.000000, 4.000000, 4.000000, 4.000000, 4.000000, 4.000000, 4.000000, 4.000000, 4.000000, 4.000000, 4.000000, 4.000000
95.000000, 0.000000, 4134.358887, 4156.922852, 4169.743652, 4175.384277, 4190.256348, 4176.922852, 4168.717773, 4188.205078, 4197.948730, 4198.974121, 4181.025391, 4208.205078, 4214.358887, 4191.794922, 2161.000000, 8187.000000, 8203.000000, 0.000000, 0.000000, 0.000000, 16188.000000, 50.256409, 4.000000, 4.000000, 4.000000, 4.000000, 4.000000, 4.000000, 4.000000, 4.000000, 4.000000, 4.000000, 4.000000, 4.000000, 4.000000, 4.000000, 4.000000, 4.000000
96.000000, 0.000000, 4136.410156, 4162.563965, 4167.692383, 4176.922852, 4202.051270, 4185.641113, 4167.692383, 4198.461426, 4209.743652, 4202.051270, 4185.641113, 4209.230469, 4225.127930, 4193.846191, 3480.000000, 8187.000000, 8203.000000, 0.000000, 0.000000, 0.000000, 16188.000000, 57.948715, 4.000000, 4.000000, 4.000000, 4.000000, 4.000000, 4.000000, 4.000000, 4.000000, 4.000000, 4.000000, 4.000000, 4.000000, 4.000000, 4.000000, 4.000000, 4.000000
97.000000, 0.000000, 4143.589844, 4169.743652, 4172.820313, 4183.589844, 4205.641113, 4185.641113, 4180.000000, 4195.897461, 4209.230469, 4186.666504, 4188.717773, 4212.307617, 4224.615234, 4197.436035, 2383.000000, 8147.000000, 8139.000000, 0.000000, 0.000000, 0.000000, 16188.000000, 66.153847, 4.000000, 4.000000, 4.000000, 4.000000, 4.000000, 4.000000, 4.000000, 4.000000, 4.000000, 4.000000, 4.000000, 4.000000, 4.000000, 4.000000, 4.000000, 4.000000
98.000000, 0.000000, 4137.948730, 4156.410156, 4177.436035, 4181.025391, 4200.512695, 4174.871582, 4183.076660, 4187.179199, 4196.410156, 4180.000000, 4174.871582, 4205.127930, 4199.487305, 4194.358887, 3197.000000, 8147.000000, 8139.000000, 0.000000, 0.000000, 0.000000, 16188.000000, 73.846153, 4.000000, 4.000000, 4.000000, 4.000000, 4.000000, 4.000000, 4.000000, 4.000000, 4.000000, 4.000000, 4.000000, 4.000000, 4.000000, 4.000000, 4.000000, 4.000000
99.000000, 0.000000, 4133.846191, 4158.461426, 4177.436035, 4180.512695, 4201.025391, 4175.384277, 4172.820313, 4183.076660, 4192.820313, 4193.846191, 4174.871582, 4203.589844, 4207.692383, 4193.846191, 2161.000000, 8127.000000, 8097.000000, 0.000000, 0.000000, 0.000000, 16188.000000, 82.051277, 4.000000, 4.000000, 4.000000, 4.000000, 4.000000, 4.000000, 4.000000, 4.000000, 4.000000, 4.000000, 4.000000, 4.000000, 4.000000, 4.000000, 4.000000, 4.000000
100.000000, 0.000000, 4145.127930, 4175.384277, 4177.948730, 4187.179199, 4205.127930, 4186.153809, 4171.794922, 4175.384277, 4190.769043, 4202.563965, 4195.384277, 4215.384277, 4238.974121, 4208.205078, 3480.000000, 8127.000000, 8097.000000, 0.000000, 0.000000, 0.000000, 16188.000000, 89.743591, 4.000000, 4.000000, 4.000000, 4.000000, 4.000000, 4.000000, 4.000000, 4.000000, 4.000000, 4.000000, 4.000000, 4.000000, 4.000000, 4.000000, 4.000000, 4.000000
101.000000, 0.000000, 4149.743652, 4171.281738, 4176.410156, 4183.589844, 4203.076660, 4187.692383, 4175.384277, 4167.692383, 4185.127930, 4198.461426, 4202.563965, 4208.717773, 4235.384277, 4202.051270, 2383.000000, 8106.000000, 8016.000000, 0.000000, 0.000000, 0.000000, 16188.000000, 97.435898, 4.000000, 4.000000, 4.000000, 4.000000, 4.000000, 4.000000, 4.000000, 4.000000, 4.000000, 4.000000, 4.000000, 4.000000, 4.000000, 4.000000, 4.000000, 4.000000
102.000000, 0.000000, 4140.000000, 4153.846191, 4172.307617, 4169.743652, 4202.051270, 4181.538574, 4171.281738, 4165.127930, 4184.615234, 4195.897461, 4195.384277, 4204.615234, 4222.563965, 4191.281738, 3197.000000, 8106.000000, 8016.000000, 0.000000, 0.000000, 0.000000, 16188.000000, 105.641022, 4.000000, 4.000000, 4.000000, 4.000000, 4.000000, 4.000000, 4.000000, 4.000000, 4.000000, 4.000000, 4.000000, 4.000000, 4.000000, 4.000000, 4.000000, 4.000000
103.000000, 0.000000, 4144.102539, 4154.358887, 4177.436035, 4168.205078, 4202.563965, 4184.102539, 4166.153809, 4157.948730, 4186.666504, 4200.512695, 4195.384277, 4212.307617, 4234.871582, 4200.000000, 2161.000000, 8110.000000, 7983.000000, 0.000000, 0.000000, 0.000000, 16188.000000, 113.333328, 4.000000, 4.000000, 4.000000, 4.000000, 4.000000, 4.000000, 4.000000, 4.000000, 4.000000, 4.000000, 4.000000, 4.000000, 4.000000, 4.000000, 4.000000, 4.000000
104.000000, 0.000000, 4150.769043, 4164.102539, 4182.051270, 4172.820313, 4203.076660, 4183.076660, 4167.692383, 4152.307617, 4184.615234, 4200.512695, 4195.897461, 4213.333008, 4233.846191, 4200.512695, 3480.000000, 8110.000000, 7983.000000, 0.000000, 0.000000, 0.000000, 16188.000000, 121.025635, 4.000000, 4.000000, 4.000000, 4.000000, 4.000000, 4.000000, 4.000000, 4.000000, 4.000000, 4.000000, 4.000000, 4.000000, 4.000000, 4.000000, 4.000000, 4.000000
105.000000, 0.000000, 4144.615234, 4163.076660, 4182.563965, 4170.256348, 4201.538574, 4176.410156, 4168.717773, 4157.436035, 4181.025391, 4194.358887, 4186.666504, 4212.307617, 4221.025391, 4198.974121, 2383.000000, 8120.000000, 7948.000000, 0.000000, 0.000000, 0.000000, 16188.000000, 129.230759, 4.000000, 4.000000, 4.000000, 4.000000, 4.000000, 4.000000, 4.000000, 4.000000, 4.000000, 4.000000, 4.000000, 4.000000, 4.000000, 4.000000, 4.000000, 4.000000
106.000000, 0.000000, 4143.076660, 4158.974121, 4186.666504, 4171.281738, 4195.897461, 4178.461426, 4165.641113, 4164.615234, 4184.102539, 4196.410156, 4187.179199, 4211.281738, 4223.076660, 4197.436035, 3197.000000, 8120.000000, 7948.000000, 0.000000, 0.000000, 0.000000, 16188.000000, 136.923080, 4.000000, 4.000000, 4.000000, 4.000000, 4.000000, 4.000000, 4.000000, 4.000000, 4.000000, 4.000000, 4.000000, 4.000000, 4.000000, 4.000000, 4.000000, 4.000000
107.000000, 0.000000, 4149.230469, 4159.487305, 4192.307617, 4175.897461, 4195.897461, 4181.538574, 4172.307617, 4179.487305, 4196.922852, 4210.256348, 4195.897461, 4222.563965, 4228.717773, 4201.025391, 2161.000000, 8158.000000, 7890.000000, 0.000000, 0.000000, 0.000000, 16188.000000, 145.128204, 4.000000, 4.000000, 4.000000, 4.000000, 4.000000, 4.000000, 4.000000, 4.000000, 4.000000, 4.000000, 4.000000, 4.000000, 4.000000, 4.000000, 4.000000, 4.000000
108.000000, 0.000000, 4154.871582, 4159.487305, 4194.358887, 4173.333008, 4200.000000, 4178.974121, 4181.538574, 4198.461426, 4209.743652, 4220.000000, 4203.589844, 4230.256348, 4233.333008, 4206.153809, 3480.000000, 8158.000000, 7890.000000, 0.000000, 0.000000, 0.000000, 16188.000000, 152.820511, 4.000000, 4.000000, 4.000000, 4.000000, 4.000000, 4.000000, 4.000000, 4.000000, 4.000000, 4.000000, 4.000000, 4.000000, 4.000000, 4.000000, 4.000000, 4.000000
109.000000, 0.000000, 4153.846191, 4154.871582, 4193.846191, 4170.256348, 4195.384277, 4168.717773, 4174.358887, 4204.615234, 4208.205078, 4222.563965, 4204.102539, 4222.563965, 4237.948730, 4200.000000, 2383.000000, 8185.000000, 7893.000000, 0.000000, 0.000000, 0.000000, 16188.000000, 160.512817, 4.000000, 4.000000, 4.000000, 4.000000, 4.000000, 4.000000, 4.000000, 4.000000, 4.000000, 4.000000, 4.000000, 4.000000, 4.000000, 4.000000, 4.000000, 4.000000
110.000000, 0.000000, 4147.692383, 4147.179199, 4192.307617, 4170.256348, 4182.051270, 4156.410156, 4170.256348, 4193.333008, 4190.256348, 4218.461426, 4194.871582, 4220.512695, 4231.281738, 4200.000000, 3197.000000, 8185.000000, 7893.000000, 0.000000, 0.000000, 0.000000, 16188.000000, 168.717941, 4.000000, 4.000000, 4.000000, 4.000000, 4.000000, 4.000000, 4.000000, 4.000000, 4.000000, 4.000000, 4.000000, 4.000000, 4.000000, 4.000000, 4.000000, 4.000000
111.000000, 0.000000, 4143.589844, 4142.051270, 4190.769043, 4168.717773, 4184.615234, 4155.897461, 4182.563965, 4181.025391, 4176.410156, 4209.230469, 4182.051270, 4215.897461, 4216.922852, 4198.461426, 2161.000000, 8244.000000, 7912.000000, 0.000000, 0.000000, 0.000000, 16188.000000, 176.410248, 4.000000, 4.000000, 4.000000, 4.000000, 4.000000, 4.000000, 4.000000, 4.000000, 4.000000, 4.000000, 4.000000, 4.000000, 4.000000, 4.000000, 4.000000, 4.000000
112.000000, 0.000000, 4137.948730, 4138.461426, 4191.794922, 4169.743652, 4187.692383, 4170.256348, 4184.102539, 4190.769043, 4181.538574, 4204.615234, 4174.871582, 4215.897461, 4210.256348, 4195.897461, 3480.000000, 8244.000000, 7912.000000, 0.000000, 0.000000, 0.000000, 16188.000000, 184.102554, 4.000000, 4.000000, 4.000000, 4.000000, 4.000000, 4.000000, 4.000000, 4.000000, 4.000000, 4.000000, 4.000000, 4.000000, 4.000000, 4.000000, 4.000000, 4.000000
113.000000, 0.000000, 4128.205078, 4131.281738, 4187.692383, 4165.641113, 4171.281738, 4180.000000, 4173.333008, 4202.051270, 4188.205078, 4194.358887, 4163.589844, 4214.358887, 4200.512695, 4194.358887, 2383.000000, 8277.000000, 7912.000000, 0.000000, 0.000000, 0.000000, 16188.000000, 191.794861, 4.000000, 4.000000, 4.000000, 4.000000, 4.000000, 4.000000, 4.000000, 4.000000, 4.000000, 4.000000, 4.000000, 4.000000, 4.000000, 4.000000, 4.000000, 4.000000
114.000000, 0.000000, 4123.589844, 4124.102539, 4176.410156, 4161.025391, 4173.846191, 4181.025391, 4171.281738, 4189.743652, 4185.641113, 4189.230469, 4144.615234, 4205.641113, 4189.743652, 4187.179199, 3197.000000, 8277.000000, 7912.000000, 0.000000, 0.000000, 0.000000, 16188.000000, 200.000000, 4.000000, 4.000000, 4.000000, 4.000000, 4.000000, 4.000000, 4.000000, 4.000000, 4.000000, 4.000000, 4.000000, 4.000000, 4.000000, 4.000000, 4.000000, 4.000000
115.000000, 0.000000, 4124.615234, 4123.076660, 4174.871582, 4163.589844, 4195.384277, 4187.179199, 4174.358887, 4179.487305, 4183.076660, 4201.538574, 4138.461426, 4208.205078, 4195.384277, 4192.307617, 2161.000000, 8346.000000, 7867.000000, 0.000000, 0.000000, 0.000000, 16188.000000, 208.205124, 4.000000, 4.000000, 4.000000, 4.000000, 4.000000, 4.000000, 4.000000, 4.000000, 4.000000, 4.000000, 4.000000, 4.000000, 4.000000, 4.000000, 4.000000, 4.000000
116.000000, 0.000000, 4123.076660, 4127.179199, 4180.512695, 4163.589844, 4197.436035, 4189.230469, 4171.794922, 4185.127930, 4180.512695, 4210.256348, 4142.563965, 4200.000000, 4202.051270, 4196.922852, 3480.000000, 8346.000000, 7867.000000, 0.000000, 0.000000, 0.000000, 16188.000000, 215.897430, 4.000000, 4.000000, 4.000000, 4.000000, 4.000000, 4.000000, 4.000000, 4.000000, 4.000000, 4.000000, 4.000000, 4.000000, 4.000000, 4.000000, 4.000000, 4.000000
117.000000, 0.000000, 4118.461426, 4125.127930, 4176.922852, 4155.384277, 4183.589844, 4180.000000, 4168.205078, 4183.589844, 4175.897461, 4203.589844, 4140.512695, 4187.179199, 4198.461426, 4192.307617, 2383.000000, 8371.000000, 7847.000000, 0.000000, 0.000000, 0.000000, 16188.000000, 223.589737, 4.000000, 4.000000, 4.000000, 4.000000, 4.000000, 4.000000, 4.000000, 4.000000, 4.000000, 4.000000, 4.000000, 4.000000, 4.000000, 4.000000, 4.000000, 4.000000
118.000000, 0.000000, 4114.871582, 4121.538574, 4171.794922, 4150.769043, 4182.563965, 4168.717773, 4165.641113, 4168.717773, 4166.153809, 4196.922852, 4135.897461, 4185.127930, 4198.974121, 4192.820313, 3197.000000, 8371.000000, 7847.000000, 0.000000, 0.000000, 0.000000, 16188.000000, 231.794861, 4.000000, 4.000000, 4.000000, 4.000000, 4.000000, 4.000000, 4.000000, 4.000000, 4.000000, 4.000000, 4.000000, 4.000000, 4.000000, 4.000000, 4.000000, 4.000000
119.000000, 0.000000, 4114.871582, 4126.666504, 4172.307617, 4153.846191, 4185.641113, 4165.641113, 4168.205078, 4164.615234, 4155.384277, 4197.436035, 4137.948730, 4186.666504, 4202.051270, 4190.769043, 2161.000000, 8393.000000, 7832.000000, 0.000000, 0.000000, 0.000000, 16188.000000, 239.487167, 4.000000, 4.000000, 4.000000, 4.000000, 4.000000, 4.000000, 4.000000, 4.000000, 4.000000, 4.000000, 4.000000, 4.000000, 4.000000, 4.000000, 4.000000, 4.000000
120.000000, 0.000000, 4118.461426, 4128.717773, 4175.384277, 4153.333008, 4176.922852, 4176.410156, 4172.820313, 4171.281738, 4151.794922, 4194.871582, 4142.051270, 4196.922852, 4200.512695, 4195.897461, 3480.000000, 8393.000000, 7832.000000, 0.000000, 0.000000, 0.000000, 16188.000000, 247.179474, 4.000000, 4.000000, 4.000000, 4.000000, 4.000000, 4.000000, 4.000000, 4.000000, 4.000000, 4.000000, 4.000000, 4.000000, 4.000000, 4.000000, 4.000000, 4.000000
121.000000, 0.000000, 4127.179199, 4134.871582, 4178.461426, 4156.410156, 4176.410156, 4186.153809, 4171.794922, 4165.641113, 4150.256348, 4190.256348, 4142.563965, 4196.410156, 4200.512695, 4198.461426, 2383.000000, 8409.000000, 7882.000000, 0.000000, 0.000000, 0.000000, 16188.000000, 254.871796, 4.000000, 4.000000, 4.000000, 4.000000, 4.000000, 4.000000, 4.000000, 4.000000, 4.000000, 4.000000, 4.000000, 4.000000, 4.000000, 4.000000, 4.000000, 4.000000
122.000000, 0.000000, 4133.333008, 4139.487305, 4182.051270, 4164.102539, 4184.615234, 4189.230469, 4176.410156, 4155.897461, 4148.717773, 4185.127930, 4140.512695, 4193.333008, 4202.051270, 4195.897461, 3197.000000, 8409.000000, 7882.000000, 0.000000, 0.000000, 0.000000, 16188.000000, 263.076904, 4.000000, 4.000000, 4.000000, 4.000000, 4.000000, 4.000000, 4.000000, 4.000000, 4.000000, 4.000000, 4.000000, 4.000000, 4.000000, 4.000000, 4.000000, 4.000000
123.000000, 0.000000, 4133.333008, 4121.538574, 4186.153809, 4161.538574, 4182.563965, 4188.205078, 4187.179199, 4161.025391, 4151.281738, 4184.615234, 4137.436035, 4199.487305, 4198.974121, 4200.000000, 2161.000000, 8409.000000, 7928.000000, 0.000000, 0.000000, 0.000000, 16188.000000, 271.282043, 4.000000, 4.000000, 4.000000, 4.000000, 4.000000, 4.000000, 4.000000, 4.000000, 4.000000, 4.000000, 4.000000, 4.000000, 4.000000, 4.000000, 4.000000, 4.000000
124.000000, 0.000000, 4132.307617, 4108.717773, 4184.102539, 4152.307617, 4171.794922, 4186.153809, 4186.666504, 4175.384277, 4162.563965, 4192.820313, 4137.948730, 4190.256348, 4192.820313, 4196.922852, 3480.000000, 8409.000000, 7928.000000, 0.000000, 0.000000, 0.000000, 16188.000000, 278.974365, 4.000000, 4.000000, 4.000000, 4.000000, 4.000000, 4.000000, 4.000000, 4.000000, 4.000000, 4.000000, 4.000000, 4.000000, 4.000000, 4.000000, 4.000000, 4.000000
125.000000, 0.000000, 4138.461426, 4128.205078, 4180.512695, 4152.307617, 4171.794922, 4186.153809, 4182.563965, 4184.102539, 4175.897461, 4198.461426, 4139.487305, 4183.076660, 4188.717773, 4199.487305, 2383.000000, 8403.000000, 7997.000000, 0.000000, 0.000000, 0.000000, 16188.000000, 286.666656, 4.000000, 4.000000, 4.000000, 4.000000, 4.000000, 4.000000, 4.000000, 4.000000, 4.000000, 4.000000, 4.000000, 4.000000, 4.000000, 4.000000, 4.000000, 4.000000
126.000000, 0.000000, 4147.692383, 4147.692383, 4180.512695, 4156.922852, 4175.384277, 4183.589844, 4184.102539, 4187.179199, 4176.410156, 4195.897461, 4136.922852, 4182.051270, 4188.717773, 4201.538574, 3197.000000, 8403.000000, 7997.000000, 0.000000, 0.000000, 0.000000, 16188.000000, 294.358978, 4.000000, 4.000000, 4.000000, 4.000000, 4.000000, 4.000000, 4.000000, 4.000000, 4.000000, 4.000000, 4.000000, 4.000000, 4.000000, 4.000000, 4.000000, 4.000000
127.000000, 0.000000, 4151.794922, 4151.794922, 4178.461426, 4156.922852, 4167.692383, 4175.897461, 4176.922852, 4181.538574, 4163.076660, 4182.051270, 4131.281738, 4182.051270, 4186.666504, 4196.922852, 55.000000, 8406.000000, 8026.000000, 0.000000, 0.000000, 0.000000, 16188.000000, 302.564087, 4.000000, 4.000000, 4.000000, 4.000000, 4.000000, 4.000000, 4.000000, 4.000000, 4.000000, 4.000000, 4.000000, 4.000000, 4.000000, 4.000000, 4.000000, 4.000000
0.000000, 0.000000, 4163.589844, 4167.692383, 4179.487305, 4164.102539, 4168.717773, 4164.615234, 4160.000000, 4165.127930, 4143.076660, 4156.922852, 4121.538574, 4182.051270, 4178.461426, 4203.076660, 3306.000000, 8406.000000, 8026.000000, 0.000000, 0.000000, 0.000000, 16188.000000, 310.256409, 4.000000, 4.000000, 4.000000, 4.000000, 4.000000, 4.000000, 4.000000, 4.000000, 4.000000, 4.000000, 4.000000, 4.000000, 4.000000, 4.000000, 4.000000, 4.000000
1.000000, 0.000000, 4182.051270, 4194.358887, 4181.025391, 4176.410156, 4169.743652, 4153.333008, 4149.743652, 4151.794922, 4125.641113, 4143.076660, 4114.358887, 4171.794922, 4169.230469, 4204.615234, 3530.000000, 8403.000000, 8071.000000, 0.000000, 0.000000, 0.000000, 16188.000000, 317.948700, 4.000000, 4.000000, 4.000000, 4.000000, 4.000000, 4.000000, 4.000000, 4.000000, 4.000000, 4.000000, 4.000000, 4.000000, 4.000000, 4.000000, 4.000000, 4.000000
2.000000, 0.000000, 4193.846191, 4212.820313, 4184.615234, 4183.076660, 4158.461426, 4154.358887, 4151.281738, 4150.256348, 4123.589844, 4154.871582, 4115.384277, 4171.281738, 4167.692383, 4204.615234, 2813.000000, 8403.000000, 8071.000000, 0.000000, 0.000000, 0.000000, 16188.000000, 326.153839, 4.000000, 4.000000, 4.000000, 4.000000, 4.000000, 4.000000, 4.000000, 4.000000, 4.000000, 4.000000, 4.000000, 4.000000, 4.000000, 4.000000, 4.000000, 4.000000
3.000000, 0.000000, 4206.666504, 4236.410156, 4191.794922, 4195.384277, 4163.589844, 4168.717773, 4153.333008, 4152.820313, 4138.974121, 4170.769043, 4122.563965, 4172.820313, 4174.871582, 4205.641113, 3551.000000, 8404.000000, 8148.000000, 0.000000, 0.000000, 0.000000, 16188.000000, 333.846161, 4.000000, 4.000000, 4.000000, 4.000000, 4.000000, 4.000000, 4.000000, 4.000000, 4.000000, 4.000000, 4.000000, 4.000000, 4.000000, 4.000000, 4.000000, 4.000000
4.000000, 0.000000, 4221.025391, 4257.436035, 4186.666504, 4204.615234, 4183.076660, 4168.717773, 4148.205078, 4149.230469, 4144.615234, 4170.769043, 4123.589844, 4168.717773, 4173.846191, 4201.025391, 3524.000000, 8404.000000, 8148.000000, 0.000000, 0.000000, 0.000000, 16188.000000, 342.051270, 4.000000, 4.000000, 4.000000, 4.000000, 4.000000, 4.000000, 4.000000, 4.000000, 4.000000, 4.000000, 4.000000, 4.000000, 4.000000, 4.000000, 4.000000, 4.000000
5.000000, 0.000000, 4226.153809, 4267.179199, 4180.000000, 4203.589844, 4185.127930, 4160.512695, 4157.436035, 4144.615234, 4138.461426, 4170.769043, 4114.871582, 4167.179199, 4163.589844, 4203.076660, 3543.000000, 8398.000000, 8177.000000, 0.000000, 0.000000, 0.000000, 16188.000000, 349.743591, 4.000000, 4.000000, 4.000000, 4.000000, 4.000000, 4.000000, 4.000000, 4.000000, 4.000000, 4.000000, 4.000000, 4.000000, 4.000000, 4.000000, 4.000000, 4.000000
6.000000, 0.000000, 4227.692383, 4276.922852, 4182.563965, 4208.205078, 4180.512695, 4167.692383, 4171.794922, 4142.051270, 4141.538574, 4171.794922, 4109.743652, 4166.666504, 4159.487305, 4201.025391, 3450.000000, 8398.000000, 8177.000000, 0.000000, 0.000000, 0.000000, 16188.000000, 357.948700, 4.000000, 4.000000, 4.000000, 4.000000, 4.000000, 4.000000, 4.000000, 4.000000, 4.000000, 4.000000, 4.000000, 4.000000, 4.000000, 4.000000, 4.000000, 4.000000
7.000000, 0.000000, 4234.358887, 4285.641113, 4185.127930, 4217.436035, 4186.666504, 4167.692383, 4155.897461, 4132.820313, 4135.384277, 4157.436035, 4106.153809, 4174.871582, 4156.410156, 4199.487305, 3205.000000, 8398.000000, 8238.000000, 0.000000, 0.000000, 0.000000, 16188.000000, 366.153839, 4.000000, 4.000000, 4.000000, 4.000000, 4.000000, 4.000000, 4.000000, 4.000000, 4.000000, 4.000000, 4.000000, 4.000000, 4.000000, 4.000000, 4.000000, 4.000000
8.000000, 0.000000, 4242.563965, 4291.281738, 4187.692383, 4218.461426, 4186.153809, 4151.281738, 4131.281738, 4125.641113, 4118.974121, 4143.589844, 4096.410156, 4172.307617, 4151.281738, 4197.436035, 3538.000000, 8398.000000, 8238.000000, 0.000000, 0.000000, 0.000000, 16188.000000, 373.846130, 4.000000, 4.000000, 4.000000, 4.000000, 4.000000, 4.000000, 4.000000, 4.000000, 4.000000, 4.000000, 4.000000, 4.000000, 4.000000, 4.000000, 4.000000, 4.000000
9.000000, 0.000000, 4253.333008, 4294.871582, 4189.743652, 4220.000000, 4171.794922, 4149.743652, 4132.307617, 4131.281738, 4116.922852, 4145.641113, 4088.717773, 4163.589844, 4150.256348, 4193.846191, 3525.000000, 8398.000000, 8262.000000, 0.000000, 0.000000, 0.000000, 16188.000000, 382.051270, 4.000000, 4.000000, 4.000000, 4.000000, 4.000000, 4.000000, 4.000000, 4.000000, 4.000000, 4.000000, 4.000000, 4.000000, 4.000000, 4.000000, 4.000000, 4.000000
10.000000, 0.000000, 4257.436035, 4289.230469, 4184.615234, 4222.563965, 4168.205078, 4163.076660, 4134.871582, 4140.000000, 4124.615234, 4141.025391, 4089.230713, 4166.153809, 4151.794922, 4198.974121, 3199.000000, 8398.000000, 8262.000000, 0.000000, 0.000000, 0.000000, 16188.000000, 389.743591, 4.000000, 4.000000, 4.000000, 4.000000, 4.000000, 4.000000, 4.000000, 4.000000, 4.000000, 4.000000, 4.000000, 4.000000, 4.000000, 4.000000, 4.000000, 4.000000
11.000000, 0.000000, 4242.563965, 4275.897461, 4165.127930, 4212.307617, 4182.563965, 4166.153809, 4127.692383, 4135.384277, 4116.922852, 4124.615234, 4092.307617, 4154.358887, 4146.666504, 4191.794922, 2161.000000, 8407.000000, 8289.000000, 0.000000, 0.000000, 0.000000, 16188.000000, 397.948700, 4.000000, 4.000000, 4.000000, 4.000000, 4.000000, 4.000000, 4.000000, 4.000000, 4.000000, 4.000000, 4.000000, 4.000000, 4.000000, 4.000000, 4.000000, 4.000000
12.000000, 0.000000, 4229.230469, 4262.563965, 4151.281738, 4197.948730, 4190.256348, 4171.794922, 4144.615234, 4133.333008, 4108.717773, 4121.538574, 4088.205078, 4147.179199, 4136.410156, 4183.076660, 3481.000000, 8407.000000, 8289.000000, 0.000000, 0.000000, 0.000000, 16188.000000, 405.641022, 4.000000, 4.000000, 4.000000, 4.000000, 4.000000, 4.000000, 4.000000, 4.000000, 4.000000, 4.000000, 4.000000, 4.000000, 4.000000, 4.000000, 4.000000, 4.000000
13.000000, 0.000000, 4232.820313, 4249.230469, 4160.512695, 4194.358887, 4184.102539, 4181.538574, 4168.205078, 4153.333008, 4133.333008, 4138.974121, 4086.153809, 4155.897461, 4140.512695, 4187.692383, 2387.000000, 8418.000000, 8298.000000, 0.000000, 0.000000, 0.000000, 16188.000000, 413.333313, 4.000000, 4.000000, 4.000000, 4.000000, 4.000000, 4.000000, 4.000000, 4.000000, 4.000000, 4.000000, 4.000000, 4.000000, 4.000000, 4.000000, 4.000000, 4.000000
14.000000, 0.000000, 4243.076660, 4243.589844, 4178.974121, 4203.076660, 4184.102539, 4178.461426, 4171.281738, 4178.461426, 4171.281738, 4165.127930, 4100.512695, 4169.230469, 4160.000000, 4191.281738, 3199.000000, 8418.000000, 8298.000000, 0.000000, 0.000000, 0.000000, 16188.000000, 421.538452, 4.000000, 4.000000, 4.000000, 4.000000, 4.000000, 4.000000, 4.000000, 4.000000, 4.000000, 4.000000, 4.000000, 4.000000, 4.000000, 4.000000, 4.000000, 4.000000
15.000000, 0.000000, 4255.897461, 4248.717773, 4192.307617, 4208.717773, 4189.743652, 4172.820313, 4168.205078, 4175.384277, 4172.820313, 4180.512695, 4115.897461, 4186.666504, 4176.410156, 4198.974121, 2161.000000, 8429.000000, 8300.000000, 0.000000, 0.000000, 0.000000, 16188.000000, 429.230774, 4.000000, 4.000000, 4.000000, 4.000000, 4.000000, 4.000000, 4.000000, 4.000000, 4.000000, 4.000000, 4.000000, 4.000000, 4.000000, 4.000000, 4.000000, 4.000000
16.000000, 0.000000, 4263.076660, 4245.641113, 4189.230469, 4204.102539, 4185.641113, 4170.256348, 4158.461426, 4148.717773, 4148.717773, 4178.974121, 4115.384277, 4180.512695, 4177.436035, 4195.897461, 0.000000, 8429.000000, 8300.000000, 0.000000, 0.000000, 0.000000, 16188.000000, 436.923065, 4.000000, 4.000000, 4.000000, 4.000000, 4.000000, 4.000000, 4.000000, 4.000000, 4.000000, 4.000000, 4.000000, 4.000000, 4.000000, 4.000000, 4.000000, 4.000000
17.000000, 0.000000, 4263.076660, 4233.846191, 4176.410156, 4197.948730, 4189.230469, 4166.666504, 4142.051270, 4141.025391, 4142.051270, 4170.256348, 4111.281738, 4168.717773, 4172.820313, 4188.717773, 0.000000, 8447.000000, 8292.000000, 0.000000, 0.000000, 0.000000, 16188.000000, 445.128204, 4.000000, 4.000000, 4.000000, 4.000000, 4.000000, 4.000000, 4.000000, 4.000000, 4.000000, 4.000000, 4.000000, 4.000000, 4.000000, 4.000000, 4.000000, 4.000000
18.000000, 0.000000, 4255.897461, 4227.179199, 4165.641113, 4193.333008, 4198.974121, 4168.205078, 4136.922852, 4152.307617, 4151.794922, 4168.717773, 4111.281738, 4168.717773, 4171.794922, 4186.666504, 0.000000, 8447.000000, 8292.000000, 0.000000, 0.000000, 0.000000, 16188.000000, 452.820496, 4.000000, 4.000000, 4.000000, 4.000000, 4.000000, 4.000000, 4.000000, 4.000000, 4.000000, 4.000000, 4.000000, 4.000000, 4.000000, 4.000000, 4.000000, 4.000000
19.000000, 0.000000, 4245.641113, 4221.025391, 4160.000000, 4188.717773, 4186.153809, 4176.922852, 4146.666504, 4156.410156, 4157.436035, 4173.846191, 4109.230469, 4166.666504, 4171.794922, 4187.179199, 0.000000, 8454.000000, 8281.000000, 0.000000, 0.000000, 0.000000, 16188.000000, 461.025635, 4.000000, 4.000000, 4.000000, 4.000000, 4.000000, 4.000000, 4.000000, 4.000000, 4.000000, 4.000000, 4.000000, 4.000000, 4.000000, 4.000000, 4.000000, 4.000000
20.000000, 0.000000, 4242.051270, 4209.230469, 4157.436035, 4181.025391, 4172.820313, 4175.384277, 4164.615234, 4159.487305, 4152.307617, 4170.256348, 4105.641113, 4167.179199, 4169.230469, 4193.846191, 0.000000, 8454.000000, 8281.000000, 0.000000, 0.000000, 0.000000, 16188.000000, 468.717926, 4.000000, 4.000000, 4.000000, 4.000000, 4.000000, 4.000000, 4.000000, 4.000000, 4.000000, 4.000000, 4.000000, 4.000000, 4.000000, 4.000000, 4.000000, 4.000000
21.000000, 0.000000, 4246.666504, 4200.512695, 4160.512695, 4176.922852, 4183.589844, 4173.846191, 4188.205078, 4171.281738, 4152.820313, 4165.127930, 4107.179199, 4169.743652, 4171.281738, 4191.281738, 0.000000, 8473.000000, 8285.000000, 0.000000, 0.000000, 0.000000, 16188.000000, 476.410248, 4.000000, 4.000000, 4.000000, 4.000000, 4.000000, 4.000000, 4.000000, 4.000000, 4.000000, 4.000000, 4.000000, 4.000000, 4.000000, 4.000000, 4.000000, 4.000000
22.000000, 0.000000, 4260.512695, 4204.102539, 4178.461426, 4181.538574, 4192.307617, 4183.589844, 4203.589844, 4187.179199, 4169.743652, 4176.410156, 4122.051270, 4189.743652, 4184.102539, 4197.948730, 0.000000, 8473.000000, 8285.000000, 0.000000, 0.000000, 0.000000, 16188.000000, 484.615387, 4.000000, 4.000000, 4.000000, 4.000000, 4.000000, 4.000000, 4.000000, 4.000000, 4.000000, 4.000000, 4.000000, 4.000000, 4.000000, 4.000000, 4.000000, 4.000000
23.000000, 0.000000, 4270.256348, 4209.743652, 4197.948730, 4188.205078, 4177.436035, 4187.692383, 4207.179199, 4197.948730, 4187.692383, 4193.846191, 4136.922852, 4203.589844, 4192.820313, 4209.230469, 0.000000, 8483.000000, 8290.000000, 0.000000, 0.000000, 0.000000, 16188.000000, 492.307678, 4.000000, 4.000000, 4.000000, 4.000000, 4.000000, 4.000000, 4.000000, 4.000000, 4.000000, 4.000000, 4.000000, 4.000000, 4.000000, 4.000000, 4.000000, 4.000000
24.000000, 0.000000, 4268.205078, 4202.051270, 4193.333008, 4188.717773, 4164.102539, 4183.076660, 4199.487305, 4203.076660, 4191.794922, 4200.000000, 4133.333008, 4190.256348, 4184.102539, 4195.384277, 0.000000, 8483.000000, 8290.000000, 0.000000, 0.000000, 0.000000, 16188.000000, 500.000000, 4.000000, 4.000000, 4.000000, 4.000000, 4.000000, 4.000000, 4.000000, 4.000000, 4.000000, 4.000000, 4.000000, 4.000000, 4.000000, 4.000000, 4.000000, 4.000000
25.000000, 0.000000, 4260.000000, 4184.102539, 4180.000000, 4179.487305, 4169.743652, 4180.512695, 4192.820313, 4202.563965, 4183.589844, 4193.846191, 4121.025391, 4186.153809, 4170.769043, 4185.127930, 0.000000, 8488.000000, 8298.000000, 0.000000, 0.000000, 0.000000, 16188.000000, 507.692291, 4.000000, 4.000000, 4.000000, 4.000000, 4.000000, 4.000000, 4.000000, 4.000000, 4.000000, 4.000000, 4.000000, 4.000000, 4.000000, 4.000000, 4.000000, 4.000000
26.000000, 0.000000, 4249.743652, 4174.358887, 4175.384277, 4174.358887, 4172.307617, 4185.641113, 4198.461426, 4199.487305, 4184.615234, 4194.871582, 4119.487305, 4187.692383, 4168.205078, 4187.692383, 0.000000, 8488.000000, 8298.000000, 0.000000, 0.000000, 0.000000, 16188.000000, 515.897400, 4.000000, 4.000000, 4.000000, 4.000000, 4.000000, 4.000000, 4.000000, 4.000000, 4.000000, 4.000000, 4.000000, 4.000000, 4.000000, 4.000000, 4.000000, 4.000000
27.000000, 0.000000, 4246.153809, 4171.794922, 4171.281738, 4175.384277, 4165.127930, 4186.666504, 4192.820313, 4191.281738, 4187.692383, 4198.461426, 4121.025391, 4186.153809, 4168.717773, 4190.769043, 0.000000, 8480.000000, 8293.000000, 0.000000, 0.000000, 0.000000, 16188.000000, 523.589722, 4.000000, 4.000000, 4.000000, 4.000000, 4.000000, 4.000000, 4.000000, 4.000000, 4.000000, 4.000000, 4.000000, 4.000000, 4.000000, 4.000000, 4.000000, 4.000000
28.000000, 0.000000, 4245.127930, 4169.743652, 4167.692383, 4175.384277, 4176.922852, 4184.615234, 4176.410156, 4182.051270, 4176.410156, 4190.256348, 4121.025391, 4189.230469, 4168.205078, 4194.871582, 0.000000, 8480.000000, 8293.000000, 0.000000, 0.000000, 0.000000, 16188.000000, 531.282043, 4.000000, 4.000000, 4.000000, 4.000000, 4.000000, 4.000000, 4.000000, 4.000000, 4.000000, 4.000000, 4.000000, 4.000000, 4.000000, 4.000000, 4.000000, 4.000000
29.000000, 0.000000, 4242.563965, 4168.205078, 4164.102539, 4168.717773, 4202.563965, 4192.820313, 4175.897461, 4177.948730, 4167.179199, 4190.256348, 4124.615234, 4192.820313, 4169.230469, 4191.794922, 0.000000, 8480.000000, 8284.000000, 0.000000, 0.000000, 0.000000, 16188.000000, 539.487183, 4.000000, 4.000000, 4.000000, 4.000000, 4.000000, 4.000000, 4.000000, 4.000000, 4.000000, 4.000000, 4.000000, 4.000000, 4.000000, 4.000000, 4.000000, 4.000000
30.000000, 0.000000, 4239.487305, 4167.179199, 4162.563965, 4166.153809, 4204.102539, 4204.615234, 4184.615234, 4177.436035, 4172.307617, 4200.000000, 4123.589844, 4195.897461, 4166.666504, 4193.333008, 0.000000, 8480.000000, 8284.000000, 0.000000, 0.000000, 0.000000, 16188.000000, 547.179443, 4.000000, 4.000000, 4.000000, 4.000000, 4.000000, 4.000000, 4.000000, 4.000000, 4.000000, 4.000000, 4.000000, 4.000000, 4.000000, 4.000000, 4.000000, 4.000000
31.000000, 0.000000, 4235.897461, 4168.205078, 4163.076660, 4168.717773, 4188.717773, 4199.487305, 4191.794922, 4179.487305, 4176.922852, 4192.820313, 4119.487305, 4183.589844, 4156.410156, 4193.846191, 0.000000, 8477.000000, 8211.000000, 0.000000, 0.000000, 0.000000, 16188.000000, 555.384583, 4.000000, 4.000000, 4.000000, 4.000000, 4.000000, 4.000000, 4.000000, 4.000000, 4.000000, 4.000000, 4.000000, 4.000000, 4.000000, 4.000000, 4.000000, 4.000000
32.000000, 0.000000, 4241.025391, 4169.230469, 4164.615234, 4168.205078, 4168.717773, 4183.076660, 4198.974121, 4181.025391, 4175.897461, 4181.025391, 4116.922852, 4174.871582, 4151.794922, 4189.743652, 0.000000, 8477.000000, 8211.000000, 0.000000, 0.000000, 0.000000, 16188.000000, 563.076904, 4.000000, 4.000000, 4.000000, 4.000000, 4.000000, 4.000000, 4.000000, 4.000000, 4.000000, 4.000000, 4.000000, 4.000000, 4.000000, 4.000000, 4.000000, 4.000000
33.000000, 0.000000, 4250.769043, 4177.948730, 4174.358887, 4174.871582, 4150.769043, 4180.512695, 4200.512695, 4186.153809, 4183.076660, 4191.794922, 4119.487305, 4185.127930, 4163.076660, 4196.922852, 0.000000, 8475.000000, 8170.000000, 0.000000, 0.000000, 0.000000, 16188.000000, 570.769226, 4.000000, 4.000000, 4.000000, 4.000000, 4.000000, 4.000000, 4.000000, 4.000000, 4.000000, 4.000000, 4.000000, 4.000000, 4.000000, 4.000000, 4.000000, 4.000000
34.000000, 0.000000, 4251.794922, 4187.692383, 4177.948730, 4182.563965, 4163.589844, 4192.307617, 4206.153809, 4195.384277, 4194.358887, 4204.615234, 4128.205078, 4188.717773, 4170.769043, 4197.948730, 0.000000, 8475.000000, 8170.000000, 0.000000, 0.000000, 0.000000, 16188.000000, 578.974365, 4.000000, 4.000000, 4.000000, 4.000000, 4.000000, 4.000000, 4.000000, 4.000000, 4.000000, 4.000000, 4.000000, 4.000000, 4.000000, 4.000000, 4.000000, 4.000000
35.000000, 0.000000, 4250.769043, 4186.666504, 4171.281738, 4176.410156, 4188.205078, 4198.974121, 4205.641113, 4204.102539, 4202.563965, 4206.666504, 4136.410156, 4191.281738, 4168.717773, 4195.897461, 0.000000, 8471.000000, 8144.000000, 0.000000, 0.000000, 0.000000, 16188.000000, 586.666626, 4.000000, 4.000000, 4.000000, 4.000000, 4.000000, 4.000000, 4.000000, 4.000000, 4.000000, 4.000000, 4.000000, 4.000000, 4.000000, 4.000000, 4.000000, 4.000000
36.000000, 0.000000, 4255.384277, 4187.179199, 4169.743652, 4172.307617, 4189.230469, 4197.436035, 4185.641113, 4207.179199, 4206.153809, 4214.871582, 4140.512695, 4191.281738, 4171.281738, 4194.871582, 0.000000, 8471.000000, 8144.000000, 0.000000, 0.000000, 0.000000, 16188.000000, 594.871765, 4.000000, 4.000000, 4.000000, 4.000000, 4.000000, 4.000000, 4.000000, 4.000000, 4.000000, 4.000000, 4.000000, 4.000000, 4.000000, 4.000000, 4.000000, 4.000000
37.000000, 0.000000, 4263.076660, 4191.794922, 4174.358887, 4177.948730, 4185.127930, 4200.512695, 4186.153809, 4207.692383, 4200.512695, 4217.948730, 4138.974121, 4190.256348, 4173.846191, 4192.307617, 0.000000, 8480.000000, 8108.000000, 0.000000, 0.000000, 0.000000, 16188.000000, 602.564087, 4.000000, 4.000000, 4.000000, 4.000000, 4.000000, 4.000000, 4.000000, 4.000000, 4.000000, 4.000000, 4.000000, 4.000000, 4.000000, 4.000000, 4.000000, 4.000000
38.000000, 0.000000, 4272.307617, 4191.794922, 4178.974121, 4184.615234, 4195.384277, 4210.256348, 4204.615234, 4218.461426, 4207.692383, 4215.897461, 4140.000000, 4199.487305, 4172.307617, 4197.436035, 0.000000, 8480.000000, 8108.000000, 0.000000, 0.000000, 0.000000, 16188.000000, 610.769226, 4.000000, 4.000000, 4.000000, 4.000000, 4.000000, 4.000000, 4.000000, 4.000000, 4.000000, 4.000000, 4.000000, 4.000000, 4.000000, 4.000000, 4.000000, 4.000000
39.000000, 0.000000, 4277.436035, 4190.769043, 4174.871582, 4184.102539, 4202.051270, 4220.000000, 4210.769043, 4226.666504, 4221.538574, 4217.436035, 4142.051270, 4202.563965, 4170.256348, 4192.820313, 0.000000, 8469.000000, 8085.000000, 0.000000, 0.000000, 0.000000, 16188.000000, 618.461548, 4.000000, 4.000000, 4.000000, 4.000000, 4.000000, 4.000000, 4.000000, 4.000000, 4.000000, 4.000000, 4.000000, 4.000000, 4.000000, 4.000000, 4.000000, 4.000000
40.000000, 0.000000, 4277.436035, 4187.692383, 4174.358887, 4174.871582, 4194.358887, 4221.538574, 4224.102539, 4222.563965, 4209.743652, 4211.794922, 4137.948730, 4205.641113, 4168.205078, 4192.307617, 0.000000, 8469.000000, 8085.000000, 0.000000, 0.000000, 0.000000, 16188.000000, 626.153809, 4.000000, 4.000000, 4.000000, 4.000000, 4.000000, 4.000000, 4.000000, 4.000000, 4.000000, 4.000000, 4.000000, 4.000000, 4.000000, 4.000000, 4.000000, 4.000000
41.000000, 0.000000, 4282.563965, 4187.179199, 4186.153809, 4175.384277, 4184.615234, 4207.692383, 4225.127930, 4225.127930, 4203.076660, 4206.666504, 4140.000000, 4211.794922, 4171.794922, 4200.000000, 0.000000, 8460.000000, 8035.000000, 0.000000, 0.000000, 0.000000, 16188.000000, 634.358948, 4.000000, 4.000000, 4.000000, 4.000000, 4.000000, 4.000000, 4.000000, 4.000000, 4.000000, 4.000000, 4.000000, 4.000000, 4.000000, 4.000000, 4.000000, 4.000000
42.000000, 0.000000, 4290.256348, 4183.076660, 4196.922852, 4183.589844, 4179.487305, 4196.410156, 4201.538574, 4227.692383, 4213.333008, 4205.641113, 4141.538574, 4214.871582, 4167.692383, 4195.384277, 0.000000, 8460.000000, 8035.000000, 0.000000, 0.000000, 0.000000, 16188.000000, 642.051270, 4.000000, 4.000000, 4.000000, 4.000000, 4.000000, 4.000000, 4.000000, 4.000000, 4.000000, 4.000000, 4.000000, 4.000000, 4.000000, 4.000000, 4.000000, 4.000000
43.000000, 0.000000, 4287.692383, 4170.256348, 4197.436035, 4177.436035, 4180.512695, 4205.641113, 4197.948730, 4212.307617, 4207.179199, 4197.948730, 4136.922852, 4216.410156, 4162.563965, 4193.333008, 0.000000, 8454.000000, 7990.000000, 0.000000, 0.000000, 0.000000, 16188.000000, 650.256409, 4.000000, 4.000000, 4.000000, 4.000000, 4.000000, 4.000000, 4.000000, 4.000000, 4.000000, 4.000000, 4.000000, 4.000000, 4.000000, 4.000000, 4.000000, 4.000000
44.000000, 0.000000, 4287.179199, 4174.358887, 4188.205078, 4174.871582, 4183.589844, 4210.769043, 4206.153809, 4196.410156, 4195.897461, 4197.948730, 4145.127930, 4211.794922, 4183.589844, 4197.948730, 0.000000, 8454.000000, 7990.000000, 0.000000, 0.000000, 0.000000, 16188.000000, 657.948730, 4.000000, 4.000000, 4.000000, 4.000000, 4.000000, 4.000000, 4.000000, 4.000000, 4.000000, 4.000000, 4.000000, 4.000000, 4.000000, 4.000000, 4.000000, 4.000000
45.000000, 0.000000, 4302.051270, 4193.846191, 4187.179199, 4187.179199, 4187.692383, 4203.076660, 4200.000000, 4199.487305, 4201.025391, 4211.794922, 4165.641113, 4222.563965, 4207.692383, 4204.615234, 0.000000, 8430.000000, 7952.000000, 0.000000, 0.000000, 0.000000, 16188.000000, 665.640991, 4.000000, 4.000000, 4.000000, 4.000000, 4.000000, 4.000000, 4.000000, 4.000000, 4.000000, 4.000000, 4.000000, 4.000000, 4.000000, 4.000000, 4.000000, 4.000000
46.000000, 0.000000, 4302.563965, 4188.205078, 4188.717773, 4184.102539, 4184.615234, 4200.512695, 4206.153809, 4211.794922, 4204.102539, 4208.717773, 4169.230469, 4228.205078, 4198.461426, 4200.000000, 0.000000, 8430.000000, 7952.000000, 0.000000, 0.000000, 0.000000, 16188.000000, 673.846130, 4.000000, 4.000000, 4.000000, 4.000000, 4.000000, 4.000000, 4.000000, 4.000000, 4.000000, 4.000000, 4.000000, 4.000000, 4.000000, 4.000000, 4.000000, 4.000000
47.000000, 0.000000, 4294.871582, 4169.230469, 4180.512695, 4168.205078, 4187.179199, 4201.538574, 4220.000000, 4214.358887, 4206.666504, 4197.948730, 4161.025391, 4216.922852, 4189.230469, 4189.743652, 0.000000, 8406.000000, 7958.000000, 0.000000, 0.000000, 0.000000, 16188.000000, 681.538452, 4.000000, 4.000000, 4.000000, 4.000000, 4.000000, 4.000000, 4.000000, 4.000000, 4.000000, 4.000000, 4.000000, 4.000000, 4.000000, 4.000000, 4.000000, 4.000000
48.000000, 0.000000, 4301.538574, 4170.256348, 4173.846191, 4167.179199, 4199.487305, 4203.076660, 4213.846191, 4208.205078, 4213.846191, 4209.743652, 4166.666504, 4224.615234, 4200.512695, 4197.948730, 0.000000, 8406.000000, 7958.000000, 0.000000, 0.000000, 0.000000, 16188.000000, 689.743591, 4.000000, 4.000000, 4.000000, 4.000000, 4.000000, 4.000000, 4.000000, 4.000000, 4.000000, 4.000000, 4.000000, 4.000000, 4.000000, 4.000000, 4.000000, 4.000000
49.000000, 0.000000, 4306.153809, 4171.281738, 4174.358887, 4171.281738, 4188.717773, 4205.127930, 4196.922852, 4201.025391, 4209.230469, 4218.461426, 4175.384277, 4227.692383, 4197.436035, 4199.487305, 0.000000, 8380.000000, 7961.000000, 0.000000, 0.000000, 0.000000, 16188.000000, 697.435852, 4.000000, 4.000000, 4.000000, 4.000000, 4.000000, 4.000000, 4.000000, 4.000000, 4.000000, 4.000000, 4.000000, 4.000000, 4.000000, 4.000000, 4.000000, 4.000000
50.000000, 0.000000, 4306.153809, 4158.461426, 4182.051270, 4163.589844, 4171.281738, 4192.820313, 4177.436035, 4194.358887, 4201.538574, 4208.205078, 4171.794922, 4220.512695, 4182.563965, 4193.846191, 0.000000, 8380.000000, 7961.000000, 0.000000, 0.000000, 0.000000, 16188.000000, 705.128174, 4.000000, 4.000000, 4.000000, 4.000000, 4.000000, 4.000000, 4.000000, 4.000000, 4.000000, 4.000000, 4.000000, 4.000000, 4.000000, 4.000000, 4.000000, 4.000000
51.000000, 0.000000, 4305.127930, 4147.692383, 4190.256348, 4154.871582, 4178.461426, 4182.563965, 4181.025391, 4188.717773, 4204.102539, 4194.358887, 4165.641113, 4216.410156, 4178.461426, 4192.820313, 0.000000, 8319.000000, 8013.000000, 0.000000, 0.000000, 0.000000, 16188.000000, 712.820496, 4.000000, 4.000000, 4.000000, 4.000000, 4.000000, 4.000000, 4.000000, 4.000000, 4.000000, 4.000000, 4.000000, 4.000000, 4.000000, 4.000000, 4.000000, 4.000000
52.000000, 0.000000, 4306.666504, 4140.512695, 4190.256348, 4151.281738, 4190.769043, 4190.256348, 4206.666504, 4196.410156, 4215.897461, 4193.846191, 4168.717773, 4215.897461, 4183.589844, 4189.743652, 0.000000, 8319.000000, 8013.000000, 0.000000, 0.000000, 0.000000, 16188.000000, 721.025635, 4.000000, 4.000000, 4.000000, 4.000000, 4.000000, 4.000000, 4.000000, 4.000000, 4.000000, 4.000000, 4.000000, 4.000000, 4.000000, 4.000000, 4.000000, 4.000000
53.000000, 0.000000, 4308.717773, 4135.897461, 4191.794922, 4152.307617, 4185.127930, 4194.358887, 4209.743652, 4207.179199, 4227.692383, 4210.256348, 4180.000000, 4225.641113, 4187.179199, 4194.871582, 0.000000, 8282.000000, 8044.000000, 0.000000, 0.000000, 0.000000, 16188.000000, 728.717957, 4.000000, 4.000000, 4.000000, 4.000000, 4.000000, 4.000000, 4.000000, 4.000000, 4.000000, 4.000000, 4.000000, 4.000000, 4.000000, 4.000000, 4.000000, 4.000000
54.000000, 0.000000, 4307.692383, 4143.076660, 4196.922852, 4158.461426, 4184.102539, 4188.205078, 4194.871582, 4198.461426, 4227.179199, 4215.897461, 4187.179199, 4230.256348, 4181.538574, 4195.897461, 0.000000, 8282.000000, 8044.000000, 0.000000, 0.000000, 0.000000, 16188.000000, 736.410217, 4.000000, 4.000000, 4.000000, 4.000000, 4.000000, 4.000000, 4.000000, 4.000000, 4.000000, 4.000000, 4.000000, 4.000000, 4.000000, 4.000000, 4.000000, 4.000000
55.000000, 0.000000, 4316.922852, 4154.871582, 4199.487305, 4167.179199, 4195.384277, 4185.641113, 4196.922852, 4185.641113, 4218.974121, 4206.666504, 4189.230469, 4232.307617, 4180.000000, 4193.846191, 0.000000, 8214.000000, 8033.000000, 0.000000, 0.000000, 0.000000, 16188.000000, 744.615356, 4.000000, 4.000000, 4.000000, 4.000000, 4.000000, 4.000000, 4.000000, 4.000000, 4.000000, 4.000000, 4.000000, 4.000000, 4.000000, 4.000000, 4.000000, 4.000000
56.000000, 0.000000, 4322.051270, 4155.897461, 4196.410156, 4168.717773, 4198.461426, 4188.205078, 4205.127930, 4183.589844, 4210.769043, 4196.922852, 4188.205078, 4229.230469, 4183.589844, 4194.358887, 0.000000, 8214.000000, 8033.000000, 0.000000, 0.000000, 0.000000, 16188.000000, 752.307678, 4.000000, 4.000000, 4.000000, 4.000000, 4.000000, 4.000000, 4.000000, 4.000000, 4.000000, 4.000000, 4.000000, 4.000000, 4.000000, 4.000000, 4.000000, 4.000000
57.000000, 0.000000, 4312.820313, 4155.897461, 4189.230469, 4167.692383, 4197.436035, 4194.358887, 4202.051270, 4187.692383, 4209.743652, 4192.307617, 4181.025391, 4216.922852, 4176.410156, 4188.717773, 0.000000, 8197.000000, 8001.000000, 0.000000, 0.000000, 0.000000, 16188.000000, 760.000000, 4.000000, 4.000000, 4.000000, 4.000000, 4.000000, 4.000000, 4.000000, 4.000000, 4.000000, 4.000000, 4.000000, 4.000000, 4.000000, 4.000000, 4.000000, 4.000000
58.000000, 0.000000, 4312.820313, 4164.102539, 4190.256348, 4172.820313, 4204.102539, 4200.000000, 4201.538574, 4192.820313, 4212.820313, 4191.281738, 4181.025391, 4217.436035, 4170.769043, 4194.358887, 0.000000, 8197.000000, 8001.000000, 0.000000, 0.000000, 0.000000, 16188.000000, 768.205139, 4.000000, 4.000000, 4.000000, 4.000000, 4.000000, 4.000000, 4.000000, 4.000000, 4.000000, 4.000000, 4.000000, 4.000000, 4.000000, 4.000000, 4.000000, 4.000000
59.000000, 0.000000, 4316.410156, 4173.846191, 4188.205078, 4177.436035, 4207.179199, 4195.384277, 4202.051270, 4186.666504, 4210.769043, 4193.333008, 4190.256348, 4217.436035, 4178.461426, 4196.922852, 0.000000, 8163.000000, 7967.000000, 1.000000, 2.000000, 0.000000, 16188.000000, 775.897400, 4.000000, 4.000000, 4.000000, 4.000000, 4.000000, 4.000000, 4.000000, 4.000000, 4.000000, 4.000000, 4.000000, 4.000000, 4.000000, 4.000000, 4.000000, 4.000000
60.000000, 0.000000, 4300.000000, 4161.538574, 4174.871582, 4170.769043, 4197.436035, 4184.615234, 4203.589844, 4183.589844, 4209.743652, 4190.769043, 4184.615234, 4216.922852, 4167.179199, 4184.102539, 0.000000, 8163.000000, 7967.000000, 0.000000, 0.000000, 0.000000, 16188.000000, 783.589722, 4.000000, 4.000000, 4.000000, 4.000000, 4.000000, 4.000000, 4.000000, 4.000000, 4.000000, 4.000000, 4.000000, 4.000000, 4.000000, 4.000000, 4.000000, 4.000000
61.000000, 0.000000, 4277.436035, 4136.410156, 4179.487305, 4165.127930, 4194.871582, 4184.615234, 4209.230469, 4195.384277, 4212.820313, 4191.281738, 4177.948730, 4224.615234, 4150.256348, 4185.641113, 0.000000, 8137.000000, 7953.000000, 0.000000, 0.000000, 0.000000, 16188.000000, 791.794861, 4.000000, 4.000000, 4.000000, 4.000000, 4.000000, 4.000000, 4.000000, 4.000000, 4.000000, 4.000000, 4.000000, 4.000000, 4.000000, 4.000000, 4.000000, 4.000000
62.000000, 0.000000, 4289.743652, 4144.615234, 4202.563965, 4176.922852, 4213.846191, 4195.384277, 4212.307617, 4212.820313, 4222.563965, 4209.230469, 4201.538574, 4232.307617, 4174.358887, 4200.512695, 0.000000, 8137.000000, 7953.000000, 0.000000, 0.000000, 0.000000, 16188.000000, 799.487183, 4.000000, 4.000000, 4.000000, 4.000000, 4.000000, 4.000000, 4.000000, 4.000000, 4.000000, 4.000000, 4.000000, 4.000000, 4.000000, 4.000000, 4.000000, 4.000000
63.000000, 0.000000, 4309.230469, 4174.358887, 4218.974121, 4189.743652, 4222.563965, 4203.589844, 4215.897461, 4221.538574, 4236.922852, 4222.051270, 4228.205078, 4245.127930, 4201.538574, 4208.717773, 0.000000, 8112.000000, 7937.000000, 0.000000, 0.000000, 0.000000, 16188.000000, 807.692261, 4.000000, 4.000000, 4.000000, 4.000000, 4.000000, 4.000000, 4.000000, 4.000000, 4.000000, 4.000000, 4.000000, 4.000000, 4.000000, 4.000000, 4.000000, 4.000000
64.000000, 0.000000, 4305.641113, 4177.948730, 4221.025391, 4189.230469, 4211.281738, 4203.076660, 4219.487305, 4221.025391, 4249.743652, 4229.230469, 4233.846191, 4249.230469, 4202.051270, 4207.692383, 3304.000000, 8112.000000, 7937.000000, 0.000000, 0.000000, 0.000000, 16188.000000, 815.384583, 4.000000, 4.000000, 4.000000, 4.000000, 4.000000, 4.000000, 4.000000, 4.000000, 4.000000, 4.000000, 4.000000, 4.000000, 4.000000, 4.000000, 4.000000, 4.000000
65.000000, 0.000000, 4309.743652, 4167.179199, 4218.974121, 4193.846191, 4209.230469, 4200.512695, 4219.487305, 4220.512695, 4251.794922, 4236.922852, 4242.563965, 4247.179199, 4206.666504, 4211.794922, 3530.000000, 8049.000000, 7910.000000, 0.000000, 0.000000, 0.000000, 16188.000000, 823.076904, 4.000000, 4.000000, 4.000000, 4.000000, 4.000000, 4.000000, 4.000000, 4.000000, 4.000000, 4.000000, 4.000000, 4.000000, 4.000000, 4.000000, 4.000000, 4.000000
66.000000, 0.000000, 4321.538574, 4172.820313, 4215.897461, 4203.076660, 4214.871582, 4200.512695, 4210.769043, 4214.358887, 4242.051270, 4236.922852, 4257.948730, 4251.281738, 4220.000000, 4222.563965, 2797.000000, 8049.000000, 7910.000000, 0.000000, 0.000000, 0.000000, 16188.000000, 831.282043, 4.000000, 4.000000, 4.000000, 4.000000, 4.000000, 4.000000, 4.000000, 4.000000, 4.000000, 4.000000, 4.000000, 4.000000, 4.000000, 4.000000, 4.000000, 4.000000
67.000000, 0.000000, 4319.487305, 4179.487305, 4210.256348, 4201.025391, 4208.717773, 4199.487305, 4197.948730, 4204.102539, 4231.794922, 4232.820313, 4263.076660, 4247.179199, 4221.025391, 4216.922852, 3556.000000, 8010.000000, 7899.000000, 0.000000, 0.000000, 0.000000, 16188.000000, 838.974365, 4.000000, 4.000000, 4.000000, 4.000000, 4.000000, 4.000000, 4.000000, 4.000000, 4.000000, 4.000000, 4.000000, 4.000000, 4.000000, 4.000000, 4.000000, 4.000000
68.000000, 0.000000, 4318.461426, 4172.307617, 4215.897461, 4197.436035, 4202.051270, 4198.974121, 4197.948730, 4203.589844, 4229.743652, 4231.281738, 4268.205078, 4253.333008, 4219.487305, 4215.897461, 3639.000000, 8010.000000, 7899.000000, 0.000000, 0.000000, 0.000000, 16188.000000, 846.666626, 4.000000, 4.000000, 4.000000, 4.000000, 4.000000, 4.000000, 4.000000, 4.000000, 4.000000, 4.000000, 4.000000, 4.000000, 4.000000, 4.000000, 4.000000, 4.000000
69.000000, 0.000000, 4321.538574, 4165.641113, 4230.769043, 4197.948730, 4214.358887, 4201.025391, 4209.230469, 4207.179199, 4230.256348, 4233.333008, 4280.000000, 4263.589844, 4231.281738, 4223.076660, 3543.000000, 7933.000000, 7855.000000, 0.000000, 0.000000, 0.000000, 16188.000000, 854.871765, 4.000000, 4.000000, 4.000000, 4.000000, 4.000000, 4.000000, 4.000000, 4.000000, 4.000000, 4.000000, 4.000000, 4.000000, 4.000000, 4.000000, 4.000000, 4.000000
70.000000, 0.000000, 4316.410156, 4158.461426, 4233.846191, 4191.794922, 4218.974121, 4202.051270, 4206.666504, 4197.436035, 4221.538574, 4233.846191, 4282.563965, 4261.538574, 4233.333008, 4212.307617, 3450.000000, 7933.000000, 7855.000000, 0.000000, 0.000000, 0.000000, 16188.000000, 862.564087, 4.000000, 4.000000, 4.000000, 4.000000, 4.000000, 4.000000, 4.000000, 4.000000, 4.000000, 4.000000, 4.000000, 4.000000, 4.000000, 4.000000, 4.000000, 4.000000
71.000000, 0.000000, 4303.076660, 4143.589844, 4227.692383, 4180.512695, 4202.563965, 4200.000000, 4201.025391, 4190.256348, 4213.846191, 4231.794922, 4275.384277, 4257.948730, 4218.461426, 4206.153809, 3197.000000, 7897.000000, 7836.000000, 0.000000, 0.000000, 0.000000, 16188.000000, 870.769226, 4.000000, 4.000000, 4.000000, 4.000000, 4.000000, 4.000000, 4.000000, 4.000000, 4.000000, 4.000000, 4.000000, 4.000000, 4.000000, 4.000000, 4.000000, 4.000000
72.000000, 0.000000, 4293.846191, 4135.384277, 4225.641113, 4176.410156, 4198.461426, 4200.000000, 4210.769043, 4196.922852, 4218.974121, 4233.333008, 4275.384277, 4252.820313, 4216.410156, 4207.179199, 3522.000000, 7897.000000, 7836.000000, 0.000000, 0.000000, 0.000000, 16188.000000, 878.461487, 4.000000, 4.000000, 4.000000, 4.000000, 4.000000, 4.000000, 4.000000, 4.000000, 4.000000, 4.000000, 4.000000, 4.000000, 4.000000, 4.000000, 4.000000, 4.000000
73.000000, 0.000000, 4294.358887, 4146.666504, 4230.256348, 4183.076660, 4207.179199, 4203.076660, 4214.871582, 4201.025391, 4218.461426, 4237.436035, 4280.000000, 4256.922852, 4224.615234, 4210.256348, 3523.000000, 7862.000000, 7824.000000, 0.000000, 0.000000, 0.000000, 16188.000000, 886.153809, 4.000000, 4.000000, 4.000000, 4.000000, 4.000000, 4.000000, 4.000000, 4.000000, 4.000000, 4.000000, 4.000000, 4.000000, 4.000000, 4.000000, 4.000000, 4.000000
74.000000, 0.000000, 4289.743652, 4156.410156, 4228.717773, 4187.692383, 4204.102539, 4202.563965, 4205.641113, 4197.948730, 4212.307617, 4234.358887, 4277.948730, 4255.384277, 4223.076660, 4211.794922, 3199.000000, 7862.000000, 7824.000000, 0.000000, 0.000000, 0.000000, 16188.000000, 894.358948, 4.000000, 4.000000, 4.000000, 4.000000, 4.000000, 4.000000, 4.000000, 4.000000, 4.000000, 4.000000, 4.000000, 4.000000, 4.000000, 4.000000, 4.000000, 4.000000
75.000000, 0.000000, 4283.589844, 4155.897461, 4220.000000, 4186.153809, 4200.512695, 4199.487305, 4197.436035, 4200.512695, 4215.897461, 4232.820313, 4276.410156, 4249.743652, 4222.051270, 4203.076660, 2259.000000, 7818.000000, 7827.000000, 0.000000, 0.000000, 0.000000, 16188.000000, 902.051270, 4.000000, 4.000000, 4.000000, 4.000000, 4.000000, 4.000000, 4.000000, 4.000000, 4.000000, 4.000000, 4.000000, 4.000000, 4.000000, 4.000000, 4.000000, 4.000000
76.000000, 0.000000, 4286.153809, 4154.871582, 4224.102539, 4185.641113, 4196.922852, 4200.000000, 4203.076660, 4206.153809, 4218.974121, 4230.769043, 4271.794922, 4260.512695, 4225.641113, 4206.153809, 3477.000000, 7818.000000, 7827.000000, 0.000000, 0.000000, 0.000000, 16188.000000, 909.743591, 4.000000, 4.000000, 4.000000, 4.000000, 4.000000, 4.000000, 4.000000, 4.000000, 4.000000, 4.000000, 4.000000, 4.000000, 4.000000, 4.000000, 4.000000, 4.000000
77.000000, 0.000000, 4279.487305, 4152.820313, 4232.307617, 4185.127930, 4183.589844, 4198.974121, 4213.333008, 4202.563965, 4211.281738, 4221.538574, 4258.461426, 4255.384277, 4219.487305, 4208.717773, 2381.000000, 7799.000000, 7828.000000, 0.000000, 0.000000, 0.000000, 16188.000000, 917.948669, 4.000000, 4.000000, 4.000000, 4.000000, 4.000000, 4.000000, 4.000000, 4.000000, 4.000000, 4.000000, 4.000000, 4.000000, 4.000000, 4.000000, 4.000000, 4.000000
78.000000, 0.000000, 4264.615234, 4149.743652, 4233.333008, 4182.563965, 4185.641113, 4193.846191, 4207.692383, 4200.000000, 4208.205078, 4221.025391, 4253.846191, 4245.641113, 4217.436035, 4200.512695, 3199.000000, 7799.000000, 7828.000000, 0.000000, 0.000000, 0.000000, 16188.000000, 925.640991, 4.000000, 4.000000, 4.000000, 4.000000, 4.000000, 4.000000, 4.000000, 4.000000, 4.000000, 4.000000, 4.000000, 4.000000, 4.000000, 4.000000, 4.000000, 4.000000
79.000000, 0.000000, 4263.076660, 4152.307617, 4237.436035, 4184.102539, 4202.051270, 4196.922852, 4202.563965, 4211.794922, 4216.922852, 4233.846191, 4263.076660, 4255.897461, 4229.230469, 4206.153809, 2259.000000, 7772.000000, 7853.000000, 0.000000, 0.000000, 0.000000, 16188.000000, 933.846130, 4.000000, 4.000000, 4.000000, 4.000000, 4.000000, 4.000000, 4.000000, 4.000000, 4.000000, 4.000000, 4.000000, 4.000000, 4.000000, 4.000000, 4.000000, 4.000000
80.000000, 0.000000, 4264.615234, 4156.410156, 4237.436035, 4186.153809, 4202.563965, 4201.025391, 4213.333008, 4222.563965, 4226.153809, 4244.615234, 4264.102539, 4260.000000, 4235.897461, 4207.179199, 3477.000000, 7772.000000, 7853.000000, 0.000000, 0.000000, 0.000000, 16188.000000, 941.538452, 4.000000, 4.000000, 4.000000, 4.000000, 4.000000, 4.000000, 4.000000, 4.000000, 4.000000, 4.000000, 4.000000, 4.000000, 4.000000, 4.000000, 4.000000, 4.000000
81.000000, 0.000000, 4255.897461, 4153.333008, 4231.794922, 4184.102539, 4196.922852, 4194.358887, 4216.410156, 4221.025391, 4227.692383, 4243.076660, 4252.820313, 4254.871582, 4233.846191, 4203.589844, 2381.000000, 7766.000000, 7872.000000, 0.000000, 0.000000, 0.000000, 16188.000000, 949.743591, 4.000000, 4.000000, 4.000000, 4.000000, 4.000000, 4.000000, 4.000000, 4.000000, 4.000000, 4.000000, 4.000000, 4.000000, 4.000000, 4.000000, 4.000000, 4.000000
82.000000, 0.000000, 4247.692383, 4155.384277, 4226.666504, 4185.641113, 4198.461426, 4190.769043, 4200.000000, 4221.025391, 4230.256348, 4244.615234, 4249.743652, 4246.153809, 4234.871582, 4205.127930, 3199.000000, 7766.000000, 7872.000000, 0.000000, 0.000000, 0.000000, 16188.000000, 957.435852, 4.000000, 4.000000, 4.000000, 4.000000, 4.000000, 4.000000, 4.000000, 4.000000, 4.000000, 4.000000, 4.000000, 4.000000, 4.000000, 4.000000, 4.000000, 4.000000
83.000000, 0.000000, 4244.102539, 4160.000000, 4218.461426, 4186.153809, 4192.820313, 4200.000000, 4197.436035, 4224.615234, 4232.307617, 4247.692383, 4248.717773, 4244.615234, 4235.897461, 4202.563965, 2259.000000, 7761.000000, 7880.000000, 0.000000, 0.000000, 0.000000, 16188.000000, 965.640991, 4.000000, 4.000000, 4.000000, 4.000000, 4.000000, 4.000000, 4.000000, 4.000000, 4.000000, 4.000000, 4.000000, 4.000000, 4.000000, 4.000000, 4.000000, 4.000000
84.000000, 0.000000, 4239.487305, 4157.436035, 4210.769043, 4178.974121, 4185.641113, 4202.563965, 4206.666504, 4214.871582, 4220.000000, 4238.461426, 4237.436035, 4243.589844, 4232.820313, 4202.051270, 3477.000000, 7761.000000, 7880.000000, 0.000000, 0.000000, 0.000000, 16188.000000, 973.333313, 4.000000, 4.000000, 4.000000, 4.000000, 4.000000, 4.000000, 4.000000, 4.000000, 4.000000, 4.000000, 4.000000, 4.000000, 4.000000, 4.000000, 4.000000, 4.000000
85.000000, 0.000000, 4230.256348, 4158.974121, 4209.743652, 4173.333008, 4186.666504, 4189.743652, 4196.922852, 4201.538574, 4207.692383, 4226.153809, 4230.256348, 4232.820313, 4228.717773, 4198.461426, 2381.000000, 7763.000000, 7915.000000, 0.000000, 0.000000, 0.000000, 16188.000000, 981.025635, 4.000000, 4.000000, 4.000000, 4.000000, 4.000000, 4.000000, 4.000000, 4.000000, 4.000000, 4.000000, 4.000000, 4.000000, 4.000000, 4.000000, 4.000000, 4.000000
86.000000, 0.000000, 4227.692383, 4168.717773, 4220.512695, 4177.948730, 4185.641113, 4185.127930, 4184.102539, 4197.948730, 4211.281738, 4224.615234, 4230.256348, 4237.436035, 4229.743652, 4204.102539, 3199.000000, 7763.000000, 7915.000000, 0.000000, 0.000000, 0.000000, 16188.000000, 989.230774, 4.000000, 4.000000, 4.000000, 4.000000, 4.000000, 4.000000, 4.000000, 4.000000, 4.000000, 4.000000, 4.000000, 4.000000, 4.000000, 4.000000, 4.000000, 4.000000
87.000000, 0.000000, 4231.794922, 4172.820313, 4229.743652, 4186.153809, 4187.179199, 4187.692383, 4186.666504, 4199.487305, 4218.461426, 4230.769043, 4232.307617, 4247.692383, 4233.333008, 4210.256348, 2259.000000, 7775.000000, 7933.000000, 0.000000, 0.000000, 0.000000, 16188.000000, 996.923035, 4.000000, 4.000000, 4.000000, 4.000000, 4.000000, 4.000000, 4.000000, 4.000000, 4.000000, 4.000000, 4.000000, 4.000000, 4.000000, 4.000000, 4.000000, 4.000000
88.000000, 0.000000, 4225.641113, 4170.256348, 4225.127930, 4183.076660, 4188.205078, 4186.666504, 4199.487305, 4206.666504, 4217.948730, 4231.281738, 4230.769043, 4250.769043, 4232.307617, 4203.076660, 3477.000000, 7775.000000, 7933.000000, 0.000000, 0.000000, 0.000000, 16189.000000, 4.615385, 4.000000, 4.000000, 4.000000, 4.000000, 4.000000, 4.000000, 4.000000, 4.000000, 4.000000, 4.000000, 4.000000, 4.000000, 4.000000, 4.000000, 4.000000, 4.000000
89.000000, 0.000000, 4211.281738, 4165.127930, 4215.897461, 4173.333008, 4184.102539, 4187.692383, 4202.563965, 4213.333008, 4216.410156, 4228.717773, 4222.051270, 4247.179199, 4230.769043, 4202.563965, 2381.000000, 7799.000000, 7908.000000, 0.000000, 0.000000, 0.000000, 16189.000000, 12.820513, 4.000000, 4.000000, 4.000000, 4.000000, 4.000000, 4.000000, 4.000000, 4.000000, 4.000000, 4.000000, 4.000000, 4.000000, 4.000000, 4.000000, 4.000000, 4.000000
90.000000, 0.000000, 4202.563965, 4160.512695, 4208.717773, 4170.769043, 4192.820313, 4194.871582, 4194.871582, 4215.897461, 4220.000000, 4233.846191, 4217.948730, 4238.461426, 4231.794922, 4199.487305, 3199.000000, 7799.000000, 7908.000000, 0.000000, 0.000000, 0.000000, 16189.000000, 21.025640, 4.000000, 4.000000, 4.000000, 4.000000, 4.000000, 4.000000, 4.000000, 4.000000, 4.000000, 4.000000, 4.000000, 4.000000, 4.000000, 4.000000, 4.000000, 4.000000
91.000000, 0.000000, 4203.589844, 4161.538574, 4210.256348, 4177.948730, 4197.436035, 4202.051270, 4203.589844, 4217.948730, 4223.076660, 4241.538574, 4223.589844, 4243.076660, 4235.384277, 4204.102539, 2259.000000, 7812.000000, 7902.000000, 0.000000, 0.000000, 0.000000, 16189.000000, 28.717949, 4.000000, 4.000000, 4.000000, 4.000000, 4.000000, 4.000000, 4.000000, 4.000000, 4.000000, 4.000000, 4.000000, 4.000000, 4.000000, 4.000000, 4.000000, 4.000000
92.000000, 0.000000, 4203.589844, 4178.461426, 4211.794922, 4185.641113, 4187.179199, 4202.563965, 4218.461426, 4217.436035, 4220.512695, 4242.051270, 4222.563965, 4238.974121, 4236.410156, 4210.256348, 3477.000000, 7812.000000, 7902.000000, 0.000000, 0.000000, 0.000000, 16189.000000, 36.923077, 4.000000, 4.000000, 4.000000, 4.000000, 4.000000, 4.000000, 4.000000, 4.000000, 4.000000, 4.000000, 4.000000, 4.000000, 4.000000, 4.000000, 4.000000, 4.000000
93.000000, 0.000000, 4199.487305, 4187.692383, 4209.743652, 4187.692383, 4192.307617, 4203.076660, 4213.846191, 4212.307617, 4216.410156, 4238.974121, 4215.384277, 4229.743652, 4232.307617, 4204.102539, 2381.000000, 7825.000000, 7917.000000, 0.000000, 0.000000, 0.000000, 16189.000000, 44.615383, 4.000000, 4.000000, 4.000000, 4.000000, 4.000000, 4.000000, 4.000000, 4.000000, 4.000000, 4.000000, 4.000000, 4.000000, 4.000000, 4.000000, 4.000000, 4.000000
94.000000, 0.000000, 4193.846191, 4173.333008, 4216.922852, 4185.641113, 4212.307617, 4209.743652, 4201.025391, 4211.281738, 4213.333008, 4241.538574, 4214.358887, 4235.384277, 4230.769043, 4203.589844, 3199.000000, 7825.000000, 7917.000000, 0.000000, 0.000000, 0.000000, 16189.000000, 52.820511, 4.000000, 4.000000, 4.000000, 4.000000, 4.000000, 4.000000, 4.000000, 4.000000, 4.000000, 4.000000, 4.000000, 4.000000, 4.000000, 4.000000, 4.000000, 4.000000
95.000000, 0.000000, 4186.153809, 4168.717773, 4220.000000, 4184.102539, 4217.436035, 4213.846191, 4203.589844, 4209.743652, 4208.205078, 4240.000000, 4211.281738, 4234.871582, 4233.846191, 4200.000000, 2259.000000, 7848.000000, 7926.000000, 0.000000, 0.000000, 0.000000, 16189.000000, 60.512817, 4.000000, 4.000000, 4.000000, 4.000000, 4.000000, 4.000000, 4.000000, 4.000000, 4.000000, 4.000000, 4.000000, 4.000000, 4.000000, 4.000000, 4.000000, 4.000000
96.000000, 0.000000, 4182.563965, 4185.641113, 4216.922852, 4185.127930, 4210.769043, 4206.666504, 4201.538574, 4199.487305, 4198.974121, 4223.589844, 4199.487305, 4231.281738, 4227.692383, 4196.410156, 3477.000000, 7848.000000, 7926.000000, 0.000000, 0.000000, 0.000000, 16189.000000, 68.717949, 4.000000, 4.000000, 4.000000, 4.000000, 4.000000, 4.000000, 4.000000, 4.000000, 4.000000, 4.000000, 4.000000, 4.000000, 4.000000, 4.000000, 4.000000, 4.000000
97.000000, 0.000000, 4178.974121, 4191.794922, 4211.281738, 4184.615234, 4212.307617, 4198.974121, 4187.179199, 4193.333008, 4190.256348, 4214.358887, 4189.230469, 4226.666504, 4215.897461, 4196.410156, 2381.000000, 7864.000000, 7923.000000, 0.000000, 0.000000, 0.000000, 16189.000000, 76.410255, 4.000000, 4.000000, 4.000000, 4.000000, 4.000000, 4.000000, 4.000000, 4.000000, 4.000000, 4.000000, 4.000000, 4.000000, 4.000000, 4.000000, 4.000000, 4.000000
98.000000, 0.000000, 4177.948730, 4182.563965, 4204.615234, 4183.589844, 4215.897461, 4205.127930, 4188.717773, 4193.846191, 4188.205078, 4224.102539, 4190.769043, 4228.717773, 4217.948730, 4198.461426, 3199.000000, 7864.000000, 7923.000000, 0.000000, 0.000000, 0.000000, 16189.000000, 84.615379, 4.000000, 4.000000, 4.000000, 4.000000, 4.000000, 4.000000, 4.000000, 4.000000, 4.000000, 4.000000, 4.000000, 4.000000, 4.000000, 4.000000, 4.000000, 4.000000
99.000000, 0.000000, 4172.820313, 4179.487305, 4200.512695, 4181.538574, 4213.333008, 4215.897461, 4200.512695, 4198.974121, 4196.410156, 4234.358887, 4200.000000, 4233.846191, 4230.256348, 4201.538574, 2259.000000, 7889.000000, 7975.000000, 0.000000, 0.000000, 0.000000, 16189.000000, 92.307693, 4.000000, 4.000000, 4.000000, 4.000000, 4.000000, 4.000000, 4.000000, 4.000000, 4.000000, 4.000000, 4.000000, 4.000000, 4.000000, 4.000000, 4.000000, 4.000000
100.000000, 0.000000, 4162.563965, 4178.974121, 4194.871582, 4174.358887, 4210.256348, 4216.410156, 4202.563965, 4206.153809, 4205.127930, 4234.358887, 4197.948730, 4227.179199, 4233.846191, 4189.743652, 3477.000000, 7889.000000, 7975.000000, 0.000000, 0.000000, 0.000000, 16189.000000, 100.512817, 4.000000, 4.000000, 4.000000, 4.000000, 4.000000, 4.000000, 4.000000, 4.000000, 4.000000, 4.000000, 4.000000, 4.000000, 4.000000, 4.000000, 4.000000, 4.000000
101.000000, 0.000000, 4164.102539, 4170.256348, 4197.948730, 4169.743652, 4210.769043, 4211.794922, 4203.589844, 4207.692383, 4200.000000, 4231.794922, 4189.230469, 4231.281738, 4228.205078, 4194.871582, 2381.000000, 7916.000000, 7990.000000, 0.000000, 0.000000, 0.000000, 16189.000000, 108.205124, 4.000000, 4.000000, 4.000000, 4.000000, 4.000000, 4.000000, 4.000000, 4.000000, 4.000000, 4.000000, 4.000000, 4.000000, 4.000000, 4.000000, 4.000000, 4.000000
102.000000, 0.000000, 4164.615234, 4170.769043, 4208.717773, 4177.948730, 4215.384277, 4215.384277, 4205.641113, 4209.230469, 4201.538574, 4243.076660, 4195.897461, 4235.384277, 4233.333008, 4202.563965, 3199.000000, 7916.000000, 7990.000000, 0.000000, 0.000000, 0.000000, 16189.000000, 116.410255, 4.000000, 4.000000, 4.000000, 4.000000, 4.000000, 4.000000, 4.000000, 4.000000, 4.000000, 4.000000, 4.000000, 4.000000, 4.000000, 4.000000, 4.000000, 4.000000
103.000000, 0.000000, 4164.102539, 4179.487305, 4212.820313, 4185.641113, 4213.846191, 4218.461426, 4203.589844, 4219.487305, 4214.358887, 4256.922852, 4206.153809, 4238.974121, 4244.615234, 4194.871582, 2259.000000, 7955.000000, 8000.000000, 0.000000, 0.000000, 0.000000, 16189.000000, 124.102562, 4.000000, 4.000000, 4.000000, 4.000000, 4.000000, 4.000000, 4.000000, 4.000000, 4.000000, 4.000000, 4.000000, 4.000000, 4.000000, 4.000000, 4.000000, 4.000000
104.000000, 0.000000, 4168.717773, 4182.051270, 4214.358887, 4185.641113, 4216.410156, 4205.127930, 4197.436035, 4217.436035, 4210.769043, 4255.384277, 4204.615234, 4244.615234, 4249.743652, 4202.563965, 3477.000000, 7955.000000, 8000.000000, 0.000000, 0.000000, 0.000000, 16189.000000, 132.307693, 4.000000, 4.000000, 4.000000, 4.000000, 4.000000, 4.000000, 4.000000, 4.000000, 4.000000, 4.000000, 4.000000, 4.000000, 4.000000, 4.000000, 4.000000, 4.000000
105.000000, 0.000000, 4168.717773, 4180.512695, 4213.333008, 4190.256348, 4216.410156, 4196.410156, 4194.358887, 4208.205078, 4199.487305, 4249.743652, 4205.641113, 4234.871582, 4250.769043, 4202.051270, 2381.000000, 7971.000000, 8021.000000, 0.000000, 0.000000, 0.000000, 16189.000000, 140.000000, 4.000000, 4.000000, 4.000000, 4.000000, 4.000000, 4.000000, 4.000000, 4.000000, 4.000000, 4.000000, 4.000000, 4.000000, 4.000000, 4.000000, 4.000000, 4.000000
106.000000, 0.000000, 4167.179199, 4180.000000, 4208.717773, 4191.794922, 4199.487305, 4198.461426, 4198.974121, 4214.871582, 4196.922852, 4245.641113, 4204.102539, 4237.948730, 4246.666504, 4196.922852, 3199.000000, 7971.000000, 8021.000000, 0.000000, 0.000000, 0.000000, 16189.000000, 148.205124, 4.000000, 4.000000, 4.000000, 4.000000, 4.000000, 4.000000, 4.000000, 4.000000, 4.000000, 4.000000, 4.000000, 4.000000, 4.000000, 4.000000, 4.000000, 4.000000
107.000000, 0.000000, 4159.487305, 4178.461426, 4204.102539, 4184.102539, 4195.897461, 4190.256348, 4198.974121, 4212.307617, 4189.230469, 4237.436035, 4191.794922, 4241.538574, 4240.000000, 4198.974121, 2259.000000, 7987.000000, 8040.000000, 0.000000, 0.000000, 0.000000, 16189.000000, 155.897430, 4.000000, 4.000000, 4.000000, 4.000000, 4.000000, 4.000000, 4.000000, 4.000000, 4.000000, 4.000000, 4.000000, 4.000000, 4.000000, 4.000000, 4.000000, 4.000000
108.000000, 0.000000, 4154.871582, 4173.333008, 4204.102539, 4184.102539, 4210.769043, 4182.563965, 4198.461426, 4200.000000, 4182.563965, 4231.281738, 4185.127930, 4230.769043, 4237.436035, 4192.307617, 3477.000000, 7987.000000, 8040.000000, 0.000000, 0.000000, 0.000000, 16189.000000, 164.102554, 4.000000, 4.000000, 4.000000, 4.000000, 4.000000, 4.000000, 4.000000, 4.000000, 4.000000, 4.000000, 4.000000, 4.000000, 4.000000, 4.000000, 4.000000, 4.000000
109.000000, 0.000000, 4156.410156, 4167.692383, 4206.666504, 4184.102539, 4209.230469, 4190.256348, 4202.051270, 4208.205078, 4185.127930, 4227.692383, 4182.563965, 4227.692383, 4235.897461, 4193.333008, 2381.000000, 8008.000000, 8089.000000, 0.000000, 0.000000, 0.000000, 16189.000000, 171.794861, 4.000000, 4.000000, 4.000000, 4.000000, 4.000000, 4.000000, 4.000000, 4.000000, 4.000000, 4.000000, 4.000000, 4.000000, 4.000000, 4.000000, 4.000000, 4.000000
110.000000, 0.000000, 4152.307617, 4166.666504, 4200.512695, 4176.410156, 4197.948730, 4193.846191, 4191.281738, 4207.692383, 4178.461426, 4220.000000, 4176.410156, 4221.025391, 4231.794922, 4190.769043, 3199.000000, 8008.000000, 8089.000000, 0.000000, 0.000000, 0.000000, 16189.000000, 180.000000, 4.000000, 4.000000, 4.000000, 4.000000, 4.000000, 4.000000, 4.000000, 4.000000, 4.000000, 4.000000, 4.000000, 4.000000, 4.000000, 4.000000, 4.000000, 4.000000
111.000000, 0.000000, 4151.281738, 4172.307617, 4201.025391, 4177.436035, 4205.127930, 4186.666504, 4180.512695, 4187.692383, 4169.230469, 4222.051270, 4176.922852, 4221.538574, 4238.461426, 4192.307617, 2259.000000, 8013.000000, 8115.000000, 0.000000, 0.000000, 0.000000, 16189.000000, 187.692307, 4.000000, 4.000000, 4.000000, 4.000000, 4.000000, 4.000000, 4.000000, 4.000000, 4.000000, 4.000000, 4.000000, 4.000000, 4.000000, 4.000000, 4.000000, 4.000000
112.000000, 0.000000, 4156.410156, 4180.512695, 4211.281738, 4187.179199, 4217.436035, 4186.153809, 4186.153809, 4184.102539, 4175.897461, 4230.256348, 4185.127930, 4225.127930, 4249.230469, 4201.538574, 3477.000000, 8013.000000, 8115.000000, 0.000000, 0.000000, 0.000000, 16189.000000, 195.897430, 4.000000, 4.000000, 4.000000, 4.000000, 4.000000, 4.000000, 4.000000, 4.000000, 4.000000, 4.000000, 4.000000, 4.000000, 4.000000, 4.000000, 4.000000, 4.000000
113.000000, 0.000000, 4163.076660, 4189.743652, 4214.358887, 4195.897461, 4211.281738, 4186.666504, 4181.025391, 4192.820313, 4185.127930, 4231.794922, 4194.871582, 4224.615234, 4248.205078, 4201.538574, 2381.000000, 8024.000000, 8119.000000, 0.000000, 0.000000, 0.000000, 16189.000000, 204.102554, 4.000000, 4.000000, 4.000000, 4.000000, 4.000000, 4.000000, 4.000000, 4.000000, 4.000000, 4.000000, 4.000000, 4.000000, 4.000000, 4.000000, 4.000000, 4.000000
114.000000, 0.000000, 4166.666504, 4197.436035, 4212.307617, 4203.076660, 4197.948730, 4180.000000, 4169.743652, 4187.179199, 4179.487305, 4230.769043, 4198.974121, 4232.820313, 4246.666504, 4203.589844, 3199.000000, 8024.000000, 8119.000000, 0.000000, 0.000000, 0.000000, 16189.000000, 211.794861, 4.000000, 4.000000, 4.000000, 4.000000, 4.000000, 4.000000, 4.000000, 4.000000, 4.000000, 4.000000, 4.000000, 4.000000, 4.000000, 4.000000, 4.000000, 4.000000
115.000000, 0.000000, 4161.025391, 4195.897461, 4205.127930, 4199.487305, 4200.512695, 4184.615234, 4181.025391, 4181.025391, 4172.820313, 4226.666504, 4192.820313, 4228.205078, 4246.666504, 4195.384277, 2259.000000, 8031.000000, 8115.000000, 0.000000, 0.000000, 0.000000, 16189.000000, 219.487167, 4.000000, 4.000000, 4.000000, 4.000000, 4.000000, 4.000000, 4.000000, 4.000000, 4.000000, 4.000000, 4.000000, 4.000000, 4.000000, 4.000000, 4.000000, 4.000000
116.000000, 0.000000, 4155.384277, 4189.743652, 4200.000000, 4187.179199, 4216.922852, 4200.000000, 4196.922852, 4186.666504, 4174.871582, 4216.922852, 4180.000000, 4218.461426, 4236.922852, 4188.717773, 3477.000000, 8031.000000, 8115.000000, 0.000000, 0.000000, 0.000000, 16189.000000, 227.692307, 4.000000, 4.000000, 4.000000, 4.000000, 4.000000, 4.000000, 4.000000, 4.000000, 4.000000, 4.000000, 4.000000, 4.000000, 4.000000, 4.000000, 4.000000, 4.000000
117.000000, 0.000000, 4149.743652, 4186.666504, 4202.051270, 4184.615234, 4218.461426, 4204.615234, 4198.974121, 4193.846191, 4183.076660, 4214.358887, 4175.384277, 4216.410156, 4231.281738, 4194.871582, 2381.000000, 8039.000000, 8116.000000, 0.000000, 0.000000, 0.000000, 16189.000000, 235.384613, 4.000000, 4.000000, 4.000000, 4.000000, 4.000000, 4.000000, 4.000000, 4.000000, 4.000000, 4.000000, 4.000000, 4.000000, 4.000000, 4.000000, 4.000000, 4.000000
118.000000, 0.000000, 4142.051270, 4187.179199, 4198.461426, 4185.127930, 4205.641113, 4203.076660, 4204.102539, 4202.563965, 4194.358887, 4223.076660, 4178.461426, 4212.307617, 4237.436035, 4190.769043, 3199.000000, 8039.000000, 8116.000000, 0.000000, 0.000000, 0.000000, 16189.000000, 243.589737, 4.000000, 4.000000, 4.000000, 4.000000, 4.000000, 4.000000, 4.000000, 4.000000, 4.000000, 4.000000, 4.000000, 4.000000, 4.000000, 4.000000, 4.000000, 4.000000
119.000000, 0.000000, 4144.615234, 4191.794922, 4194.871582, 4184.102539, 4202.563965, 4200.000000, 4209.230469, 4206.153809, 4198.974121, 4231.794922, 4184.102539, 4218.974121, 4246.666504, 4197.948730, 2259.000000, 8048.000000, 8125.000000, 0.000000, 0.000000, 0.000000, 16189.000000, 251.282043, 4.000000, 4.000000, 4.000000, 4.000000, 4.000000, 4.000000, 4.000000, 4.000000, 4.000000, 4.000000, 4.000000, 4.000000, 4.000000, 4.000000, 4.000000, 4.000000
120.000000, 0.000000, 4155.384277, 4203.076660, 4196.410156, 4191.794922, 4202.051270, 4189.743652, 4195.384277, 4201.025391, 4198.974121, 4236.922852, 4196.922852, 4222.563965, 4251.794922, 4203.076660, 3477.000000, 8048.000000, 8125.000000, 0.000000, 0.000000, 0.000000, 16189.000000, 258.974365, 4.000000, 4.000000, 4.000000, 4.000000, 4.000000, 4.000000, 4.000000, 4.000000, 4.000000, 4.000000, 4.000000, 4.000000, 4.000000, 4.000000, 4.000000, 4.000000
121.000000, 0.000000, 4159.487305, 4210.256348, 4203.076660, 4198.461426, 4202.051270, 4186.666504, 4182.051270, 4200.000000, 4198.974121, 4233.846191, 4201.025391, 4223.076660, 4241.538574, 4197.436035, 2381.000000, 8042.000000, 8123.000000, 0.000000, 0.000000, 0.000000, 16189.000000, 267.179474, 4.000000, 4.000000, 4.000000, 4.000000, 4.000000, 4.000000, 4.000000, 4.000000, 4.000000, 4.000000, 4.000000, 4.000000, 4.000000, 4.000000, 4.000000, 4.000000
122.000000, 0.000000, 4155.897461, 4212.307617, 4215.384277, 4201.538574, 4209.743652, 4196.410156, 4191.794922, 4205.641113, 4201.025391, 4232.307617, 4196.922852, 4225.641113, 4234.871582, 4202.563965, 3199.000000, 8042.000000, 8123.000000, 0.000000, 0.000000, 0.000000, 16189.000000, 274.871796, 4.000000, 4.000000, 4.000000, 4.000000, 4.000000, 4.000000, 4.000000, 4.000000, 4.000000, 4.000000, 4.000000, 4.000000, 4.000000, 4.000000, 4.000000, 4.000000
123.000000, 0.000000, 4163.076660, 4226.153809, 4219.487305, 4213.333008, 4211.281738, 4205.127930, 4198.461426, 4206.153809, 4201.538574, 4236.410156, 4204.615234, 4222.563965, 4252.820313, 4204.615234, 2259.000000, 8012.000000, 8150.000000, 0.000000, 0.000000, 0.000000, 16189.000000, 283.076904, 4.000000, 4.000000, 4.000000, 4.000000, 4.000000, 4.000000, 4.000000, 4.000000, 4.000000, 4.000000, 4.000000, 4.000000, 4.000000, 4.000000, 4.000000, 4.000000
