title:winkLeft8, recorded:16.05.18 20.18.13, timestamp started:2018-05-12T20:28:52.032863+02:00            , sampling:128, subject:Noé, labels:COUNTER INTERPOLATED AF3 F7 F3 FC5 T7 P7 O1 O2 P8 T8 FC6 F4 F8 AF4 RAW_CQ GYROX GYROY MARKER MARKER_HARDWARE SYNC TIME_STAMP_s TIME_STAMP_ms CQ_AF3 CQ_F7 CQ_F3 CQ_FC5 CQ_T7 CQ_P7 CQ_O1 CQ_O2 CQ_P8 CQ_T8 CQ_FC6 CQ_F4 CQ_F8 CQ_AF4 CQ_CMS CQ_DRL, chan:40, samples:7078, units:emotiv
32.000000, 0.000000, 4194.358887, 4158.974121, 4186.153809, 4197.436035, 4182.051270, 4189.743652, 4195.897461, 4188.717773, 4188.205078, 4190.769043, 4195.384277, 4194.871582, 4166.666504, 4204.615234, 0.000000, 8297.000000, 8146.000000, 0.000000, 0.000000, 0.000000, 17281.000000, 998.461487, 4.000000, 4.000000, 4.000000, 4.000000, 4.000000, 4.000000, 4.000000, 4.000000, 4.000000, 4.000000, 4.000000, 4.000000, 4.000000, 4.000000, 4.000000, 4.000000
33.000000, 0.000000, 4199.487305, 4175.897461, 4197.948730, 4202.051270, 4192.307617, 4208.717773, 4197.436035, 4198.461426, 4198.461426, 4192.820313, 4199.487305, 4201.538574, 4169.230469, 4205.127930, 0.000000, 8304.000000, 8147.000000, 0.000000, 0.000000, 0.000000, 17282.000000, 6.666667, 4.000000, 4.000000, 4.000000, 4.000000, 4.000000, 4.000000, 4.000000, 4.000000, 4.000000, 4.000000, 4.000000, 4.000000, 4.000000, 4.000000, 4.000000, 4.000000
34.000000, 0.000000, 4204.102539, 4172.820313, 4201.538574, 4202.051270, 4213.846191, 4221.025391, 4203.589844, 4206.153809, 4206.666504, 4201.025391, 4202.051270, 4200.000000, 4168.717773, 4201.538574, 0.000000, 8304.000000, 8147.000000, 0.000000, 0.000000, 0.000000, 17282.000000, 14.358974, 4.000000, 4.000000, 4.000000, 4.000000, 4.000000, 4.000000, 4.000000, 4.000000, 4.000000, 4.000000, 4.000000, 4.000000, 4.000000, 4.000000, 4.000000, 4.000000
35.000000, 0.000000, 4196.922852, 4155.897461, 4189.743652, 4196.410156, 4205.127930, 4211.281738, 4202.563965, 4201.025391, 4191.794922, 4200.000000, 4199.487305, 4193.846191, 4166.666504, 4206.666504, 0.000000, 8305.000000, 8144.000000, 0.000000, 0.000000, 0.000000, 17282.000000, 22.051281, 4.000000, 4.000000, 4.000000, 4.000000, 4.000000, 4.000000, 4.000000, 4.000000, 4.000000, 4.000000, 4.000000, 4.000000, 4.000000, 4.000000, 4.000000, 4.000000
36.000000, 0.000000, 4185.127930, 4150.256348, 4183.589844, 4192.820313, 4195.897461, 4210.256348, 4213.333008, 4198.974121, 4189.743652, 4192.307617, 4198.461426, 4188.205078, 4167.179199, 4200.000000, 0.000000, 8305.000000, 8144.000000, 0.000000, 0.000000, 0.000000, 17282.000000, 30.256409, 4.000000, 4.000000, 4.000000, 4.000000, 4.000000, 4.000000, 4.000000, 4.000000, 4.000000, 4.000000, 4.000000, 4.000000, 4.000000, 4.000000, 4.000000, 4.000000
37.000000, 0.000000, 4193.333008, 4161.538574, 4195.384277, 4200.000000, 4215.384277, 4229.743652, 4223.589844, 4206.153809, 4203.589844, 4193.846191, 4203.589844, 4201.025391, 4171.281738, 4205.641113, 0.000000, 8306.000000, 8142.000000, 0.000000, 0.000000, 0.000000, 17282.000000, 37.948715, 4.000000, 4.000000, 4.000000, 4.000000, 4.000000, 4.000000, 4.000000, 4.000000, 4.000000, 4.000000, 4.000000, 4.000000, 4.000000, 4.000000, 4.000000, 4.000000
38.000000, 0.000000, 4194.358887, 4155.384277, 4200.000000, 4198.974121, 4209.743652, 4222.563965, 4207.692383, 4199.487305, 4195.384277, 4194.358887, 4204.102539, 4198.461426, 4169.743652, 4205.641113, 0.000000, 8306.000000, 8142.000000, 0.000000, 0.000000, 0.000000, 17282.000000, 46.153847, 4.000000, 4.000000, 4.000000, 4.000000, 4.000000, 4.000000, 4.000000, 4.000000, 4.000000, 4.000000, 4.000000, 4.000000, 4.000000, 4.000000, 4.000000, 4.000000
39.000000, 0.000000, 4184.615234, 4140.512695, 4188.205078, 4189.743652, 4184.615234, 4199.487305, 4195.897461, 4185.641113, 4181.538574, 4192.307617, 4196.410156, 4186.666504, 4164.615234, 4200.000000, 0.000000, 8307.000000, 8138.000000, 0.000000, 0.000000, 0.000000, 17282.000000, 53.846153, 4.000000, 4.000000, 4.000000, 4.000000, 4.000000, 4.000000, 4.000000, 4.000000, 4.000000, 4.000000, 4.000000, 4.000000, 4.000000, 4.000000, 4.000000, 4.000000
40.000000, 0.000000, 4191.281738, 4149.230469, 4189.743652, 4194.358887, 4197.436035, 4217.948730, 4210.256348, 4191.794922, 4192.820313, 4196.410156, 4196.410156, 4193.333008, 4170.256348, 4211.281738, 0.000000, 8307.000000, 8138.000000, 0.000000, 0.000000, 0.000000, 17282.000000, 62.051281, 4.000000, 4.000000, 4.000000, 4.000000, 4.000000, 4.000000, 4.000000, 4.000000, 4.000000, 4.000000, 4.000000, 4.000000, 4.000000, 4.000000, 4.000000, 4.000000
41.000000, 0.000000, 4194.871582, 4162.563965, 4196.922852, 4200.512695, 4212.307617, 4243.076660, 4220.512695, 4199.487305, 4195.384277, 4196.410156, 4203.076660, 4192.820313, 4174.358887, 4206.153809, 0.000000, 8295.000000, 8124.000000, 0.000000, 0.000000, 0.000000, 17282.000000, 69.743591, 4.000000, 4.000000, 4.000000, 4.000000, 4.000000, 4.000000, 4.000000, 4.000000, 4.000000, 4.000000, 4.000000, 4.000000, 4.000000, 4.000000, 4.000000, 4.000000
42.000000, 0.000000, 4190.769043, 4163.076660, 4193.333008, 4196.410156, 4198.974121, 4227.692383, 4219.487305, 4193.846191, 4179.487305, 4194.358887, 4200.000000, 4194.358887, 4167.692383, 4200.512695, 0.000000, 8295.000000, 8124.000000, 0.000000, 0.000000, 0.000000, 17282.000000, 77.948715, 4.000000, 4.000000, 4.000000, 4.000000, 4.000000, 4.000000, 4.000000, 4.000000, 4.000000, 4.000000, 4.000000, 4.000000, 4.000000, 4.000000, 4.000000, 4.000000
43.000000, 0.000000, 4194.358887, 4163.076660, 4193.846191, 4197.436035, 4193.846191, 4210.769043, 4215.384277, 4194.871582, 4189.743652, 4199.487305, 4198.974121, 4194.871582, 4173.333008, 4204.615234, 0.000000, 8286.000000, 8124.000000, 0.000000, 0.000000, 0.000000, 17282.000000, 86.153847, 4.000000, 4.000000, 4.000000, 4.000000, 4.000000, 4.000000, 4.000000, 4.000000, 4.000000, 4.000000, 4.000000, 4.000000, 4.000000, 4.000000, 4.000000, 4.000000
44.000000, 0.000000, 4202.563965, 4166.666504, 4202.051270, 4202.051270, 4206.153809, 4213.333008, 4211.794922, 4201.538574, 4203.589844, 4202.563965, 4208.717773, 4194.358887, 4181.025391, 4209.230469, 0.000000, 8286.000000, 8124.000000, 0.000000, 0.000000, 0.000000, 17282.000000, 93.846153, 4.000000, 4.000000, 4.000000, 4.000000, 4.000000, 4.000000, 4.000000, 4.000000, 4.000000, 4.000000, 4.000000, 4.000000, 4.000000, 4.000000, 4.000000, 4.000000
45.000000, 0.000000, 4203.589844, 4171.794922, 4209.230469, 4202.051270, 4201.538574, 4214.358887, 4216.922852, 4207.179199, 4196.922852, 4204.102539, 4216.410156, 4204.615234, 4175.384277, 4216.922852, 0.000000, 8266.000000, 8135.000000, 0.000000, 0.000000, 0.000000, 17282.000000, 101.538460, 4.000000, 4.000000, 4.000000, 4.000000, 4.000000, 4.000000, 4.000000, 4.000000, 4.000000, 4.000000, 4.000000, 4.000000, 4.000000, 4.000000, 4.000000, 4.000000
46.000000, 0.000000, 4203.589844, 4172.820313, 4212.820313, 4204.102539, 4182.051270, 4220.000000, 4217.948730, 4215.897461, 4202.051270, 4208.717773, 4216.410156, 4209.743652, 4177.436035, 4209.230469, 0.000000, 8266.000000, 8135.000000, 0.000000, 0.000000, 0.000000, 17282.000000, 109.743584, 4.000000, 4.000000, 4.000000, 4.000000, 4.000000, 4.000000, 4.000000, 4.000000, 4.000000, 4.000000, 4.000000, 4.000000, 4.000000, 4.000000, 4.000000, 4.000000
47.000000, 0.000000, 4208.717773, 4168.717773, 4210.256348, 4201.025391, 4183.076660, 4215.384277, 4205.641113, 4211.794922, 4210.769043, 4200.512695, 4215.384277, 4213.333008, 4182.563965, 4207.179199, 0.000000, 8250.000000, 8133.000000, 0.000000, 0.000000, 0.000000, 17282.000000, 117.435898, 4.000000, 4.000000, 4.000000, 4.000000, 4.000000, 4.000000, 4.000000, 4.000000, 4.000000, 4.000000, 4.000000, 4.000000, 4.000000, 4.000000, 4.000000, 4.000000
48.000000, 0.000000, 4204.102539, 4168.205078, 4204.102539, 4197.436035, 4201.538574, 4194.358887, 4195.897461, 4200.512695, 4203.589844, 4194.358887, 4214.358887, 4207.692383, 4175.897461, 4208.205078, 0.000000, 8250.000000, 8133.000000, 0.000000, 0.000000, 0.000000, 17282.000000, 125.641022, 4.000000, 4.000000, 4.000000, 4.000000, 4.000000, 4.000000, 4.000000, 4.000000, 4.000000, 4.000000, 4.000000, 4.000000, 4.000000, 4.000000, 4.000000, 4.000000
49.000000, 0.000000, 4209.230469, 4176.410156, 4212.820313, 4210.769043, 4208.717773, 4204.615234, 4204.102539, 4209.743652, 4206.666504, 4211.794922, 4218.461426, 4209.743652, 4180.000000, 4207.179199, 0.000000, 8239.000000, 8146.000000, 0.000000, 0.000000, 0.000000, 17282.000000, 133.333328, 4.000000, 4.000000, 4.000000, 4.000000, 4.000000, 4.000000, 4.000000, 4.000000, 4.000000, 4.000000, 4.000000, 4.000000, 4.000000, 4.000000, 4.000000, 4.000000
50.000000, 0.000000, 4216.922852, 4171.794922, 4222.051270, 4211.281738, 4195.384277, 4226.666504, 4212.307617, 4214.358887, 4213.846191, 4214.871582, 4221.025391, 4223.589844, 4188.717773, 4213.333008, 0.000000, 8239.000000, 8146.000000, 0.000000, 0.000000, 0.000000, 17282.000000, 141.025635, 4.000000, 4.000000, 4.000000, 4.000000, 4.000000, 4.000000, 4.000000, 4.000000, 4.000000, 4.000000, 4.000000, 4.000000, 4.000000, 4.000000, 4.000000, 4.000000
51.000000, 0.000000, 4204.615234, 4158.974121, 4211.794922, 4192.307617, 4182.563965, 4214.358887, 4206.666504, 4202.563965, 4201.538574, 4195.384277, 4216.410156, 4213.333008, 4177.948730, 4205.127930, 0.000000, 8215.000000, 8151.000000, 0.000000, 0.000000, 0.000000, 17282.000000, 148.717941, 4.000000, 4.000000, 4.000000, 4.000000, 4.000000, 4.000000, 4.000000, 4.000000, 4.000000, 4.000000, 4.000000, 4.000000, 4.000000, 4.000000, 4.000000, 4.000000
52.000000, 0.000000, 4200.512695, 4160.000000, 4205.127930, 4190.256348, 4185.127930, 4211.794922, 4202.563965, 4200.512695, 4201.538574, 4195.384277, 4212.820313, 4210.256348, 4171.794922, 4208.205078, 0.000000, 8215.000000, 8151.000000, 0.000000, 0.000000, 0.000000, 17282.000000, 156.923080, 4.000000, 4.000000, 4.000000, 4.000000, 4.000000, 4.000000, 4.000000, 4.000000, 4.000000, 4.000000, 4.000000, 4.000000, 4.000000, 4.000000, 4.000000, 4.000000
53.000000, 0.000000, 4205.641113, 4165.641113, 4209.743652, 4200.512695, 4187.179199, 4226.153809, 4205.641113, 4204.102539, 4215.384277, 4204.615234, 4212.820313, 4215.897461, 4182.051270, 4215.384277, 0.000000, 8204.000000, 8153.000000, 0.000000, 0.000000, 0.000000, 17282.000000, 165.128204, 4.000000, 4.000000, 4.000000, 4.000000, 4.000000, 4.000000, 4.000000, 4.000000, 4.000000, 4.000000, 4.000000, 4.000000, 4.000000, 4.000000, 4.000000, 4.000000
54.000000, 0.000000, 4203.589844, 4168.717773, 4205.127930, 4201.025391, 4178.974121, 4213.846191, 4202.051270, 4197.948730, 4208.717773, 4193.846191, 4209.230469, 4205.641113, 4187.692383, 4201.025391, 0.000000, 8204.000000, 8153.000000, 0.000000, 0.000000, 0.000000, 17282.000000, 172.820511, 4.000000, 4.000000, 4.000000, 4.000000, 4.000000, 4.000000, 4.000000, 4.000000, 4.000000, 4.000000, 4.000000, 4.000000, 4.000000, 4.000000, 4.000000, 4.000000
55.000000, 0.000000, 4200.000000, 4165.127930, 4200.000000, 4195.384277, 4173.333008, 4203.076660, 4200.000000, 4197.948730, 4196.410156, 4183.076660, 4200.512695, 4203.589844, 4175.897461, 4201.025391, 0.000000, 8191.000000, 8156.000000, 0.000000, 0.000000, 0.000000, 17282.000000, 181.025635, 4.000000, 4.000000, 4.000000, 4.000000, 4.000000, 4.000000, 4.000000, 4.000000, 4.000000, 4.000000, 4.000000, 4.000000, 4.000000, 4.000000, 4.000000, 4.000000
56.000000, 0.000000, 4198.461426, 4162.051270, 4205.641113, 4193.846191, 4189.743652, 4218.974121, 4211.281738, 4200.000000, 4195.384277, 4185.641113, 4196.922852, 4206.153809, 4165.127930, 4204.102539, 0.000000, 8191.000000, 8156.000000, 0.000000, 0.000000, 0.000000, 17282.000000, 188.717941, 4.000000, 4.000000, 4.000000, 4.000000, 4.000000, 4.000000, 4.000000, 4.000000, 4.000000, 4.000000, 4.000000, 4.000000, 4.000000, 4.000000, 4.000000, 4.000000
57.000000, 0.000000, 4200.000000, 4168.717773, 4206.666504, 4198.461426, 4196.922852, 4218.461426, 4210.256348, 4190.769043, 4188.205078, 4184.102539, 4207.179199, 4208.717773, 4180.000000, 4205.127930, 0.000000, 8191.000000, 8162.000000, 0.000000, 0.000000, 0.000000, 17282.000000, 196.923065, 4.000000, 4.000000, 4.000000, 4.000000, 4.000000, 4.000000, 4.000000, 4.000000, 4.000000, 4.000000, 4.000000, 4.000000, 4.000000, 4.000000, 4.000000, 4.000000
58.000000, 0.000000, 4197.436035, 4174.358887, 4196.922852, 4196.410156, 4181.025391, 4205.127930, 4197.948730, 4189.230469, 4180.000000, 4175.897461, 4208.717773, 4205.127930, 4187.692383, 4205.127930, 0.000000, 8191.000000, 8162.000000, 0.000000, 0.000000, 0.000000, 17282.000000, 204.615387, 4.000000, 4.000000, 4.000000, 4.000000, 4.000000, 4.000000, 4.000000, 4.000000, 4.000000, 4.000000, 4.000000, 4.000000, 4.000000, 4.000000, 4.000000, 4.000000
59.000000, 0.000000, 4195.897461, 4170.769043, 4198.461426, 4189.743652, 4181.538574, 4202.563965, 4200.000000, 4197.948730, 4183.589844, 4171.794922, 4189.743652, 4200.512695, 4176.922852, 4199.487305, 0.000000, 8196.000000, 8156.000000, 0.000000, 0.000000, 0.000000, 17282.000000, 212.820511, 4.000000, 4.000000, 4.000000, 4.000000, 4.000000, 4.000000, 4.000000, 4.000000, 4.000000, 4.000000, 4.000000, 4.000000, 4.000000, 4.000000, 4.000000, 4.000000
60.000000, 0.000000, 4203.076660, 4177.436035, 4202.051270, 4200.512695, 4188.717773, 4199.487305, 4196.922852, 4192.307617, 4186.153809, 4174.358887, 4187.179199, 4204.615234, 4185.641113, 4207.179199, 0.000000, 8196.000000, 8156.000000, 0.000000, 0.000000, 0.000000, 17282.000000, 220.512817, 4.000000, 4.000000, 4.000000, 4.000000, 4.000000, 4.000000, 4.000000, 4.000000, 4.000000, 4.000000, 4.000000, 4.000000, 4.000000, 4.000000, 4.000000, 4.000000
61.000000, 0.000000, 4204.615234, 4197.948730, 4199.487305, 4224.102539, 4189.743652, 4197.948730, 4183.589844, 4183.076660, 4186.666504, 4186.666504, 4207.179199, 4200.000000, 4204.615234, 4206.666504, 0.000000, 8201.000000, 8148.000000, 0.000000, 0.000000, 0.000000, 17282.000000, 228.717941, 4.000000, 4.000000, 4.000000, 4.000000, 4.000000, 4.000000, 4.000000, 4.000000, 4.000000, 4.000000, 4.000000, 4.000000, 4.000000, 4.000000, 4.000000, 4.000000
62.000000, 0.000000, 4203.076660, 4212.307617, 4203.589844, 4227.179199, 4192.820313, 4200.000000, 4188.205078, 4193.333008, 4189.743652, 4196.922852, 4206.666504, 4203.076660, 4200.512695, 4202.563965, 0.000000, 8201.000000, 8148.000000, 0.000000, 0.000000, 0.000000, 17282.000000, 236.410248, 4.000000, 4.000000, 4.000000, 4.000000, 4.000000, 4.000000, 4.000000, 4.000000, 4.000000, 4.000000, 4.000000, 4.000000, 4.000000, 4.000000, 4.000000, 4.000000
63.000000, 0.000000, 4205.641113, 4217.436035, 4204.615234, 4224.615234, 4187.692383, 4199.487305, 4205.127930, 4198.974121, 4186.666504, 4194.358887, 4194.358887, 4209.743652, 4197.948730, 4209.230469, 0.000000, 8210.000000, 8142.000000, 0.000000, 0.000000, 0.000000, 17282.000000, 244.615372, 4.000000, 4.000000, 4.000000, 4.000000, 4.000000, 4.000000, 4.000000, 4.000000, 4.000000, 4.000000, 4.000000, 4.000000, 4.000000, 4.000000, 4.000000, 4.000000
64.000000, 0.000000, 4205.641113, 4217.436035, 4199.487305, 4234.871582, 4179.487305, 4201.538574, 4199.487305, 4190.256348, 4183.076660, 4190.769043, 4208.717773, 4203.589844, 4207.692383, 4202.563965, 3620.000000, 8210.000000, 8142.000000, 0.000000, 0.000000, 0.000000, 17282.000000, 252.820511, 4.000000, 4.000000, 4.000000, 4.000000, 4.000000, 4.000000, 4.000000, 4.000000, 4.000000, 4.000000, 4.000000, 4.000000, 4.000000, 4.000000, 4.000000, 4.000000
65.000000, 0.000000, 4200.512695, 4223.589844, 4195.897461, 4247.179199, 4180.512695, 4202.563965, 4185.641113, 4183.076660, 4182.563965, 4186.153809, 4217.948730, 4203.076660, 4215.384277, 4202.563965, 3665.000000, 8230.000000, 8142.000000, 0.000000, 0.000000, 0.000000, 17282.000000, 260.512817, 4.000000, 4.000000, 4.000000, 4.000000, 4.000000, 4.000000, 4.000000, 4.000000, 4.000000, 4.000000, 4.000000, 4.000000, 4.000000, 4.000000, 4.000000, 4.000000
66.000000, 0.000000, 4199.487305, 4238.461426, 4200.000000, 4249.743652, 4185.641113, 4196.410156, 4188.205078, 4185.641113, 4182.563965, 4182.563965, 4202.563965, 4202.563965, 4227.179199, 4205.127930, 2754.000000, 8230.000000, 8142.000000, 0.000000, 0.000000, 0.000000, 17282.000000, 268.717957, 4.000000, 4.000000, 4.000000, 4.000000, 4.000000, 4.000000, 4.000000, 4.000000, 4.000000, 4.000000, 4.000000, 4.000000, 4.000000, 4.000000, 4.000000, 4.000000
67.000000, 0.000000, 4208.717773, 4246.153809, 4210.256348, 4241.538574, 4194.358887, 4201.025391, 4201.538574, 4197.436035, 4195.897461, 4196.410156, 4203.076660, 4210.256348, 4233.333008, 4205.127930, 3553.000000, 8234.000000, 8146.000000, 0.000000, 0.000000, 0.000000, 17282.000000, 276.410248, 4.000000, 4.000000, 4.000000, 4.000000, 4.000000, 4.000000, 4.000000, 4.000000, 4.000000, 4.000000, 4.000000, 4.000000, 4.000000, 4.000000, 4.000000, 4.000000
68.000000, 0.000000, 4208.205078, 4256.410156, 4209.230469, 4254.358887, 4205.127930, 4216.922852, 4210.256348, 4203.076660, 4213.846191, 4213.333008, 4213.846191, 4210.769043, 4229.743652, 4208.205078, 3537.000000, 8234.000000, 8146.000000, 0.000000, 0.000000, 0.000000, 17282.000000, 284.615387, 4.000000, 4.000000, 4.000000, 4.000000, 4.000000, 4.000000, 4.000000, 4.000000, 4.000000, 4.000000, 4.000000, 4.000000, 4.000000, 4.000000, 4.000000, 4.000000
69.000000, 0.000000, 4200.000000, 4269.230469, 4196.922852, 4286.153809, 4204.102539, 4220.000000, 4206.666504, 4201.025391, 4212.820313, 4213.333008, 4210.769043, 4196.410156, 4235.897461, 4200.000000, 3535.000000, 8250.000000, 8144.000000, 0.000000, 0.000000, 0.000000, 17282.000000, 292.307678, 4.000000, 4.000000, 4.000000, 4.000000, 4.000000, 4.000000, 4.000000, 4.000000, 4.000000, 4.000000, 4.000000, 4.000000, 4.000000, 4.000000, 4.000000, 4.000000
70.000000, 0.000000, 4201.538574, 4265.127930, 4195.897461, 4292.820313, 4196.410156, 4205.641113, 4197.436035, 4201.025391, 4198.461426, 4200.000000, 4205.641113, 4206.666504, 4248.205078, 4203.076660, 3455.000000, 8250.000000, 8144.000000, 0.000000, 0.000000, 0.000000, 17282.000000, 300.512817, 4.000000, 4.000000, 4.000000, 4.000000, 4.000000, 4.000000, 4.000000, 4.000000, 4.000000, 4.000000, 4.000000, 4.000000, 4.000000, 4.000000, 4.000000, 4.000000
71.000000, 0.000000, 4197.948730, 4264.615234, 4202.051270, 4289.230469, 4183.589844, 4195.897461, 4198.461426, 4200.512695, 4187.179199, 4188.205078, 4197.948730, 4209.743652, 4248.205078, 4202.563965, 3197.000000, 8257.000000, 8142.000000, 0.000000, 0.000000, 0.000000, 17282.000000, 308.717926, 4.000000, 4.000000, 4.000000, 4.000000, 4.000000, 4.000000, 4.000000, 4.000000, 4.000000, 4.000000, 4.000000, 4.000000, 4.000000, 4.000000, 4.000000, 4.000000
72.000000, 0.000000, 4192.307617, 4284.102539, 4197.436035, 4303.589844, 4172.307617, 4194.358887, 4205.127930, 4199.487305, 4189.743652, 4183.589844, 4187.692383, 4199.487305, 4246.666504, 4199.487305, 3533.000000, 8257.000000, 8142.000000, 0.000000, 0.000000, 0.000000, 17282.000000, 316.410248, 4.000000, 4.000000, 4.000000, 4.000000, 4.000000, 4.000000, 4.000000, 4.000000, 4.000000, 4.000000, 4.000000, 4.000000, 4.000000, 4.000000, 4.000000, 4.000000
73.000000, 0.000000, 4199.487305, 4305.641113, 4200.000000, 4329.230469, 4194.358887, 4193.333008, 4201.538574, 4208.205078, 4200.512695, 4194.871582, 4203.076660, 4206.666504, 4265.127930, 4215.384277, 3534.000000, 8265.000000, 8143.000000, 0.000000, 0.000000, 0.000000, 17282.000000, 324.615387, 4.000000, 4.000000, 4.000000, 4.000000, 4.000000, 4.000000, 4.000000, 4.000000, 4.000000, 4.000000, 4.000000, 4.000000, 4.000000, 4.000000, 4.000000, 4.000000
74.000000, 0.000000, 4208.205078, 4320.512695, 4212.820313, 4352.307617, 4220.000000, 4208.717773, 4202.563965, 4217.948730, 4211.281738, 4214.871582, 4225.641113, 4208.205078, 4281.538574, 4214.871582, 3170.000000, 8265.000000, 8143.000000, 0.000000, 0.000000, 0.000000, 17282.000000, 332.307678, 4.000000, 4.000000, 4.000000, 4.000000, 4.000000, 4.000000, 4.000000, 4.000000, 4.000000, 4.000000, 4.000000, 4.000000, 4.000000, 4.000000, 4.000000, 4.000000
75.000000, 0.000000, 4206.666504, 4330.769043, 4213.846191, 4366.153809, 4212.820313, 4232.820313, 4213.846191, 4214.358887, 4213.846191, 4213.846191, 4217.436035, 4204.102539, 4273.333008, 4209.743652, 1781.000000, 8271.000000, 8137.000000, 0.000000, 0.000000, 0.000000, 17282.000000, 340.512817, 4.000000, 4.000000, 4.000000, 4.000000, 4.000000, 4.000000, 4.000000, 4.000000, 4.000000, 4.000000, 4.000000, 4.000000, 4.000000, 4.000000, 4.000000, 4.000000
76.000000, 0.000000, 4198.974121, 4337.948730, 4211.794922, 4362.563965, 4202.563965, 4227.179199, 4215.384277, 4205.641113, 4203.076660, 4202.051270, 4201.538574, 4205.641113, 4264.615234, 4207.692383, 3498.000000, 8271.000000, 8137.000000, 0.000000, 0.000000, 0.000000, 17282.000000, 348.205109, 4.000000, 4.000000, 4.000000, 4.000000, 4.000000, 4.000000, 4.000000, 4.000000, 4.000000, 4.000000, 4.000000, 4.000000, 4.000000, 4.000000, 4.000000, 4.000000
77.000000, 0.000000, 4200.000000, 4335.384277, 4218.461426, 4347.692383, 4202.051270, 4201.538574, 4215.384277, 4199.487305, 4188.205078, 4196.410156, 4197.948730, 4211.794922, 4265.641113, 4203.589844, 2306.000000, 8274.000000, 8135.000000, 0.000000, 0.000000, 0.000000, 17282.000000, 356.410248, 4.000000, 4.000000, 4.000000, 4.000000, 4.000000, 4.000000, 4.000000, 4.000000, 4.000000, 4.000000, 4.000000, 4.000000, 4.000000, 4.000000, 4.000000, 4.000000
78.000000, 0.000000, 4197.948730, 4331.794922, 4218.974121, 4350.769043, 4202.051270, 4198.974121, 4214.871582, 4196.922852, 4190.256348, 4191.794922, 4202.051270, 4211.794922, 4262.563965, 4208.205078, 3170.000000, 8274.000000, 8135.000000, 0.000000, 0.000000, 0.000000, 17282.000000, 364.102570, 4.000000, 4.000000, 4.000000, 4.000000, 4.000000, 4.000000, 4.000000, 4.000000, 4.000000, 4.000000, 4.000000, 4.000000, 4.000000, 4.000000, 4.000000, 4.000000
79.000000, 0.000000, 4194.358887, 4346.666504, 4209.230469, 4383.589844, 4211.281738, 4215.897461, 4204.615234, 4193.846191, 4206.153809, 4201.538574, 4216.410156, 4201.538574, 4266.666504, 4204.615234, 1781.000000, 8268.000000, 8137.000000, 0.000000, 0.000000, 0.000000, 17282.000000, 372.307678, 4.000000, 4.000000, 4.000000, 4.000000, 4.000000, 4.000000, 4.000000, 4.000000, 4.000000, 4.000000, 4.000000, 4.000000, 4.000000, 4.000000, 4.000000, 4.000000
80.000000, 0.000000, 4199.487305, 4352.307617, 4206.666504, 4397.435547, 4204.615234, 4217.436035, 4195.897461, 4188.205078, 4201.025391, 4209.230469, 4216.410156, 4206.153809, 4270.256348, 4206.153809, 3498.000000, 8268.000000, 8137.000000, 0.000000, 0.000000, 0.000000, 17282.000000, 380.512817, 4.000000, 4.000000, 4.000000, 4.000000, 4.000000, 4.000000, 4.000000, 4.000000, 4.000000, 4.000000, 4.000000, 4.000000, 4.000000, 4.000000, 4.000000, 4.000000
81.000000, 0.000000, 4195.384277, 4333.846191, 4204.102539, 4375.897461, 4181.538574, 4202.563965, 4200.000000, 4188.717773, 4185.641113, 4196.410156, 4198.974121, 4203.589844, 4252.820313, 4206.666504, 2306.000000, 8266.000000, 8137.000000, 0.000000, 0.000000, 0.000000, 17282.000000, 388.205109, 4.000000, 4.000000, 4.000000, 4.000000, 4.000000, 4.000000, 4.000000, 4.000000, 4.000000, 4.000000, 4.000000, 4.000000, 4.000000, 4.000000, 4.000000, 4.000000
82.000000, 0.000000, 4188.717773, 4333.846191, 4194.358887, 4373.846191, 4187.179199, 4192.307617, 4197.436035, 4197.948730, 4186.666504, 4189.230469, 4193.846191, 4192.307617, 4245.127930, 4199.487305, 3170.000000, 8266.000000, 8137.000000, 0.000000, 0.000000, 0.000000, 17282.000000, 396.410248, 4.000000, 4.000000, 4.000000, 4.000000, 4.000000, 4.000000, 4.000000, 4.000000, 4.000000, 4.000000, 4.000000, 4.000000, 4.000000, 4.000000, 4.000000, 4.000000
83.000000, 0.000000, 4198.461426, 4354.358887, 4201.025391, 4396.922852, 4212.307617, 4209.743652, 4197.436035, 4210.769043, 4202.563965, 4205.127930, 4208.717773, 4205.641113, 4263.589844, 4208.205078, 1781.000000, 8254.000000, 8143.000000, 0.000000, 0.000000, 0.000000, 17282.000000, 404.102539, 4.000000, 4.000000, 4.000000, 4.000000, 4.000000, 4.000000, 4.000000, 4.000000, 4.000000, 4.000000, 4.000000, 4.000000, 4.000000, 4.000000, 4.000000, 4.000000
84.000000, 0.000000, 4205.641113, 4365.127930, 4218.461426, 4407.692383, 4222.051270, 4227.179199, 4214.358887, 4222.563965, 4223.589844, 4221.025391, 4221.025391, 4217.436035, 4271.281738, 4211.281738, 3498.000000, 8254.000000, 8143.000000, 0.000000, 0.000000, 0.000000, 17282.000000, 412.307678, 4.000000, 4.000000, 4.000000, 4.000000, 4.000000, 4.000000, 4.000000, 4.000000, 4.000000, 4.000000, 4.000000, 4.000000, 4.000000, 4.000000, 4.000000, 4.000000
85.000000, 0.000000, 4203.076660, 4362.563965, 4218.974121, 4409.743652, 4210.769043, 4204.102539, 4216.410156, 4219.487305, 4224.102539, 4212.820313, 4216.922852, 4221.025391, 4256.922852, 4210.256348, 2306.000000, 8251.000000, 8144.000000, 0.000000, 0.000000, 0.000000, 17282.000000, 420.000000, 4.000000, 4.000000, 4.000000, 4.000000, 4.000000, 4.000000, 4.000000, 4.000000, 4.000000, 4.000000, 4.000000, 4.000000, 4.000000, 4.000000, 4.000000, 4.000000
86.000000, 1.000000, 4202.563965, 4356.922852, 4215.897461, 4404.615234, 4209.743652, 4206.666504, 4214.871582, 4216.410156, 4218.974121, 4210.769043, 4215.384277, 4219.487305, 4253.846191, 4210.256348, 2219.000000, 8251.000000, 8144.000000, 0.000000, 0.000000, 0.000000, 17282.000000, 428.205109, 4.000000, 4.000000, 4.000000, 4.000000, 4.000000, 4.000000, 4.000000, 4.000000, 4.000000, 4.000000, 4.000000, 4.000000, 4.000000, 4.000000, 4.000000, 4.000000
87.000000, 1.000000, 4202.051270, 4351.281738, 4213.333008, 4399.487305, 4208.717773, 4209.230469, 4212.820313, 4213.846191, 4213.846191, 4208.717773, 4213.846191, 4217.948730, 4251.281738, 4210.256348, 2132.000000, 8251.000000, 8144.000000, 0.000000, 0.000000, 0.000000, 17282.000000, 435.897430, 4.000000, 4.000000, 4.000000, 4.000000, 4.000000, 4.000000, 4.000000, 4.000000, 4.000000, 4.000000, 4.000000, 4.000000, 4.000000, 4.000000, 4.000000, 4.000000
88.000000, 1.000000, 4201.538574, 4345.641113, 4210.256348, 4394.358887, 4207.179199, 4211.794922, 4210.769043, 4210.769043, 4208.717773, 4206.666504, 4212.307617, 4215.897461, 4248.205078, 4210.256348, 2045.000000, 8251.000000, 8144.000000, 0.000000, 0.000000, 0.000000, 17282.000000, 444.102539, 4.000000, 4.000000, 4.000000, 4.000000, 4.000000, 4.000000, 4.000000, 4.000000, 4.000000, 4.000000, 4.000000, 4.000000, 4.000000, 4.000000, 4.000000, 4.000000
89.000000, 1.000000, 4201.025391, 4340.000000, 4207.692383, 4389.230469, 4206.153809, 4214.358887, 4208.717773, 4208.205078, 4203.589844, 4204.615234, 4210.769043, 4214.358887, 4245.127930, 4210.256348, 1958.000000, 8251.000000, 8144.000000, 0.000000, 0.000000, 0.000000, 17282.000000, 451.794861, 4.000000, 4.000000, 4.000000, 4.000000, 4.000000, 4.000000, 4.000000, 4.000000, 4.000000, 4.000000, 4.000000, 4.000000, 4.000000, 4.000000, 4.000000, 4.000000
90.000000, 1.000000, 4200.512695, 4334.358887, 4204.615234, 4384.102539, 4205.127930, 4216.922852, 4207.179199, 4205.127930, 4198.461426, 4202.563965, 4209.230469, 4212.820313, 4242.051270, 4210.256348, 1871.000000, 8251.000000, 8144.000000, 0.000000, 0.000000, 0.000000, 17282.000000, 459.487183, 4.000000, 4.000000, 4.000000, 4.000000, 4.000000, 4.000000, 4.000000, 4.000000, 4.000000, 4.000000, 4.000000, 4.000000, 4.000000, 4.000000, 4.000000, 4.000000
91.000000, 0.000000, 4200.000000, 4328.717773, 4201.538574, 4378.974121, 4203.589844, 4220.000000, 4204.615234, 4202.051270, 4192.307617, 4200.000000, 4207.179199, 4210.769043, 4238.974121, 4210.769043, 1781.000000, 8251.000000, 8144.000000, 0.000000, 0.000000, 0.000000, 17282.000000, 467.692291, 4.000000, 4.000000, 4.000000, 4.000000, 4.000000, 4.000000, 4.000000, 4.000000, 4.000000, 4.000000, 4.000000, 4.000000, 4.000000, 4.000000, 4.000000, 4.000000
92.000000, 0.000000, 4193.333008, 4315.897461, 4199.487305, 4367.179199, 4195.384277, 4203.076660, 4196.410156, 4202.051270, 4200.512695, 4204.102539, 4197.948730, 4200.000000, 4229.230469, 4201.538574, 3498.000000, 8251.000000, 8144.000000, 0.000000, 0.000000, 0.000000, 17282.000000, 475.384613, 4.000000, 4.000000, 4.000000, 4.000000, 4.000000, 4.000000, 4.000000, 4.000000, 4.000000, 4.000000, 4.000000, 4.000000, 4.000000, 4.000000, 4.000000, 4.000000
93.000000, 0.000000, 4193.846191, 4309.743652, 4196.922852, 4351.794922, 4200.512695, 4194.871582, 4198.461426, 4197.436035, 4203.589844, 4200.512695, 4195.897461, 4196.410156, 4229.230469, 4206.666504, 2306.000000, 8199.000000, 8167.000000, 0.000000, 0.000000, 0.000000, 17282.000000, 483.589722, 4.000000, 4.000000, 4.000000, 4.000000, 4.000000, 4.000000, 4.000000, 4.000000, 4.000000, 4.000000, 4.000000, 4.000000, 4.000000, 4.000000, 4.000000, 4.000000
94.000000, 0.000000, 4194.871582, 4298.974121, 4197.948730, 4343.076660, 4203.076660, 4215.897461, 4212.307617, 4199.487305, 4198.974121, 4198.974121, 4197.436035, 4200.000000, 4229.743652, 4206.666504, 3170.000000, 8199.000000, 8167.000000, 0.000000, 0.000000, 0.000000, 17282.000000, 491.282043, 4.000000, 4.000000, 4.000000, 4.000000, 4.000000, 4.000000, 4.000000, 4.000000, 4.000000, 4.000000, 4.000000, 4.000000, 4.000000, 4.000000, 4.000000, 4.000000
95.000000, 0.000000, 4200.000000, 4289.230469, 4200.000000, 4332.307617, 4180.512695, 4218.461426, 4211.281738, 4205.127930, 4196.922852, 4205.127930, 4200.512695, 4209.743652, 4226.666504, 4206.153809, 1781.000000, 8193.000000, 8167.000000, 0.000000, 0.000000, 0.000000, 17282.000000, 498.974335, 4.000000, 4.000000, 4.000000, 4.000000, 4.000000, 4.000000, 4.000000, 4.000000, 4.000000, 4.000000, 4.000000, 4.000000, 4.000000, 4.000000, 4.000000, 4.000000
96.000000, 0.000000, 4205.127930, 4289.743652, 4201.025391, 4319.487305, 4182.563965, 4202.051270, 4202.563965, 4213.846191, 4202.051270, 4215.384277, 4205.641113, 4212.820313, 4223.589844, 4214.358887, 3498.000000, 8193.000000, 8167.000000, 0.000000, 0.000000, 0.000000, 17282.000000, 507.179474, 4.000000, 4.000000, 4.000000, 4.000000, 4.000000, 4.000000, 4.000000, 4.000000, 4.000000, 4.000000, 4.000000, 4.000000, 4.000000, 4.000000, 4.000000, 4.000000
97.000000, 0.000000, 4202.563965, 4286.666504, 4201.025391, 4309.230469, 4214.871582, 4195.384277, 4200.000000, 4215.897461, 4207.692383, 4214.358887, 4204.102539, 4204.102539, 4216.922852, 4208.717773, 2306.000000, 8190.000000, 8165.000000, 0.000000, 0.000000, 0.000000, 17282.000000, 514.871765, 4.000000, 4.000000, 4.000000, 4.000000, 4.000000, 4.000000, 4.000000, 4.000000, 4.000000, 4.000000, 4.000000, 4.000000, 4.000000, 4.000000, 4.000000, 4.000000
98.000000, 0.000000, 4202.563965, 4274.871582, 4203.076660, 4296.410156, 4220.512695, 4208.717773, 4203.076660, 4215.897461, 4207.692383, 4213.333008, 4201.025391, 4210.256348, 4213.846191, 4210.256348, 3170.000000, 8190.000000, 8165.000000, 0.000000, 0.000000, 0.000000, 17282.000000, 522.564087, 4.000000, 4.000000, 4.000000, 4.000000, 4.000000, 4.000000, 4.000000, 4.000000, 4.000000, 4.000000, 4.000000, 4.000000, 4.000000, 4.000000, 4.000000, 4.000000
99.000000, 0.000000, 4202.563965, 4263.589844, 4205.127930, 4282.051270, 4213.333008, 4231.281738, 4207.179199, 4221.538574, 4217.436035, 4225.127930, 4208.717773, 4212.307617, 4212.820313, 4210.256348, 1781.000000, 8179.000000, 8165.000000, 0.000000, 0.000000, 0.000000, 17282.000000, 530.256409, 4.000000, 4.000000, 4.000000, 4.000000, 4.000000, 4.000000, 4.000000, 4.000000, 4.000000, 4.000000, 4.000000, 4.000000, 4.000000, 4.000000, 4.000000, 4.000000
100.000000, 0.000000, 4199.487305, 4247.692383, 4197.436035, 4265.127930, 4219.487305, 4218.974121, 4202.563965, 4216.410156, 4223.076660, 4220.512695, 4204.615234, 4207.179199, 4199.487305, 4203.589844, 3498.000000, 8179.000000, 8165.000000, 0.000000, 0.000000, 0.000000, 17282.000000, 538.461548, 4.000000, 4.000000, 4.000000, 4.000000, 4.000000, 4.000000, 4.000000, 4.000000, 4.000000, 4.000000, 4.000000, 4.000000, 4.000000, 4.000000, 4.000000, 4.000000
101.000000, 0.000000, 4191.281738, 4226.666504, 4181.538574, 4241.025391, 4202.563965, 4178.974121, 4193.846191, 4196.410156, 4188.717773, 4199.487305, 4187.692383, 4200.000000, 4185.127930, 4207.692383, 2306.000000, 8169.000000, 8162.000000, 0.000000, 0.000000, 0.000000, 17282.000000, 546.153809, 4.000000, 4.000000, 4.000000, 4.000000, 4.000000, 4.000000, 4.000000, 4.000000, 4.000000, 4.000000, 4.000000, 4.000000, 4.000000, 4.000000, 4.000000, 4.000000
102.000000, 0.000000, 4191.794922, 4216.922852, 4179.487305, 4227.179199, 4188.717773, 4185.127930, 4195.897461, 4194.358887, 4167.179199, 4204.615234, 4188.717773, 4195.897461, 4190.769043, 4207.692383, 3170.000000, 8169.000000, 8162.000000, 0.000000, 0.000000, 0.000000, 17282.000000, 553.846130, 4.000000, 4.000000, 4.000000, 4.000000, 4.000000, 4.000000, 4.000000, 4.000000, 4.000000, 4.000000, 4.000000, 4.000000, 4.000000, 4.000000, 4.000000, 4.000000
103.000000, 0.000000, 4204.615234, 4218.974121, 4197.436035, 4226.666504, 4211.794922, 4218.974121, 4205.127930, 4216.922852, 4206.153809, 4223.076660, 4203.589844, 4211.281738, 4201.025391, 4212.820313, 1781.000000, 8154.000000, 8159.000000, 0.000000, 0.000000, 0.000000, 17282.000000, 561.538452, 4.000000, 4.000000, 4.000000, 4.000000, 4.000000, 4.000000, 4.000000, 4.000000, 4.000000, 4.000000, 4.000000, 4.000000, 4.000000, 4.000000, 4.000000, 4.000000
104.000000, 0.000000, 4206.153809, 4213.333008, 4204.102539, 4217.436035, 4225.641113, 4215.384277, 4208.717773, 4221.538574, 4237.948730, 4220.000000, 4203.076660, 4211.794922, 4191.281738, 4209.743652, 3498.000000, 8154.000000, 8159.000000, 0.000000, 0.000000, 0.000000, 17282.000000, 569.230774, 4.000000, 4.000000, 4.000000, 4.000000, 4.000000, 4.000000, 4.000000, 4.000000, 4.000000, 4.000000, 4.000000, 4.000000, 4.000000, 4.000000, 4.000000, 4.000000
105.000000, 0.000000, 4203.076660, 4194.871582, 4195.384277, 4203.076660, 4214.358887, 4204.102539, 4211.281738, 4208.205078, 4215.897461, 4211.794922, 4199.487305, 4205.127930, 4183.589844, 4205.127930, 2306.000000, 8146.000000, 8157.000000, 0.000000, 0.000000, 0.000000, 17282.000000, 577.435913, 4.000000, 4.000000, 4.000000, 4.000000, 4.000000, 4.000000, 4.000000, 4.000000, 4.000000, 4.000000, 4.000000, 4.000000, 4.000000, 4.000000, 4.000000, 4.000000
106.000000, 0.000000, 4201.538574, 4178.461426, 4195.384277, 4195.384277, 4208.205078, 4207.692383, 4209.743652, 4202.563965, 4190.769043, 4214.358887, 4198.461426, 4208.717773, 4186.153809, 4212.307617, 3170.000000, 8146.000000, 8157.000000, 0.000000, 0.000000, 0.000000, 17282.000000, 585.128174, 4.000000, 4.000000, 4.000000, 4.000000, 4.000000, 4.000000, 4.000000, 4.000000, 4.000000, 4.000000, 4.000000, 4.000000, 4.000000, 4.000000, 4.000000, 4.000000
107.000000, 0.000000, 4201.025391, 4172.820313, 4197.948730, 4189.230469, 4215.897461, 4203.589844, 4202.051270, 4198.461426, 4197.436035, 4218.461426, 4191.281738, 4198.461426, 4175.384277, 4204.102539, 1781.000000, 8147.000000, 8164.000000, 0.000000, 0.000000, 0.000000, 17282.000000, 592.820496, 4.000000, 4.000000, 4.000000, 4.000000, 4.000000, 4.000000, 4.000000, 4.000000, 4.000000, 4.000000, 4.000000, 4.000000, 4.000000, 4.000000, 4.000000, 4.000000
108.000000, 0.000000, 4206.153809, 4168.205078, 4193.333008, 4180.000000, 4220.512695, 4202.051270, 4199.487305, 4187.692383, 4197.436035, 4212.820313, 4181.025391, 4192.307617, 4163.589844, 4201.538574, 3498.000000, 8147.000000, 8164.000000, 0.000000, 0.000000, 0.000000, 17282.000000, 600.512817, 4.000000, 4.000000, 4.000000, 4.000000, 4.000000, 4.000000, 4.000000, 4.000000, 4.000000, 4.000000, 4.000000, 4.000000, 4.000000, 4.000000, 4.000000, 4.000000
109.000000, 0.000000, 4202.051270, 4155.897461, 4190.256348, 4166.153809, 4207.179199, 4201.538574, 4195.897461, 4177.436035, 4181.025391, 4195.384277, 4174.871582, 4191.281738, 4166.666504, 4205.641113, 2306.000000, 8147.000000, 8162.000000, 0.000000, 0.000000, 0.000000, 17282.000000, 608.205139, 4.000000, 4.000000, 4.000000, 4.000000, 4.000000, 4.000000, 4.000000, 4.000000, 4.000000, 4.000000, 4.000000, 4.000000, 4.000000, 4.000000, 4.000000, 4.000000
110.000000, 0.000000, 4198.974121, 4149.743652, 4196.410156, 4161.025391, 4197.948730, 4197.436035, 4197.948730, 4182.051270, 4178.461426, 4192.307617, 4176.922852, 4197.436035, 4173.333008, 4207.692383, 3170.000000, 8147.000000, 8162.000000, 0.000000, 0.000000, 0.000000, 17282.000000, 616.410217, 4.000000, 4.000000, 4.000000, 4.000000, 4.000000, 4.000000, 4.000000, 4.000000, 4.000000, 4.000000, 4.000000, 4.000000, 4.000000, 4.000000, 4.000000, 4.000000
111.000000, 0.000000, 4208.717773, 4156.922852, 4208.205078, 4166.153809, 4212.820313, 4208.717773, 4209.743652, 4195.897461, 4197.948730, 4210.769043, 4193.333008, 4213.846191, 4183.589844, 4217.948730, 1781.000000, 8152.000000, 8163.000000, 0.000000, 0.000000, 0.000000, 17282.000000, 624.102539, 4.000000, 4.000000, 4.000000, 4.000000, 4.000000, 4.000000, 4.000000, 4.000000, 4.000000, 4.000000, 4.000000, 4.000000, 4.000000, 4.000000, 4.000000, 4.000000
112.000000, 0.000000, 4215.384277, 4156.922852, 4213.846191, 4165.641113, 4226.666504, 4224.102539, 4210.256348, 4207.179199, 4210.769043, 4224.102539, 4210.769043, 4215.897461, 4191.794922, 4211.281738, 3498.000000, 8152.000000, 8163.000000, 0.000000, 0.000000, 0.000000, 17282.000000, 631.794861, 4.000000, 4.000000, 4.000000, 4.000000, 4.000000, 4.000000, 4.000000, 4.000000, 4.000000, 4.000000, 4.000000, 4.000000, 4.000000, 4.000000, 4.000000, 4.000000
113.000000, 0.000000, 4210.256348, 4137.436035, 4205.127930, 4152.820313, 4216.410156, 4201.538574, 4199.487305, 4204.102539, 4199.487305, 4221.538574, 4202.051270, 4211.794922, 4178.461426, 4202.051270, 2306.000000, 8165.000000, 8182.000000, 0.000000, 0.000000, 0.000000, 17282.000000, 639.487183, 4.000000, 4.000000, 4.000000, 4.000000, 4.000000, 4.000000, 4.000000, 4.000000, 4.000000, 4.000000, 4.000000, 4.000000, 4.000000, 4.000000, 4.000000, 4.000000
114.000000, 0.000000, 4196.410156, 4123.076660, 4193.333008, 4138.974121, 4200.000000, 4170.769043, 4196.922852, 4188.717773, 4184.615234, 4209.743652, 4183.589844, 4200.512695, 4164.615234, 4198.974121, 3170.000000, 8165.000000, 8182.000000, 0.000000, 0.000000, 0.000000, 17282.000000, 647.179443, 4.000000, 4.000000, 4.000000, 4.000000, 4.000000, 4.000000, 4.000000, 4.000000, 4.000000, 4.000000, 4.000000, 4.000000, 4.000000, 4.000000, 4.000000, 4.000000
115.000000, 0.000000, 4196.922852, 4124.615234, 4198.974121, 4137.436035, 4194.871582, 4189.743652, 4201.538574, 4186.153809, 4181.025391, 4211.281738, 4189.743652, 4200.000000, 4174.358887, 4199.487305, 1781.000000, 8166.000000, 8194.000000, 0.000000, 0.000000, 0.000000, 17282.000000, 654.871765, 4.000000, 4.000000, 4.000000, 4.000000, 4.000000, 4.000000, 4.000000, 4.000000, 4.000000, 4.000000, 4.000000, 4.000000, 4.000000, 4.000000, 4.000000, 4.000000
116.000000, 0.000000, 4209.230469, 4124.102539, 4206.666504, 4142.563965, 4193.333008, 4206.153809, 4192.820313, 4191.281738, 4188.717773, 4216.410156, 4202.051270, 4215.384277, 4178.974121, 4212.307617, 3498.000000, 8166.000000, 8194.000000, 0.000000, 0.000000, 0.000000, 17282.000000, 663.076904, 4.000000, 4.000000, 4.000000, 4.000000, 4.000000, 4.000000, 4.000000, 4.000000, 4.000000, 4.000000, 4.000000, 4.000000, 4.000000, 4.000000, 4.000000, 4.000000
117.000000, 0.000000, 4213.846191, 4125.641113, 4200.000000, 4145.641113, 4198.974121, 4187.179199, 4185.127930, 4189.230469, 4197.436035, 4209.743652, 4197.436035, 4211.281738, 4173.846191, 4208.205078, 2306.000000, 8182.000000, 8194.000000, 0.000000, 0.000000, 0.000000, 17282.000000, 670.769226, 4.000000, 4.000000, 4.000000, 4.000000, 4.000000, 4.000000, 4.000000, 4.000000, 4.000000, 4.000000, 4.000000, 4.000000, 4.000000, 4.000000, 4.000000, 4.000000
118.000000, 0.000000, 4216.922852, 4135.384277, 4200.512695, 4147.692383, 4212.820313, 4193.333008, 4196.410156, 4190.256348, 4196.922852, 4206.666504, 4196.410156, 4210.256348, 4179.487305, 4204.615234, 3170.000000, 8182.000000, 8194.000000, 0.000000, 0.000000, 0.000000, 17282.000000, 678.461548, 4.000000, 4.000000, 4.000000, 4.000000, 4.000000, 4.000000, 4.000000, 4.000000, 4.000000, 4.000000, 4.000000, 4.000000, 4.000000, 4.000000, 4.000000, 4.000000
119.000000, 0.000000, 4218.461426, 4141.538574, 4212.307617, 4151.794922, 4212.307617, 4220.000000, 4208.205078, 4200.000000, 4201.538574, 4214.358887, 4204.615234, 4214.358887, 4183.589844, 4209.743652, 1781.000000, 8184.000000, 8195.000000, 0.000000, 0.000000, 0.000000, 17282.000000, 686.153809, 4.000000, 4.000000, 4.000000, 4.000000, 4.000000, 4.000000, 4.000000, 4.000000, 4.000000, 4.000000, 4.000000, 4.000000, 4.000000, 4.000000, 4.000000, 4.000000
120.000000, 0.000000, 4217.948730, 4140.000000, 4216.410156, 4150.769043, 4191.794922, 4202.563965, 4205.127930, 4200.000000, 4208.205078, 4213.846191, 4197.436035, 4206.666504, 4169.743652, 4202.563965, 3498.000000, 8184.000000, 8195.000000, 0.000000, 0.000000, 0.000000, 17282.000000, 694.358948, 4.000000, 4.000000, 4.000000, 4.000000, 4.000000, 4.000000, 4.000000, 4.000000, 4.000000, 4.000000, 4.000000, 4.000000, 4.000000, 4.000000, 4.000000, 4.000000
121.000000, 0.000000, 4217.948730, 4131.281738, 4213.333008, 4146.153809, 4185.127930, 4172.307617, 4196.410156, 4194.358887, 4195.384277, 4208.205078, 4190.256348, 4205.641113, 4166.153809, 4206.666504, 2306.000000, 8187.000000, 8201.000000, 0.000000, 0.000000, 0.000000, 17282.000000, 702.051270, 4.000000, 4.000000, 4.000000, 4.000000, 4.000000, 4.000000, 4.000000, 4.000000, 4.000000, 4.000000, 4.000000, 4.000000, 4.000000, 4.000000, 4.000000, 4.000000
122.000000, 0.000000, 4220.000000, 4128.717773, 4215.384277, 4152.307617, 4208.205078, 4183.589844, 4197.436035, 4200.512695, 4188.717773, 4220.512695, 4201.538574, 4206.666504, 4179.487305, 4207.179199, 3170.000000, 8187.000000, 8201.000000, 0.000000, 0.000000, 0.000000, 17282.000000, 709.743591, 4.000000, 4.000000, 4.000000, 4.000000, 4.000000, 4.000000, 4.000000, 4.000000, 4.000000, 4.000000, 4.000000, 4.000000, 4.000000, 4.000000, 4.000000, 4.000000
123.000000, 0.000000, 4227.179199, 4137.948730, 4218.461426, 4156.922852, 4217.948730, 4202.051270, 4200.512695, 4207.179199, 4208.717773, 4218.974121, 4201.025391, 4211.281738, 4179.487305, 4206.153809, 1781.000000, 8184.000000, 8199.000000, 0.000000, 0.000000, 0.000000, 17282.000000, 717.435852, 4.000000, 4.000000, 4.000000, 4.000000, 4.000000, 4.000000, 4.000000, 4.000000, 4.000000, 4.000000, 4.000000, 4.000000, 4.000000, 4.000000, 4.000000, 4.000000
124.000000, 0.000000, 4224.615234, 4139.487305, 4216.410156, 4149.230469, 4196.410156, 4207.692383, 4202.051270, 4205.641113, 4222.051270, 4203.076660, 4187.179199, 4209.743652, 4170.256348, 4206.153809, 3498.000000, 8184.000000, 8199.000000, 0.000000, 0.000000, 0.000000, 17282.000000, 725.128174, 4.000000, 4.000000, 4.000000, 4.000000, 4.000000, 4.000000, 4.000000, 4.000000, 4.000000, 4.000000, 4.000000, 4.000000, 4.000000, 4.000000, 4.000000, 4.000000
125.000000, 0.000000, 4216.922852, 4123.589844, 4212.820313, 4144.102539, 4182.051270, 4200.000000, 4199.487305, 4198.974121, 4202.563965, 4203.076660, 4182.051270, 4202.051270, 4166.666504, 4200.512695, 2306.000000, 8181.000000, 8208.000000, 0.000000, 0.000000, 0.000000, 17282.000000, 733.333313, 4.000000, 4.000000, 4.000000, 4.000000, 4.000000, 4.000000, 4.000000, 4.000000, 4.000000, 4.000000, 4.000000, 4.000000, 4.000000, 4.000000, 4.000000, 4.000000
126.000000, 0.000000, 4220.512695, 4122.563965, 4213.333008, 4147.692383, 4194.871582, 4185.641113, 4188.205078, 4189.743652, 4187.179199, 4205.641113, 4185.641113, 4208.717773, 4170.256348, 4208.205078, 3170.000000, 8181.000000, 8208.000000, 0.000000, 0.000000, 0.000000, 17282.000000, 741.025635, 4.000000, 4.000000, 4.000000, 4.000000, 4.000000, 4.000000, 4.000000, 4.000000, 4.000000, 4.000000, 4.000000, 4.000000, 4.000000, 4.000000, 4.000000, 4.000000
127.000000, 0.000000, 4224.102539, 4130.256348, 4212.307617, 4146.153809, 4211.281738, 4182.051270, 4179.487305, 4183.589844, 4185.641113, 4196.410156, 4187.692383, 4206.153809, 4170.769043, 4204.615234, 55.000000, 8181.000000, 8215.000000, 0.000000, 0.000000, 0.000000, 17282.000000, 748.717957, 4.000000, 4.000000, 4.000000, 4.000000, 4.000000, 4.000000, 4.000000, 4.000000, 4.000000, 4.000000, 4.000000, 4.000000, 4.000000, 4.000000, 4.000000, 4.000000
0.000000, 0.000000, 4213.846191, 4111.794922, 4205.127930, 4137.436035, 4204.615234, 4189.230469, 4189.230469, 4182.563965, 4169.230469, 4184.102539, 4177.948730, 4196.410156, 4157.436035, 4197.436035, 3599.000000, 8181.000000, 8215.000000, 0.000000, 0.000000, 0.000000, 17282.000000, 756.410217, 4.000000, 4.000000, 4.000000, 4.000000, 4.000000, 4.000000, 4.000000, 4.000000, 4.000000, 4.000000, 4.000000, 4.000000, 4.000000, 4.000000, 4.000000, 4.000000
1.000000, 0.000000, 4201.025391, 4097.436035, 4197.436035, 4136.410156, 4186.666504, 4201.538574, 4206.153809, 4187.179199, 4166.153809, 4175.384277, 4163.589844, 4191.794922, 4147.179199, 4202.051270, 3630.000000, 8187.000000, 8209.000000, 0.000000, 0.000000, 0.000000, 17282.000000, 764.102539, 4.000000, 4.000000, 4.000000, 4.000000, 4.000000, 4.000000, 4.000000, 4.000000, 4.000000, 4.000000, 4.000000, 4.000000, 4.000000, 4.000000, 4.000000, 4.000000
2.000000, 0.000000, 4206.153809, 4113.846191, 4198.461426, 4140.000000, 4184.102539, 4217.436035, 4206.153809, 4197.436035, 4199.487305, 4180.512695, 4170.256348, 4195.897461, 4157.948730, 4202.563965, 2761.000000, 8187.000000, 8209.000000, 0.000000, 0.000000, 0.000000, 17282.000000, 772.307678, 4.000000, 4.000000, 4.000000, 4.000000, 4.000000, 4.000000, 4.000000, 4.000000, 4.000000, 4.000000, 4.000000, 4.000000, 4.000000, 4.000000, 4.000000, 4.000000
3.000000, 0.000000, 4218.974121, 4125.641113, 4205.127930, 4137.948730, 4201.025391, 4221.025391, 4201.538574, 4201.025391, 4219.487305, 4200.512695, 4188.717773, 4212.820313, 4172.307617, 4210.256348, 3570.000000, 8186.000000, 8204.000000, 0.000000, 0.000000, 0.000000, 17282.000000, 780.000000, 4.000000, 4.000000, 4.000000, 4.000000, 4.000000, 4.000000, 4.000000, 4.000000, 4.000000, 4.000000, 4.000000, 4.000000, 4.000000, 4.000000, 4.000000, 4.000000
4.000000, 0.000000, 4212.307617, 4120.000000, 4203.076660, 4136.922852, 4207.692383, 4193.333008, 4197.948730, 4188.205078, 4204.102539, 4208.205078, 4186.666504, 4208.717773, 4172.307617, 4207.179199, 3530.000000, 8186.000000, 8204.000000, 0.000000, 0.000000, 0.000000, 17282.000000, 787.692261, 4.000000, 4.000000, 4.000000, 4.000000, 4.000000, 4.000000, 4.000000, 4.000000, 4.000000, 4.000000, 4.000000, 4.000000, 4.000000, 4.000000, 4.000000, 4.000000
5.000000, 0.000000, 4212.307617, 4122.563965, 4202.051270, 4145.641113, 4191.794922, 4181.538574, 4186.153809, 4184.102539, 4204.102539, 4207.179199, 4186.153809, 4207.692383, 4175.384277, 4202.563965, 3529.000000, 8193.000000, 8205.000000, 0.000000, 0.000000, 0.000000, 17282.000000, 795.384583, 4.000000, 4.000000, 4.000000, 4.000000, 4.000000, 4.000000, 4.000000, 4.000000, 4.000000, 4.000000, 4.000000, 4.000000, 4.000000, 4.000000, 4.000000, 4.000000
6.000000, 0.000000, 4219.487305, 4126.153809, 4207.692383, 4148.717773, 4185.127930, 4196.922852, 4187.692383, 4191.794922, 4211.281738, 4215.897461, 4201.025391, 4218.461426, 4178.974121, 4209.743652, 3233.000000, 8193.000000, 8205.000000, 0.000000, 0.000000, 0.000000, 17282.000000, 803.076904, 4.000000, 4.000000, 4.000000, 4.000000, 4.000000, 4.000000, 4.000000, 4.000000, 4.000000, 4.000000, 4.000000, 4.000000, 4.000000, 4.000000, 4.000000, 4.000000
7.000000, 0.000000, 4217.948730, 4124.615234, 4210.256348, 4146.153809, 4196.410156, 4198.461426, 4201.538574, 4190.256348, 4193.333008, 4222.051270, 4205.641113, 4213.333008, 4177.948730, 4203.076660, 3198.000000, 8194.000000, 8207.000000, 0.000000, 0.000000, 0.000000, 17282.000000, 811.282043, 4.000000, 4.000000, 4.000000, 4.000000, 4.000000, 4.000000, 4.000000, 4.000000, 4.000000, 4.000000, 4.000000, 4.000000, 4.000000, 4.000000, 4.000000, 4.000000
8.000000, 0.000000, 4220.512695, 4134.358887, 4215.384277, 4151.794922, 4206.666504, 4196.410156, 4196.410156, 4193.846191, 4190.769043, 4215.897461, 4200.000000, 4216.922852, 4180.000000, 4204.615234, 3534.000000, 8194.000000, 8207.000000, 0.000000, 0.000000, 0.000000, 17282.000000, 818.974365, 4.000000, 4.000000, 4.000000, 4.000000, 4.000000, 4.000000, 4.000000, 4.000000, 4.000000, 4.000000, 4.000000, 4.000000, 4.000000, 4.000000, 4.000000, 4.000000
9.000000, 0.000000, 4218.974121, 4139.487305, 4216.922852, 4154.871582, 4199.487305, 4203.589844, 4187.179199, 4201.025391, 4210.769043, 4209.743652, 4201.025391, 4217.436035, 4179.487305, 4208.205078, 3541.000000, 8204.000000, 8197.000000, 0.000000, 0.000000, 0.000000, 17282.000000, 826.666626, 4.000000, 4.000000, 4.000000, 4.000000, 4.000000, 4.000000, 4.000000, 4.000000, 4.000000, 4.000000, 4.000000, 4.000000, 4.000000, 4.000000, 4.000000, 4.000000
10.000000, 0.000000, 4216.410156, 4126.666504, 4207.692383, 4147.692383, 4183.589844, 4196.410156, 4194.871582, 4194.358887, 4207.692383, 4208.717773, 4202.563965, 4211.281738, 4173.846191, 4204.615234, 3169.000000, 8204.000000, 8197.000000, 0.000000, 0.000000, 0.000000, 17282.000000, 834.358948, 4.000000, 4.000000, 4.000000, 4.000000, 4.000000, 4.000000, 4.000000, 4.000000, 4.000000, 4.000000, 4.000000, 4.000000, 4.000000, 4.000000, 4.000000, 4.000000
11.000000, 0.000000, 4218.974121, 4117.948730, 4204.102539, 4144.102539, 4183.589844, 4194.358887, 4200.512695, 4188.717773, 4194.871582, 4212.307617, 4196.410156, 4212.820313, 4171.794922, 4209.743652, 1789.000000, 8206.000000, 8197.000000, 0.000000, 0.000000, 0.000000, 17282.000000, 842.051270, 4.000000, 4.000000, 4.000000, 4.000000, 4.000000, 4.000000, 4.000000, 4.000000, 4.000000, 4.000000, 4.000000, 4.000000, 4.000000, 4.000000, 4.000000, 4.000000
12.000000, 0.000000, 4216.410156, 4129.230469, 4208.205078, 4149.743652, 4200.512695, 4210.769043, 4200.512695, 4197.436035, 4206.666504, 4215.897461, 4195.897461, 4209.743652, 4171.281738, 4207.179199, 3500.000000, 8206.000000, 8197.000000, 0.000000, 0.000000, 0.000000, 17282.000000, 850.256409, 4.000000, 4.000000, 4.000000, 4.000000, 4.000000, 4.000000, 4.000000, 4.000000, 4.000000, 4.000000, 4.000000, 4.000000, 4.000000, 4.000000, 4.000000, 4.000000
13.000000, 0.000000, 4210.769043, 4136.410156, 4205.641113, 4148.205078, 4205.127930, 4200.000000, 4203.589844, 4200.512695, 4219.487305, 4213.333008, 4198.974121, 4211.281738, 4170.256348, 4207.179199, 2311.000000, 8231.000000, 8199.000000, 0.000000, 0.000000, 0.000000, 17282.000000, 857.948669, 4.000000, 4.000000, 4.000000, 4.000000, 4.000000, 4.000000, 4.000000, 4.000000, 4.000000, 4.000000, 4.000000, 4.000000, 4.000000, 4.000000, 4.000000, 4.000000
14.000000, 0.000000, 4207.692383, 4127.179199, 4203.076660, 4143.589844, 4192.820313, 4181.025391, 4202.051270, 4197.948730, 4220.000000, 4213.846191, 4200.000000, 4211.794922, 4172.820313, 4207.179199, 3169.000000, 8231.000000, 8199.000000, 0.000000, 0.000000, 0.000000, 17282.000000, 865.640991, 4.000000, 4.000000, 4.000000, 4.000000, 4.000000, 4.000000, 4.000000, 4.000000, 4.000000, 4.000000, 4.000000, 4.000000, 4.000000, 4.000000, 4.000000, 4.000000
15.000000, 0.000000, 4213.333008, 4126.153809, 4205.641113, 4148.717773, 4188.205078, 4196.410156, 4200.000000, 4201.025391, 4213.846191, 4217.948730, 4201.025391, 4210.256348, 4171.281738, 4203.589844, 1789.000000, 8233.000000, 8199.000000, 0.000000, 0.000000, 0.000000, 17282.000000, 873.333313, 4.000000, 4.000000, 4.000000, 4.000000, 4.000000, 4.000000, 4.000000, 4.000000, 4.000000, 4.000000, 4.000000, 4.000000, 4.000000, 4.000000, 4.000000, 4.000000
16.000000, 0.000000, 4216.410156, 4140.000000, 4206.666504, 4156.410156, 4185.641113, 4214.358887, 4201.025391, 4202.563965, 4210.769043, 4217.436035, 4203.589844, 4215.897461, 4171.281738, 4208.717773, 0.000000, 8233.000000, 8199.000000, 0.000000, 0.000000, 0.000000, 17282.000000, 881.025635, 4.000000, 4.000000, 4.000000, 4.000000, 4.000000, 4.000000, 4.000000, 4.000000, 4.000000, 4.000000, 4.000000, 4.000000, 4.000000, 4.000000, 4.000000, 4.000000
17.000000, 0.000000, 4207.692383, 4142.051270, 4199.487305, 4150.769043, 4183.589844, 4198.461426, 4195.384277, 4195.897461, 4217.436035, 4215.897461, 4198.974121, 4211.281738, 4172.307617, 4199.487305, 0.000000, 8240.000000, 8203.000000, 0.000000, 0.000000, 0.000000, 17282.000000, 888.717957, 4.000000, 4.000000, 4.000000, 4.000000, 4.000000, 4.000000, 4.000000, 4.000000, 4.000000, 4.000000, 4.000000, 4.000000, 4.000000, 4.000000, 4.000000, 4.000000
18.000000, 0.000000, 4200.000000, 4124.615234, 4188.205078, 4136.922852, 4192.307617, 4175.384277, 4193.846191, 4188.205078, 4218.461426, 4213.333008, 4187.692383, 4206.153809, 4167.179199, 4197.948730, 0.000000, 8240.000000, 8203.000000, 0.000000, 0.000000, 0.000000, 17282.000000, 896.923035, 4.000000, 4.000000, 4.000000, 4.000000, 4.000000, 4.000000, 4.000000, 4.000000, 4.000000, 4.000000, 4.000000, 4.000000, 4.000000, 4.000000, 4.000000, 4.000000
19.000000, 0.000000, 4201.538574, 4122.051270, 4190.256348, 4143.589844, 4200.512695, 4188.717773, 4202.051270, 4193.846191, 4216.410156, 4211.281738, 4185.641113, 4199.487305, 4167.179199, 4205.641113, 0.000000, 8249.000000, 8220.000000, 0.000000, 0.000000, 0.000000, 17282.000000, 904.615356, 4.000000, 4.000000, 4.000000, 4.000000, 4.000000, 4.000000, 4.000000, 4.000000, 4.000000, 4.000000, 4.000000, 4.000000, 4.000000, 4.000000, 4.000000, 4.000000
20.000000, 0.000000, 4210.769043, 4137.948730, 4201.538574, 4156.410156, 4192.307617, 4214.358887, 4206.153809, 4204.102539, 4215.897461, 4212.307617, 4189.743652, 4200.512695, 4172.307617, 4202.563965, 0.000000, 8249.000000, 8220.000000, 0.000000, 0.000000, 0.000000, 17282.000000, 912.307678, 4.000000, 4.000000, 4.000000, 4.000000, 4.000000, 4.000000, 4.000000, 4.000000, 4.000000, 4.000000, 4.000000, 4.000000, 4.000000, 4.000000, 4.000000, 4.000000
21.000000, 0.000000, 4213.846191, 4138.461426, 4204.102539, 4153.333008, 4180.512695, 4211.794922, 4196.410156, 4192.307617, 4202.051270, 4213.333008, 4191.281738, 4215.384277, 4171.794922, 4207.179199, 0.000000, 8256.000000, 8225.000000, 0.000000, 0.000000, 0.000000, 17282.000000, 920.000000, 4.000000, 4.000000, 4.000000, 4.000000, 4.000000, 4.000000, 4.000000, 4.000000, 4.000000, 4.000000, 4.000000, 4.000000, 4.000000, 4.000000, 4.000000, 4.000000
22.000000, 0.000000, 4214.871582, 4137.436035, 4203.589844, 4155.384277, 4193.333008, 4188.717773, 4183.589844, 4182.051270, 4190.769043, 4216.410156, 4194.871582, 4214.871582, 4169.743652, 4203.589844, 0.000000, 8256.000000, 8225.000000, 0.000000, 0.000000, 0.000000, 17282.000000, 927.692261, 4.000000, 4.000000, 4.000000, 4.000000, 4.000000, 4.000000, 4.000000, 4.000000, 4.000000, 4.000000, 4.000000, 4.000000, 4.000000, 4.000000, 4.000000, 4.000000
23.000000, 0.000000, 4225.641113, 4146.666504, 4209.743652, 4164.615234, 4207.179199, 4177.948730, 4188.717773, 4195.897461, 4195.897461, 4223.589844, 4202.051270, 4217.948730, 4177.436035, 4205.641113, 0.000000, 8260.000000, 8226.000000, 0.000000, 0.000000, 0.000000, 17282.000000, 935.384583, 4.000000, 4.000000, 4.000000, 4.000000, 4.000000, 4.000000, 4.000000, 4.000000, 4.000000, 4.000000, 4.000000, 4.000000, 4.000000, 4.000000, 4.000000, 4.000000
24.000000, 0.000000, 4226.666504, 4146.153809, 4209.230469, 4161.025391, 4195.384277, 4190.769043, 4202.563965, 4203.076660, 4196.922852, 4221.538574, 4204.102539, 4215.897461, 4186.666504, 4209.743652, 0.000000, 8260.000000, 8226.000000, 0.000000, 0.000000, 0.000000, 17282.000000, 943.589722, 4.000000, 4.000000, 4.000000, 4.000000, 4.000000, 4.000000, 4.000000, 4.000000, 4.000000, 4.000000, 4.000000, 4.000000, 4.000000, 4.000000, 4.000000, 4.000000
25.000000, 0.000000, 4226.666504, 4145.127930, 4206.153809, 4157.436035, 4187.692383, 4218.974121, 4207.692383, 4197.948730, 4205.127930, 4209.230469, 4202.563965, 4210.256348, 4183.589844, 4204.615234, 0.000000, 8264.000000, 8230.000000, 0.000000, 0.000000, 0.000000, 17282.000000, 951.282043, 4.000000, 4.000000, 4.000000, 4.000000, 4.000000, 4.000000, 4.000000, 4.000000, 4.000000, 4.000000, 4.000000, 4.000000, 4.000000, 4.000000, 4.000000, 4.000000
26.000000, 0.000000, 4229.230469, 4154.871582, 4207.179199, 4162.051270, 4192.307617, 4219.487305, 4202.051270, 4198.461426, 4214.358887, 4200.000000, 4203.076660, 4220.000000, 4175.897461, 4208.205078, 0.000000, 8264.000000, 8230.000000, 0.000000, 0.000000, 0.000000, 17282.000000, 958.974365, 4.000000, 4.000000, 4.000000, 4.000000, 4.000000, 4.000000, 4.000000, 4.000000, 4.000000, 4.000000, 4.000000, 4.000000, 4.000000, 4.000000, 4.000000, 4.000000
27.000000, 0.000000, 4218.461426, 4147.692383, 4197.436035, 4152.820313, 4188.205078, 4193.846191, 4198.974121, 4198.974121, 4204.102539, 4200.000000, 4199.487305, 4212.307617, 4170.769043, 4202.563965, 0.000000, 8251.000000, 8233.000000, 0.000000, 0.000000, 0.000000, 17282.000000, 966.666626, 4.000000, 4.000000, 4.000000, 4.000000, 4.000000, 4.000000, 4.000000, 4.000000, 4.000000, 4.000000, 4.000000, 4.000000, 4.000000, 4.000000, 4.000000, 4.000000
28.000000, 0.000000, 4210.769043, 4132.307617, 4189.743652, 4142.563965, 4182.563965, 4191.794922, 4201.025391, 4198.974121, 4204.615234, 4206.666504, 4197.436035, 4206.153809, 4168.717773, 4204.102539, 0.000000, 8251.000000, 8233.000000, 0.000000, 0.000000, 0.000000, 17282.000000, 974.871765, 4.000000, 4.000000, 4.000000, 4.000000, 4.000000, 4.000000, 4.000000, 4.000000, 4.000000, 4.000000, 4.000000, 4.000000, 4.000000, 4.000000, 4.000000, 4.000000
29.000000, 0.000000, 4212.820313, 4141.538574, 4195.384277, 4151.281738, 4190.769043, 4204.102539, 4204.102539, 4203.076660, 4221.538574, 4218.461426, 4201.538574, 4213.846191, 4176.410156, 4212.820313, 0.000000, 8232.000000, 8234.000000, 0.000000, 0.000000, 0.000000, 17282.000000, 982.564087, 4.000000, 4.000000, 4.000000, 4.000000, 4.000000, 4.000000, 4.000000, 4.000000, 4.000000, 4.000000, 4.000000, 4.000000, 4.000000, 4.000000, 4.000000, 4.000000
30.000000, 0.000000, 4219.487305, 4158.974121, 4202.563965, 4158.461426, 4196.922852, 4210.769043, 4204.102539, 4205.641113, 4235.897461, 4223.589844, 4205.641113, 4212.307617, 4184.102539, 4206.153809, 0.000000, 8232.000000, 8234.000000, 0.000000, 0.000000, 0.000000, 17282.000000, 990.256409, 4.000000, 4.000000, 4.000000, 4.000000, 4.000000, 4.000000, 4.000000, 4.000000, 4.000000, 4.000000, 4.000000, 4.000000, 4.000000, 4.000000, 4.000000, 4.000000
31.000000, 0.000000, 4222.051270, 4156.922852, 4204.102539, 4155.384277, 4194.871582, 4212.307617, 4201.538574, 4203.589844, 4236.410156, 4214.358887, 4201.025391, 4208.205078, 4176.922852, 4206.666504, 0.000000, 8219.000000, 8235.000000, 0.000000, 0.000000, 0.000000, 17282.000000, 997.948669, 4.000000, 4.000000, 4.000000, 4.000000, 4.000000, 4.000000, 4.000000, 4.000000, 4.000000, 4.000000, 4.000000, 4.000000, 4.000000, 4.000000, 4.000000, 4.000000
32.000000, 0.000000, 4216.410156, 4146.153809, 4205.641113, 4154.871582, 4191.281738, 4210.256348, 4201.538574, 4201.538574, 4218.461426, 4207.179199, 4197.948730, 4202.051270, 4167.692383, 4204.102539, 0.000000, 8219.000000, 8235.000000, 0.000000, 0.000000, 0.000000, 17283.000000, 5.641026, 4.000000, 4.000000, 4.000000, 4.000000, 4.000000, 4.000000, 4.000000, 4.000000, 4.000000, 4.000000, 4.000000, 4.000000, 4.000000, 4.000000, 4.000000, 4.000000
33.000000, 0.000000, 4214.358887, 4140.512695, 4210.256348, 4155.897461, 4185.127930, 4215.897461, 4201.538574, 4203.076660, 4207.179199, 4205.127930, 4198.974121, 4210.256348, 4170.256348, 4202.563965, 0.000000, 8193.000000, 8224.000000, 0.000000, 0.000000, 0.000000, 17283.000000, 13.333333, 4.000000, 4.000000, 4.000000, 4.000000, 4.000000, 4.000000, 4.000000, 4.000000, 4.000000, 4.000000, 4.000000, 4.000000, 4.000000, 4.000000, 4.000000, 4.000000
34.000000, 0.000000, 4211.794922, 4139.487305, 4198.461426, 4150.256348, 4183.589844, 4207.692383, 4196.922852, 4197.436035, 4208.717773, 4196.922852, 4189.743652, 4212.307617, 4168.717773, 4205.641113, 0.000000, 8193.000000, 8224.000000, 0.000000, 0.000000, 0.000000, 17283.000000, 21.538462, 4.000000, 4.000000, 4.000000, 4.000000, 4.000000, 4.000000, 4.000000, 4.000000, 4.000000, 4.000000, 4.000000, 4.000000, 4.000000, 4.000000, 4.000000, 4.000000
35.000000, 0.000000, 4207.692383, 4146.153809, 4183.589844, 4150.769043, 4192.307617, 4181.538574, 4195.384277, 4184.102539, 4206.153809, 4193.333008, 4182.051270, 4198.461426, 4163.589844, 4200.000000, 0.000000, 8186.000000, 8215.000000, 0.000000, 0.000000, 0.000000, 17283.000000, 29.230768, 4.000000, 4.000000, 4.000000, 4.000000, 4.000000, 4.000000, 4.000000, 4.000000, 4.000000, 4.000000, 4.000000, 4.000000, 4.000000, 4.000000, 4.000000, 4.000000
36.000000, 0.000000, 4214.358887, 4155.897461, 4193.333008, 4161.538574, 4189.743652, 4190.256348, 4201.538574, 4189.230469, 4205.641113, 4202.563965, 4191.794922, 4204.102539, 4168.717773, 4209.230469, 0.000000, 8186.000000, 8215.000000, 0.000000, 0.000000, 0.000000, 17283.000000, 36.923077, 4.000000, 4.000000, 4.000000, 4.000000, 4.000000, 4.000000, 4.000000, 4.000000, 4.000000, 4.000000, 4.000000, 4.000000, 4.000000, 4.000000, 4.000000, 4.000000
37.000000, 0.000000, 4218.974121, 4151.794922, 4203.076660, 4163.076660, 4167.692383, 4212.820313, 4198.974121, 4201.025391, 4198.974121, 4213.846191, 4201.025391, 4207.692383, 4174.871582, 4209.743652, 0.000000, 8165.000000, 8203.000000, 0.000000, 0.000000, 0.000000, 17283.000000, 44.615383, 4.000000, 4.000000, 4.000000, 4.000000, 4.000000, 4.000000, 4.000000, 4.000000, 4.000000, 4.000000, 4.000000, 4.000000, 4.000000, 4.000000, 4.000000, 4.000000
38.000000, 0.000000, 4214.358887, 4141.538574, 4193.333008, 4156.410156, 4163.589844, 4192.307617, 4191.794922, 4192.820313, 4184.102539, 4206.666504, 4196.922852, 4203.589844, 4169.743652, 4202.051270, 0.000000, 8165.000000, 8203.000000, 0.000000, 0.000000, 0.000000, 17283.000000, 52.307690, 4.000000, 4.000000, 4.000000, 4.000000, 4.000000, 4.000000, 4.000000, 4.000000, 4.000000, 4.000000, 4.000000, 4.000000, 4.000000, 4.000000, 4.000000, 4.000000
39.000000, 0.000000, 4212.820313, 4146.666504, 4194.871582, 4165.127930, 4190.769043, 4180.000000, 4197.948730, 4188.205078, 4200.000000, 4188.205078, 4190.256348, 4208.717773, 4163.589844, 4209.743652, 0.000000, 8158.000000, 8200.000000, 0.000000, 0.000000, 0.000000, 17283.000000, 60.000000, 4.000000, 4.000000, 4.000000, 4.000000, 4.000000, 4.000000, 4.000000, 4.000000, 4.000000, 4.000000, 4.000000, 4.000000, 4.000000, 4.000000, 4.000000, 4.000000
40.000000, 0.000000, 4224.615234, 4159.487305, 4212.820313, 4176.922852, 4204.102539, 4213.846191, 4204.102539, 4199.487305, 4225.641113, 4190.769043, 4195.897461, 4215.897461, 4173.846191, 4211.281738, 0.000000, 8158.000000, 8200.000000, 0.000000, 0.000000, 0.000000, 17283.000000, 68.205124, 4.000000, 4.000000, 4.000000, 4.000000, 4.000000, 4.000000, 4.000000, 4.000000, 4.000000, 4.000000, 4.000000, 4.000000, 4.000000, 4.000000, 4.000000, 4.000000
41.000000, 0.000000, 4230.256348, 4155.897461, 4213.846191, 4174.358887, 4192.307617, 4224.615234, 4201.538574, 4204.102539, 4218.974121, 4208.205078, 4205.127930, 4224.102539, 4181.025391, 4211.794922, 0.000000, 8145.000000, 8189.000000, 0.000000, 0.000000, 0.000000, 17283.000000, 75.897430, 4.000000, 4.000000, 4.000000, 4.000000, 4.000000, 4.000000, 4.000000, 4.000000, 4.000000, 4.000000, 4.000000, 4.000000, 4.000000, 4.000000, 4.000000, 4.000000
42.000000, 0.000000, 4219.487305, 4149.743652, 4204.102539, 4170.769043, 4194.871582, 4206.153809, 4206.153809, 4197.948730, 4210.769043, 4209.743652, 4207.692383, 4217.948730, 4176.922852, 4207.179199, 0.000000, 8145.000000, 8189.000000, 0.000000, 0.000000, 0.000000, 17283.000000, 83.589745, 4.000000, 4.000000, 4.000000, 4.000000, 4.000000, 4.000000, 4.000000, 4.000000, 4.000000, 4.000000, 4.000000, 4.000000, 4.000000, 4.000000, 4.000000, 4.000000
43.000000, 0.000000, 4218.461426, 4155.384277, 4205.127930, 4173.846191, 4198.461426, 4202.051270, 4210.256348, 4194.871582, 4212.820313, 4201.538574, 4203.589844, 4212.307617, 4178.974121, 4204.615234, 0.000000, 8144.000000, 8179.000000, 0.000000, 0.000000, 0.000000, 17283.000000, 91.282051, 4.000000, 4.000000, 4.000000, 4.000000, 4.000000, 4.000000, 4.000000, 4.000000, 4.000000, 4.000000, 4.000000, 4.000000, 4.000000, 4.000000, 4.000000, 4.000000
44.000000, 0.000000, 4220.512695, 4154.871582, 4202.563965, 4169.230469, 4176.922852, 4194.358887, 4197.436035, 4192.307617, 4201.538574, 4200.000000, 4196.922852, 4212.820313, 4179.487305, 4211.281738, 0.000000, 8144.000000, 8179.000000, 0.000000, 0.000000, 0.000000, 17283.000000, 98.974358, 4.000000, 4.000000, 4.000000, 4.000000, 4.000000, 4.000000, 4.000000, 4.000000, 4.000000, 4.000000, 4.000000, 4.000000, 4.000000, 4.000000, 4.000000, 4.000000
45.000000, 0.000000, 4218.974121, 4155.897461, 4203.076660, 4168.717773, 4174.871582, 4194.871582, 4191.281738, 4195.897461, 4204.102539, 4202.051270, 4200.512695, 4209.743652, 4176.922852, 4206.666504, 0.000000, 8153.000000, 8174.000000, 0.000000, 0.000000, 0.000000, 17283.000000, 106.666664, 4.000000, 4.000000, 4.000000, 4.000000, 4.000000, 4.000000, 4.000000, 4.000000, 4.000000, 4.000000, 4.000000, 4.000000, 4.000000, 4.000000, 4.000000, 4.000000
46.000000, 0.000000, 4232.820313, 4169.230469, 4215.384277, 4179.487305, 4194.871582, 4217.948730, 4201.538574, 4210.256348, 4229.230469, 4210.769043, 4212.820313, 4224.615234, 4184.615234, 4211.794922, 0.000000, 8153.000000, 8174.000000, 0.000000, 0.000000, 0.000000, 17283.000000, 114.871796, 4.000000, 4.000000, 4.000000, 4.000000, 4.000000, 4.000000, 4.000000, 4.000000, 4.000000, 4.000000, 4.000000, 4.000000, 4.000000, 4.000000, 4.000000, 4.000000
47.000000, 0.000000, 4239.487305, 4171.281738, 4223.589844, 4181.538574, 4190.769043, 4224.615234, 4207.692383, 4213.846191, 4233.846191, 4221.538574, 4213.846191, 4230.769043, 4188.205078, 4211.794922, 0.000000, 8189.000000, 8169.000000, 0.000000, 0.000000, 0.000000, 17283.000000, 122.564102, 4.000000, 4.000000, 4.000000, 4.000000, 4.000000, 4.000000, 4.000000, 4.000000, 4.000000, 4.000000, 4.000000, 4.000000, 4.000000, 4.000000, 4.000000, 4.000000
48.000000, 0.000000, 4226.666504, 4156.922852, 4215.384277, 4168.205078, 4180.000000, 4203.589844, 4201.025391, 4204.615234, 4222.051270, 4206.153809, 4200.512695, 4220.000000, 4172.307617, 4197.948730, 0.000000, 8189.000000, 8169.000000, 0.000000, 0.000000, 0.000000, 17283.000000, 130.256409, 4.000000, 4.000000, 4.000000, 4.000000, 4.000000, 4.000000, 4.000000, 4.000000, 4.000000, 4.000000, 4.000000, 4.000000, 4.000000, 4.000000, 4.000000, 4.000000
49.000000, 0.000000, 4220.000000, 4149.230469, 4211.281738, 4162.563965, 4195.897461, 4201.025391, 4197.948730, 4207.692383, 4224.615234, 4192.307617, 4198.461426, 4221.538574, 4168.717773, 4203.589844, 0.000000, 8209.000000, 8161.000000, 0.000000, 0.000000, 0.000000, 17283.000000, 137.948715, 4.000000, 4.000000, 4.000000, 4.000000, 4.000000, 4.000000, 4.000000, 4.000000, 4.000000, 4.000000, 4.000000, 4.000000, 4.000000, 4.000000, 4.000000, 4.000000
50.000000, 0.000000, 4221.025391, 4153.846191, 4211.281738, 4168.717773, 4197.436035, 4202.051270, 4211.281738, 4214.358887, 4211.794922, 4204.102539, 4207.179199, 4218.974121, 4181.025391, 4204.102539, 0.000000, 8209.000000, 8161.000000, 0.000000, 0.000000, 0.000000, 17283.000000, 145.641022, 4.000000, 4.000000, 4.000000, 4.000000, 4.000000, 4.000000, 4.000000, 4.000000, 4.000000, 4.000000, 4.000000, 4.000000, 4.000000, 4.000000, 4.000000, 4.000000
51.000000, 0.000000, 4218.461426, 4159.487305, 4206.666504, 4169.230469, 4175.897461, 4184.102539, 4217.948730, 4204.615234, 4182.051270, 4206.153809, 4197.948730, 4214.358887, 4174.871582, 4200.512695, 0.000000, 8222.000000, 8159.000000, 0.000000, 0.000000, 0.000000, 17283.000000, 153.333328, 4.000000, 4.000000, 4.000000, 4.000000, 4.000000, 4.000000, 4.000000, 4.000000, 4.000000, 4.000000, 4.000000, 4.000000, 4.000000, 4.000000, 4.000000, 4.000000
52.000000, 0.000000, 4211.281738, 4166.666504, 4203.589844, 4167.179199, 4187.179199, 4190.769043, 4205.641113, 4196.410156, 4199.487305, 4196.410156, 4190.769043, 4209.230469, 4168.205078, 4204.102539, 0.000000, 8222.000000, 8159.000000, 0.000000, 0.000000, 0.000000, 17283.000000, 161.538452, 4.000000, 4.000000, 4.000000, 4.000000, 4.000000, 4.000000, 4.000000, 4.000000, 4.000000, 4.000000, 4.000000, 4.000000, 4.000000, 4.000000, 4.000000, 4.000000
53.000000, 0.000000, 4211.794922, 4170.769043, 4207.692383, 4168.717773, 4205.641113, 4223.076660, 4201.025391, 4204.102539, 4237.436035, 4209.743652, 4198.974121, 4212.820313, 4177.436035, 4204.615234, 0.000000, 8257.000000, 8152.000000, 0.000000, 0.000000, 0.000000, 17283.000000, 169.230759, 4.000000, 4.000000, 4.000000, 4.000000, 4.000000, 4.000000, 4.000000, 4.000000, 4.000000, 4.000000, 4.000000, 4.000000, 4.000000, 4.000000, 4.000000, 4.000000
54.000000, 0.000000, 4216.922852, 4167.692383, 4211.794922, 4171.281738, 4198.461426, 4224.102539, 4216.410156, 4205.127930, 4230.769043, 4225.127930, 4199.487305, 4220.512695, 4184.615234, 4208.205078, 0.000000, 8257.000000, 8152.000000, 0.000000, 0.000000, 0.000000, 17283.000000, 176.923065, 4.000000, 4.000000, 4.000000, 4.000000, 4.000000, 4.000000, 4.000000, 4.000000, 4.000000, 4.000000, 4.000000, 4.000000, 4.000000, 4.000000, 4.000000, 4.000000
55.000000, 0.000000, 4219.487305, 4176.410156, 4213.846191, 4180.512695, 4201.538574, 4201.025391, 4216.410156, 4198.461426, 4222.051270, 4222.051270, 4199.487305, 4210.769043, 4184.615234, 4205.127930, 0.000000, 8272.000000, 8152.000000, 0.000000, 0.000000, 0.000000, 17283.000000, 184.615387, 4.000000, 4.000000, 4.000000, 4.000000, 4.000000, 4.000000, 4.000000, 4.000000, 4.000000, 4.000000, 4.000000, 4.000000, 4.000000, 4.000000, 4.000000, 4.000000
56.000000, 0.000000, 4223.076660, 4186.666504, 4220.000000, 4185.127930, 4210.769043, 4204.615234, 4202.563965, 4200.512695, 4225.127930, 4218.461426, 4205.127930, 4213.333008, 4185.127930, 4208.717773, 0.000000, 8272.000000, 8152.000000, 0.000000, 0.000000, 0.000000, 17283.000000, 192.307693, 4.000000, 4.000000, 4.000000, 4.000000, 4.000000, 4.000000, 4.000000, 4.000000, 4.000000, 4.000000, 4.000000, 4.000000, 4.000000, 4.000000, 4.000000, 4.000000
57.000000, 0.000000, 4215.384277, 4175.897461, 4214.358887, 4175.384277, 4193.846191, 4206.666504, 4201.538574, 4197.436035, 4196.410156, 4208.205078, 4193.846191, 4212.820313, 4174.871582, 4206.666504, 0.000000, 8291.000000, 8138.000000, 0.000000, 0.000000, 0.000000, 17283.000000, 200.512817, 4.000000, 4.000000, 4.000000, 4.000000, 4.000000, 4.000000, 4.000000, 4.000000, 4.000000, 4.000000, 4.000000, 4.000000, 4.000000, 4.000000, 4.000000, 4.000000
58.000000, 0.000000, 4206.666504, 4165.127930, 4201.538574, 4167.179199, 4170.769043, 4183.589844, 4201.538574, 4187.179199, 4178.461426, 4186.153809, 4176.922852, 4200.512695, 4160.512695, 4195.384277, 0.000000, 8291.000000, 8138.000000, 0.000000, 0.000000, 0.000000, 17283.000000, 208.205124, 4.000000, 4.000000, 4.000000, 4.000000, 4.000000, 4.000000, 4.000000, 4.000000, 4.000000, 4.000000, 4.000000, 4.000000, 4.000000, 4.000000, 4.000000, 4.000000
59.000000, 0.000000, 4217.948730, 4175.384277, 4207.179199, 4170.256348, 4173.846191, 4185.127930, 4201.025391, 4190.256348, 4198.461426, 4183.589844, 4187.692383, 4209.743652, 4170.256348, 4209.230469, 0.000000, 8293.000000, 8137.000000, 0.000000, 0.000000, 0.000000, 17283.000000, 215.897430, 4.000000, 4.000000, 4.000000, 4.000000, 4.000000, 4.000000, 4.000000, 4.000000, 4.000000, 4.000000, 4.000000, 4.000000, 4.000000, 4.000000, 4.000000, 4.000000
60.000000, 0.000000, 4229.230469, 4190.769043, 4221.538574, 4174.871582, 4195.384277, 4204.615234, 4204.102539, 4203.076660, 4206.153809, 4210.769043, 4205.641113, 4220.512695, 4190.769043, 4214.358887, 0.000000, 8293.000000, 8137.000000, 0.000000, 0.000000, 0.000000, 17283.000000, 223.589737, 4.000000, 4.000000, 4.000000, 4.000000, 4.000000, 4.000000, 4.000000, 4.000000, 4.000000, 4.000000, 4.000000, 4.000000, 4.000000, 4.000000, 4.000000, 4.000000
61.000000, 0.000000, 4223.589844, 4191.281738, 4221.025391, 4174.358887, 4203.076660, 4205.641113, 4203.076660, 4202.563965, 4203.076660, 4217.948730, 4203.589844, 4220.512695, 4188.205078, 4207.179199, 0.000000, 8294.000000, 8135.000000, 0.000000, 0.000000, 0.000000, 17283.000000, 231.282043, 4.000000, 4.000000, 4.000000, 4.000000, 4.000000, 4.000000, 4.000000, 4.000000, 4.000000, 4.000000, 4.000000, 4.000000, 4.000000, 4.000000, 4.000000, 4.000000
62.000000, 0.000000, 4208.717773, 4178.974121, 4212.820313, 4171.794922, 4180.512695, 4197.436035, 4201.025391, 4194.871582, 4212.820313, 4199.487305, 4195.384277, 4213.333008, 4170.769043, 4206.153809, 0.000000, 8294.000000, 8135.000000, 0.000000, 0.000000, 0.000000, 17283.000000, 239.487167, 4.000000, 4.000000, 4.000000, 4.000000, 4.000000, 4.000000, 4.000000, 4.000000, 4.000000, 4.000000, 4.000000, 4.000000, 4.000000, 4.000000, 4.000000, 4.000000
63.000000, 0.000000, 4206.153809, 4174.358887, 4213.846191, 4166.153809, 4166.666504, 4188.205078, 4203.589844, 4196.410156, 4207.692383, 4205.127930, 4194.871582, 4211.794922, 4168.205078, 4202.051270, 0.000000, 8284.000000, 8133.000000, 0.000000, 0.000000, 0.000000, 17283.000000, 247.179474, 4.000000, 4.000000, 4.000000, 4.000000, 4.000000, 4.000000, 4.000000, 4.000000, 4.000000, 4.000000, 4.000000, 4.000000, 4.000000, 4.000000, 4.000000, 4.000000
64.000000, 0.000000, 4219.487305, 4189.743652, 4217.948730, 4164.102539, 4189.230469, 4186.666504, 4203.076660, 4201.025391, 4201.538574, 4229.230469, 4200.512695, 4225.127930, 4181.538574, 4211.794922, 3516.000000, 8284.000000, 8133.000000, 0.000000, 0.000000, 0.000000, 17283.000000, 254.871796, 4.000000, 4.000000, 4.000000, 4.000000, 4.000000, 4.000000, 4.000000, 4.000000, 4.000000, 4.000000, 4.000000, 4.000000, 4.000000, 4.000000, 4.000000, 4.000000
65.000000, 0.000000, 4223.589844, 4202.051270, 4218.974121, 4171.281738, 4208.205078, 4206.666504, 4200.000000, 4208.205078, 4228.717773, 4232.820313, 4207.692383, 4222.051270, 4188.205078, 4210.769043, 3551.000000, 8278.000000, 8129.000000, 0.000000, 0.000000, 0.000000, 17283.000000, 262.564087, 4.000000, 4.000000, 4.000000, 4.000000, 4.000000, 4.000000, 4.000000, 4.000000, 4.000000, 4.000000, 4.000000, 4.000000, 4.000000, 4.000000, 4.000000, 4.000000
66.000000, 0.000000, 4218.461426, 4194.358887, 4217.948730, 4176.410156, 4198.461426, 4217.436035, 4203.589844, 4206.666504, 4234.358887, 4214.358887, 4203.589844, 4217.948730, 4182.051270, 4201.538574, 2758.000000, 8278.000000, 8129.000000, 0.000000, 0.000000, 0.000000, 17283.000000, 270.256409, 4.000000, 4.000000, 4.000000, 4.000000, 4.000000, 4.000000, 4.000000, 4.000000, 4.000000, 4.000000, 4.000000, 4.000000, 4.000000, 4.000000, 4.000000, 4.000000
67.000000, 0.000000, 4215.897461, 4193.333008, 4218.461426, 4173.333008, 4193.333008, 4214.871582, 4209.743652, 4199.487305, 4213.846191, 4209.230469, 4200.512695, 4224.615234, 4181.538574, 4206.153809, 3565.000000, 8259.000000, 8129.000000, 0.000000, 0.000000, 0.000000, 17283.000000, 278.461517, 4.000000, 4.000000, 4.000000, 4.000000, 4.000000, 4.000000, 4.000000, 4.000000, 4.000000, 4.000000, 4.000000, 4.000000, 4.000000, 4.000000, 4.000000, 4.000000
68.000000, 0.000000, 4217.948730, 4203.076660, 4220.000000, 4172.307617, 4205.641113, 4206.666504, 4210.256348, 4202.563965, 4216.922852, 4224.102539, 4212.307617, 4227.692383, 4189.230469, 4206.666504, 3525.000000, 8259.000000, 8129.000000, 0.000000, 0.000000, 0.000000, 17283.000000, 286.153839, 4.000000, 4.000000, 4.000000, 4.000000, 4.000000, 4.000000, 4.000000, 4.000000, 4.000000, 4.000000, 4.000000, 4.000000, 4.000000, 4.000000, 4.000000, 4.000000
69.000000, 0.000000, 4220.512695, 4200.512695, 4219.487305, 4176.410156, 4200.000000, 4189.743652, 4205.127930, 4201.538574, 4216.922852, 4230.769043, 4218.461426, 4233.333008, 4189.230469, 4210.256348, 3522.000000, 8250.000000, 8126.000000, 0.000000, 0.000000, 0.000000, 17283.000000, 293.846161, 4.000000, 4.000000, 4.000000, 4.000000, 4.000000, 4.000000, 4.000000, 4.000000, 4.000000, 4.000000, 4.000000, 4.000000, 4.000000, 4.000000, 4.000000, 4.000000
70.000000, 0.000000, 4223.076660, 4198.974121, 4223.589844, 4181.025391, 4182.051270, 4195.897461, 4204.615234, 4202.051270, 4207.179199, 4229.230469, 4217.436035, 4229.230469, 4185.641113, 4209.743652, 3364.000000, 8250.000000, 8126.000000, 0.000000, 0.000000, 0.000000, 17283.000000, 301.538452, 4.000000, 4.000000, 4.000000, 4.000000, 4.000000, 4.000000, 4.000000, 4.000000, 4.000000, 4.000000, 4.000000, 4.000000, 4.000000, 4.000000, 4.000000, 4.000000
71.000000, 0.000000, 4226.153809, 4204.615234, 4225.641113, 4182.563965, 4191.281738, 4205.641113, 4213.333008, 4214.871582, 4223.076660, 4234.871582, 4218.974121, 4228.205078, 4186.153809, 4210.256348, 3196.000000, 8238.000000, 8121.000000, 0.000000, 0.000000, 0.000000, 17283.000000, 309.230774, 4.000000, 4.000000, 4.000000, 4.000000, 4.000000, 4.000000, 4.000000, 4.000000, 4.000000, 4.000000, 4.000000, 4.000000, 4.000000, 4.000000, 4.000000, 4.000000
72.000000, 0.000000, 4219.487305, 4196.410156, 4216.922852, 4172.820313, 4210.769043, 4187.179199, 4214.871582, 4219.487305, 4236.922852, 4237.436035, 4212.307617, 4228.205078, 4184.615234, 4212.307617, 3530.000000, 8238.000000, 8121.000000, 0.000000, 0.000000, 0.000000, 17283.000000, 316.923065, 4.000000, 4.000000, 4.000000, 4.000000, 4.000000, 4.000000, 4.000000, 4.000000, 4.000000, 4.000000, 4.000000, 4.000000, 4.000000, 4.000000, 4.000000, 4.000000
73.000000, 0.000000, 4215.897461, 4191.281738, 4210.769043, 4168.717773, 4207.179199, 4194.871582, 4204.102539, 4213.333008, 4225.127930, 4232.307617, 4207.692383, 4223.076660, 4183.076660, 4204.102539, 3536.000000, 8232.000000, 8116.000000, 0.000000, 0.000000, 0.000000, 17283.000000, 325.128204, 4.000000, 4.000000, 4.000000, 4.000000, 4.000000, 4.000000, 4.000000, 4.000000, 4.000000, 4.000000, 4.000000, 4.000000, 4.000000, 4.000000, 4.000000, 4.000000
74.000000, 0.000000, 4225.641113, 4201.025391, 4218.461426, 4177.948730, 4195.897461, 4222.563965, 4200.000000, 4220.000000, 4217.436035, 4237.436035, 4217.436035, 4233.846191, 4186.666504, 4210.256348, 3166.000000, 8232.000000, 8116.000000, 0.000000, 0.000000, 0.000000, 17283.000000, 332.820496, 4.000000, 4.000000, 4.000000, 4.000000, 4.000000, 4.000000, 4.000000, 4.000000, 4.000000, 4.000000, 4.000000, 4.000000, 4.000000, 4.000000, 4.000000, 4.000000
75.000000, 0.000000, 4217.436035, 4199.487305, 4215.897461, 4173.846191, 4205.641113, 4191.281738, 4204.102539, 4225.641113, 4212.820313, 4237.436035, 4218.974121, 4229.230469, 4185.127930, 4208.717773, 1785.000000, 8227.000000, 8118.000000, 0.000000, 0.000000, 0.000000, 17283.000000, 340.512817, 4.000000, 4.000000, 4.000000, 4.000000, 4.000000, 4.000000, 4.000000, 4.000000, 4.000000, 4.000000, 4.000000, 4.000000, 4.000000, 4.000000, 4.000000, 4.000000
76.000000, 0.000000, 4212.307617, 4192.307617, 4208.205078, 4168.717773, 4207.179199, 4175.897461, 4213.333008, 4221.538574, 4217.948730, 4223.589844, 4212.820313, 4218.461426, 4181.538574, 4202.051270, 3487.000000, 8227.000000, 8118.000000, 0.000000, 0.000000, 0.000000, 17283.000000, 348.205109, 4.000000, 4.000000, 4.000000, 4.000000, 4.000000, 4.000000, 4.000000, 4.000000, 4.000000, 4.000000, 4.000000, 4.000000, 4.000000, 4.000000, 4.000000, 4.000000
77.000000, 0.000000, 4222.563965, 4196.410156, 4211.281738, 4177.436035, 4185.641113, 4207.692383, 4220.512695, 4222.051270, 4229.743652, 4226.153809, 4217.948730, 4226.153809, 4184.615234, 4210.256348, 2307.000000, 8232.000000, 8124.000000, 0.000000, 0.000000, 0.000000, 17283.000000, 356.410248, 4.000000, 4.000000, 4.000000, 4.000000, 4.000000, 4.000000, 4.000000, 4.000000, 4.000000, 4.000000, 4.000000, 4.000000, 4.000000, 4.000000, 4.000000, 4.000000
78.000000, 0.000000, 4213.846191, 4195.384277, 4205.641113, 4175.897461, 4182.563965, 4182.051270, 4210.256348, 4213.846191, 4209.743652, 4236.922852, 4219.487305, 4221.538574, 4185.127930, 4202.563965, 3166.000000, 8232.000000, 8124.000000, 0.000000, 0.000000, 0.000000, 17283.000000, 364.102570, 4.000000, 4.000000, 4.000000, 4.000000, 4.000000, 4.000000, 4.000000, 4.000000, 4.000000, 4.000000, 4.000000, 4.000000, 4.000000, 4.000000, 4.000000, 4.000000
79.000000, 0.000000, 4206.153809, 4186.153809, 4199.487305, 4172.307617, 4206.666504, 4160.000000, 4205.127930, 4208.717773, 4204.615234, 4229.743652, 4214.871582, 4218.974121, 4183.589844, 4205.127930, 1785.000000, 8233.000000, 8121.000000, 1.000000, 2.000000, 0.000000, 17283.000000, 371.794861, 4.000000, 4.000000, 4.000000, 4.000000, 4.000000, 4.000000, 4.000000, 4.000000, 4.000000, 4.000000, 4.000000, 4.000000, 4.000000, 4.000000, 4.000000, 4.000000
80.000000, 0.000000, 4219.487305, 4194.871582, 4212.307617, 4189.230469, 4220.512695, 4224.615234, 4222.051270, 4223.076660, 4250.769043, 4229.230469, 4224.615234, 4225.641113, 4187.692383, 4215.897461, 3487.000000, 8233.000000, 8121.000000, 0.000000, 0.000000, 0.000000, 17283.000000, 379.487183, 4.000000, 4.000000, 4.000000, 4.000000, 4.000000, 4.000000, 4.000000, 4.000000, 4.000000, 4.000000, 4.000000, 4.000000, 4.000000, 4.000000, 4.000000, 4.000000
81.000000, 0.000000, 4230.256348, 4206.666504, 4224.102539, 4197.948730, 4218.461426, 4268.717773, 4234.871582, 4237.436035, 4268.205078, 4244.102539, 4236.410156, 4231.794922, 4188.717773, 4211.281738, 2307.000000, 8242.000000, 8131.000000, 0.000000, 0.000000, 0.000000, 17283.000000, 387.179474, 4.000000, 4.000000, 4.000000, 4.000000, 4.000000, 4.000000, 4.000000, 4.000000, 4.000000, 4.000000, 4.000000, 4.000000, 4.000000, 4.000000, 4.000000, 4.000000
82.000000, 0.000000, 4225.127930, 4205.127930, 4220.000000, 4187.692383, 4218.974121, 4224.615234, 4221.025391, 4231.794922, 4238.461426, 4237.948730, 4224.102539, 4229.230469, 4184.615234, 4209.743652, 3166.000000, 8242.000000, 8131.000000, 0.000000, 0.000000, 0.000000, 17283.000000, 394.871796, 4.000000, 4.000000, 4.000000, 4.000000, 4.000000, 4.000000, 4.000000, 4.000000, 4.000000, 4.000000, 4.000000, 4.000000, 4.000000, 4.000000, 4.000000, 4.000000
83.000000, 0.000000, 4213.846191, 4200.512695, 4214.871582, 4185.641113, 4208.205078, 4186.666504, 4205.127930, 4215.897461, 4231.281738, 4217.948730, 4207.179199, 4213.333008, 4176.410156, 4202.051270, 1785.000000, 8244.000000, 8136.000000, 0.000000, 0.000000, 0.000000, 17283.000000, 403.076904, 4.000000, 4.000000, 4.000000, 4.000000, 4.000000, 4.000000, 4.000000, 4.000000, 4.000000, 4.000000, 4.000000, 4.000000, 4.000000, 4.000000, 4.000000, 4.000000
84.000000, 0.000000, 4198.974121, 4190.256348, 4215.897461, 4186.153809, 4190.769043, 4201.025391, 4210.769043, 4209.743652, 4221.025391, 4216.922852, 4203.589844, 4211.281738, 4166.153809, 4201.538574, 3487.000000, 8244.000000, 8136.000000, 0.000000, 0.000000, 0.000000, 17283.000000, 410.769226, 4.000000, 4.000000, 4.000000, 4.000000, 4.000000, 4.000000, 4.000000, 4.000000, 4.000000, 4.000000, 4.000000, 4.000000, 4.000000, 4.000000, 4.000000, 4.000000
85.000000, 0.000000, 4183.076660, 4186.153809, 4215.897461, 4183.589844, 4199.487305, 4222.051270, 4221.025391, 4213.846191, 4193.333008, 4224.102539, 4206.153809, 4213.846191, 4172.820313, 4207.692383, 2307.000000, 8247.000000, 8131.000000, 0.000000, 0.000000, 0.000000, 17283.000000, 418.461517, 4.000000, 4.000000, 4.000000, 4.000000, 4.000000, 4.000000, 4.000000, 4.000000, 4.000000, 4.000000, 4.000000, 4.000000, 4.000000, 4.000000, 4.000000, 4.000000
86.000000, 0.000000, 4181.025391, 4197.948730, 4214.871582, 4188.205078, 4209.743652, 4228.205078, 4221.025391, 4218.461426, 4209.743652, 4218.461426, 4208.205078, 4217.436035, 4186.666504, 4205.641113, 3166.000000, 8247.000000, 8131.000000, 0.000000, 0.000000, 0.000000, 17283.000000, 426.153839, 4.000000, 4.000000, 4.000000, 4.000000, 4.000000, 4.000000, 4.000000, 4.000000, 4.000000, 4.000000, 4.000000, 4.000000, 4.000000, 4.000000, 4.000000, 4.000000
87.000000, 0.000000, 4177.948730, 4192.820313, 4212.307617, 4184.102539, 4196.410156, 4209.743652, 4214.871582, 4211.281738, 4233.333008, 4210.256348, 4204.615234, 4223.589844, 4176.922852, 4204.102539, 1785.000000, 8249.000000, 8135.000000, 0.000000, 0.000000, 0.000000, 17283.000000, 433.846130, 4.000000, 4.000000, 4.000000, 4.000000, 4.000000, 4.000000, 4.000000, 4.000000, 4.000000, 4.000000, 4.000000, 4.000000, 4.000000, 4.000000, 4.000000, 4.000000
88.000000, 0.000000, 4170.769043, 4173.846191, 4206.153809, 4169.743652, 4181.538574, 4192.307617, 4211.794922, 4208.205078, 4227.179199, 4206.153809, 4196.922852, 4211.794922, 4166.666504, 4200.000000, 3487.000000, 8249.000000, 8135.000000, 0.000000, 0.000000, 0.000000, 17283.000000, 441.538452, 4.000000, 4.000000, 4.000000, 4.000000, 4.000000, 4.000000, 4.000000, 4.000000, 4.000000, 4.000000, 4.000000, 4.000000, 4.000000, 4.000000, 4.000000, 4.000000
89.000000, 0.000000, 4176.922852, 4175.897461, 4209.230469, 4169.743652, 4177.436035, 4202.563965, 4216.922852, 4215.384277, 4220.512695, 4208.205078, 4200.000000, 4213.846191, 4179.487305, 4208.717773, 2307.000000, 8252.000000, 8142.000000, 0.000000, 0.000000, 0.000000, 17283.000000, 449.743591, 4.000000, 4.000000, 4.000000, 4.000000, 4.000000, 4.000000, 4.000000, 4.000000, 4.000000, 4.000000, 4.000000, 4.000000, 4.000000, 4.000000, 4.000000, 4.000000
90.000000, 0.000000, 4186.666504, 4190.769043, 4221.538574, 4185.641113, 4189.743652, 4216.410156, 4219.487305, 4213.333008, 4226.153809, 4222.563965, 4215.384277, 4226.153809, 4191.794922, 4215.897461, 3166.000000, 8252.000000, 8142.000000, 0.000000, 0.000000, 0.000000, 17283.000000, 457.435883, 4.000000, 4.000000, 4.000000, 4.000000, 4.000000, 4.000000, 4.000000, 4.000000, 4.000000, 4.000000, 4.000000, 4.000000, 4.000000, 4.000000, 4.000000, 4.000000
91.000000, 0.000000, 4188.717773, 4188.717773, 4224.615234, 4187.692383, 4203.589844, 4205.127930, 4207.179199, 4204.615234, 4220.512695, 4227.692383, 4220.000000, 4224.102539, 4188.205078, 4205.127930, 1785.000000, 8254.000000, 8148.000000, 0.000000, 0.000000, 0.000000, 17283.000000, 465.128204, 4.000000, 4.000000, 4.000000, 4.000000, 4.000000, 4.000000, 4.000000, 4.000000, 4.000000, 4.000000, 4.000000, 4.000000, 4.000000, 4.000000, 4.000000, 4.000000
92.000000, 0.000000, 4187.692383, 4186.153809, 4216.410156, 4177.948730, 4204.102539, 4197.436035, 4198.461426, 4206.153809, 4208.205078, 4221.538574, 4212.820313, 4222.563965, 4183.076660, 4209.743652, 3487.000000, 8254.000000, 8148.000000, 0.000000, 0.000000, 0.000000, 17283.000000, 472.820496, 4.000000, 4.000000, 4.000000, 4.000000, 4.000000, 4.000000, 4.000000, 4.000000, 4.000000, 4.000000, 4.000000, 4.000000, 4.000000, 4.000000, 4.000000, 4.000000
93.000000, 0.000000, 4191.281738, 4200.512695, 4214.358887, 4183.589844, 4203.589844, 4214.358887, 4208.205078, 4215.897461, 4218.974121, 4229.230469, 4215.384277, 4220.512695, 4185.641113, 4211.794922, 2307.000000, 8253.000000, 8152.000000, 0.000000, 0.000000, 0.000000, 17283.000000, 480.512817, 4.000000, 4.000000, 4.000000, 4.000000, 4.000000, 4.000000, 4.000000, 4.000000, 4.000000, 4.000000, 4.000000, 4.000000, 4.000000, 4.000000, 4.000000, 4.000000
94.000000, 0.000000, 4198.974121, 4208.205078, 4219.487305, 4189.743652, 4196.410156, 4221.025391, 4211.281738, 4218.461426, 4238.974121, 4232.820313, 4220.512695, 4225.641113, 4191.281738, 4210.256348, 3166.000000, 8253.000000, 8152.000000, 0.000000, 0.000000, 0.000000, 17283.000000, 488.205109, 4.000000, 4.000000, 4.000000, 4.000000, 4.000000, 4.000000, 4.000000, 4.000000, 4.000000, 4.000000, 4.000000, 4.000000, 4.000000, 4.000000, 4.000000, 4.000000
95.000000, 0.000000, 4200.000000, 4197.948730, 4221.025391, 4187.179199, 4192.820313, 4215.897461, 4207.179199, 4218.974121, 4243.589844, 4229.230469, 4223.076660, 4229.230469, 4193.846191, 4213.333008, 1785.000000, 8256.000000, 8146.000000, 0.000000, 0.000000, 0.000000, 17283.000000, 496.410248, 4.000000, 4.000000, 4.000000, 4.000000, 4.000000, 4.000000, 4.000000, 4.000000, 4.000000, 4.000000, 4.000000, 4.000000, 4.000000, 4.000000, 4.000000, 4.000000
96.000000, 0.000000, 4191.281738, 4190.256348, 4212.820313, 4186.666504, 4202.051270, 4205.127930, 4213.846191, 4215.384277, 4233.846191, 4235.384277, 4218.461426, 4218.461426, 4187.692383, 4204.102539, 3487.000000, 8256.000000, 8146.000000, 0.000000, 0.000000, 0.000000, 17283.000000, 504.102539, 4.000000, 4.000000, 4.000000, 4.000000, 4.000000, 4.000000, 4.000000, 4.000000, 4.000000, 4.000000, 4.000000, 4.000000, 4.000000, 4.000000, 4.000000, 4.000000
97.000000, 0.000000, 4190.769043, 4200.512695, 4208.205078, 4182.051270, 4202.051270, 4194.871582, 4222.563965, 4211.794922, 4226.153809, 4230.769043, 4212.307617, 4217.436035, 4184.615234, 4208.205078, 2307.000000, 8258.000000, 8151.000000, 0.000000, 0.000000, 0.000000, 17283.000000, 511.794861, 4.000000, 4.000000, 4.000000, 4.000000, 4.000000, 4.000000, 4.000000, 4.000000, 4.000000, 4.000000, 4.000000, 4.000000, 4.000000, 4.000000, 4.000000, 4.000000
98.000000, 0.000000, 4197.436035, 4203.076660, 4216.922852, 4177.436035, 4192.307617, 4216.922852, 4221.538574, 4223.076660, 4239.487305, 4217.948730, 4218.461426, 4222.563965, 4188.717773, 4211.794922, 3166.000000, 8258.000000, 8151.000000, 0.000000, 0.000000, 0.000000, 17283.000000, 519.487183, 4.000000, 4.000000, 4.000000, 4.000000, 4.000000, 4.000000, 4.000000, 4.000000, 4.000000, 4.000000, 4.000000, 4.000000, 4.000000, 4.000000, 4.000000, 4.000000
99.000000, 0.000000, 4196.922852, 4192.820313, 4221.538574, 4176.922852, 4188.717773, 4216.922852, 4205.641113, 4224.102539, 4238.974121, 4223.076660, 4218.974121, 4224.102539, 4183.589844, 4206.666504, 1785.000000, 8261.000000, 8153.000000, 0.000000, 0.000000, 0.000000, 17283.000000, 527.179504, 4.000000, 4.000000, 4.000000, 4.000000, 4.000000, 4.000000, 4.000000, 4.000000, 4.000000, 4.000000, 4.000000, 4.000000, 4.000000, 4.000000, 4.000000, 4.000000
100.000000, 0.000000, 4201.025391, 4208.717773, 4219.487305, 4184.102539, 4200.000000, 4181.538574, 4198.974121, 4213.846191, 4217.436035, 4233.846191, 4213.333008, 4220.000000, 4187.692383, 4211.794922, 3487.000000, 8261.000000, 8153.000000, 0.000000, 0.000000, 0.000000, 17283.000000, 534.871765, 4.000000, 4.000000, 4.000000, 4.000000, 4.000000, 4.000000, 4.000000, 4.000000, 4.000000, 4.000000, 4.000000, 4.000000, 4.000000, 4.000000, 4.000000, 4.000000
101.000000, 0.000000, 4222.051270, 4243.589844, 4231.281738, 4201.538574, 4212.820313, 4197.948730, 4221.025391, 4223.076660, 4225.641113, 4240.000000, 4226.666504, 4222.051270, 4202.051270, 4217.436035, 2307.000000, 8280.000000, 8154.000000, 0.000000, 0.000000, 0.000000, 17283.000000, 543.076904, 4.000000, 4.000000, 4.000000, 4.000000, 4.000000, 4.000000, 4.000000, 4.000000, 4.000000, 4.000000, 4.000000, 4.000000, 4.000000, 4.000000, 4.000000, 4.000000
102.000000, 0.000000, 4235.384277, 4251.794922, 4238.461426, 4209.230469, 4206.666504, 4230.256348, 4223.076660, 4225.127930, 4230.769043, 4235.384277, 4233.846191, 4230.769043, 4193.846191, 4221.025391, 3166.000000, 8280.000000, 8154.000000, 0.000000, 0.000000, 0.000000, 17283.000000, 550.769226, 4.000000, 4.000000, 4.000000, 4.000000, 4.000000, 4.000000, 4.000000, 4.000000, 4.000000, 4.000000, 4.000000, 4.000000, 4.000000, 4.000000, 4.000000, 4.000000
103.000000, 0.000000, 4236.922852, 4264.102539, 4231.281738, 4210.256348, 4201.538574, 4207.179199, 4198.461426, 4205.127930, 4199.487305, 4225.641113, 4221.025391, 4218.974121, 4188.717773, 4215.897461, 1785.000000, 8286.000000, 8152.000000, 0.000000, 0.000000, 0.000000, 17283.000000, 558.461548, 4.000000, 4.000000, 4.000000, 4.000000, 4.000000, 4.000000, 4.000000, 4.000000, 4.000000, 4.000000, 4.000000, 4.000000, 4.000000, 4.000000, 4.000000, 4.000000
104.000000, 0.000000, 4262.051270, 4307.692383, 4233.333008, 4227.179199, 4225.127930, 4180.512695, 4195.897461, 4200.000000, 4197.948730, 4221.538574, 4219.487305, 4217.948730, 4203.076660, 4220.000000, 3487.000000, 8286.000000, 8152.000000, 0.000000, 0.000000, 0.000000, 17283.000000, 566.153809, 4.000000, 4.000000, 4.000000, 4.000000, 4.000000, 4.000000, 4.000000, 4.000000, 4.000000, 4.000000, 4.000000, 4.000000, 4.000000, 4.000000, 4.000000, 4.000000
105.000000, 0.000000, 4281.025391, 4332.307617, 4240.512695, 4241.538574, 4243.589844, 4191.281738, 4205.641113, 4205.641113, 4219.487305, 4204.102539, 4215.897461, 4223.589844, 4193.846191, 4223.589844, 2307.000000, 8308.000000, 8147.000000, 0.000000, 0.000000, 0.000000, 17283.000000, 573.846130, 4.000000, 4.000000, 4.000000, 4.000000, 4.000000, 4.000000, 4.000000, 4.000000, 4.000000, 4.000000, 4.000000, 4.000000, 4.000000, 4.000000, 4.000000, 4.000000
106.000000, 0.000000, 4268.717773, 4325.127930, 4230.256348, 4235.384277, 4229.230469, 4210.769043, 4201.538574, 4196.922852, 4194.871582, 4177.948730, 4194.358887, 4207.179199, 4162.051270, 4207.179199, 3166.000000, 8308.000000, 8147.000000, 0.000000, 0.000000, 0.000000, 17283.000000, 582.051270, 4.000000, 4.000000, 4.000000, 4.000000, 4.000000, 4.000000, 4.000000, 4.000000, 4.000000, 4.000000, 4.000000, 4.000000, 4.000000, 4.000000, 4.000000, 4.000000
107.000000, 0.000000, 4262.051270, 4325.641113, 4219.487305, 4229.743652, 4223.076660, 4218.461426, 4198.974121, 4192.820313, 4168.717773, 4174.871582, 4175.897461, 4201.025391, 4151.794922, 4208.717773, 1785.000000, 8316.000000, 8156.000000, 0.000000, 0.000000, 0.000000, 17283.000000, 589.743591, 4.000000, 4.000000, 4.000000, 4.000000, 4.000000, 4.000000, 4.000000, 4.000000, 4.000000, 4.000000, 4.000000, 4.000000, 4.000000, 4.000000, 4.000000, 4.000000
108.000000, 0.000000, 4267.692383, 4343.076660, 4222.051270, 4232.820313, 4240.512695, 4209.230469, 4202.563965, 4200.000000, 4195.897461, 4186.666504, 4172.820313, 4200.512695, 4157.948730, 4210.769043, 3487.000000, 8316.000000, 8156.000000, 0.000000, 0.000000, 0.000000, 17283.000000, 597.435913, 4.000000, 4.000000, 4.000000, 4.000000, 4.000000, 4.000000, 4.000000, 4.000000, 4.000000, 4.000000, 4.000000, 4.000000, 4.000000, 4.000000, 4.000000, 4.000000
109.000000, 0.000000, 4275.384277, 4354.871582, 4227.692383, 4239.487305, 4236.410156, 4183.589844, 4201.538574, 4196.410156, 4204.615234, 4190.256348, 4176.922852, 4201.025391, 4158.461426, 4205.641113, 2307.000000, 8328.000000, 8162.000000, 0.000000, 0.000000, 0.000000, 17283.000000, 605.128174, 4.000000, 4.000000, 4.000000, 4.000000, 4.000000, 4.000000, 4.000000, 4.000000, 4.000000, 4.000000, 4.000000, 4.000000, 4.000000, 4.000000, 4.000000, 4.000000
110.000000, 0.000000, 4280.000000, 4357.948730, 4229.230469, 4249.230469, 4218.461426, 4177.948730, 4196.410156, 4186.153809, 4176.922852, 4182.051270, 4178.461426, 4207.179199, 4158.461426, 4212.307617, 3166.000000, 8328.000000, 8162.000000, 0.000000, 0.000000, 0.000000, 17283.000000, 612.820496, 4.000000, 4.000000, 4.000000, 4.000000, 4.000000, 4.000000, 4.000000, 4.000000, 4.000000, 4.000000, 4.000000, 4.000000, 4.000000, 4.000000, 4.000000, 4.000000
111.000000, 0.000000, 4281.025391, 4381.025391, 4234.358887, 4262.051270, 4234.358887, 4202.051270, 4191.281738, 4183.589844, 4174.871582, 4174.358887, 4176.922852, 4208.717773, 4160.512695, 4207.179199, 1785.000000, 8358.000000, 8160.000000, 0.000000, 0.000000, 0.000000, 17283.000000, 621.025635, 4.000000, 4.000000, 4.000000, 4.000000, 4.000000, 4.000000, 4.000000, 4.000000, 4.000000, 4.000000, 4.000000, 4.000000, 4.000000, 4.000000, 4.000000, 4.000000
112.000000, 0.000000, 4279.487305, 4400.000000, 4233.846191, 4261.538574, 4250.256348, 4194.358887, 4183.076660, 4179.487305, 4176.410156, 4167.179199, 4167.179199, 4209.743652, 4152.820313, 4201.538574, 3487.000000, 8358.000000, 8160.000000, 0.000000, 0.000000, 0.000000, 17283.000000, 628.717957, 4.000000, 4.000000, 4.000000, 4.000000, 4.000000, 4.000000, 4.000000, 4.000000, 4.000000, 4.000000, 4.000000, 4.000000, 4.000000, 4.000000, 4.000000, 4.000000
113.000000, 0.000000, 4266.153809, 4379.487305, 4224.102539, 4248.717773, 4231.794922, 4165.127930, 4174.871582, 4171.281738, 4155.897461, 4167.692383, 4152.307617, 4195.897461, 4143.589844, 4198.974121, 2307.000000, 8374.000000, 8155.000000, 0.000000, 0.000000, 0.000000, 17283.000000, 636.410217, 4.000000, 4.000000, 4.000000, 4.000000, 4.000000, 4.000000, 4.000000, 4.000000, 4.000000, 4.000000, 4.000000, 4.000000, 4.000000, 4.000000, 4.000000, 4.000000
114.000000, 0.000000, 4259.487305, 4353.846191, 4223.076660, 4245.641113, 4232.307617, 4182.051270, 4180.000000, 4180.512695, 4168.717773, 4176.922852, 4154.871582, 4193.333008, 4150.256348, 4199.487305, 3166.000000, 8374.000000, 8155.000000, 0.000000, 0.000000, 0.000000, 17283.000000, 644.102539, 4.000000, 4.000000, 4.000000, 4.000000, 4.000000, 4.000000, 4.000000, 4.000000, 4.000000, 4.000000, 4.000000, 4.000000, 4.000000, 4.000000, 4.000000, 4.000000
115.000000, 0.000000, 4260.000000, 4355.384277, 4225.127930, 4251.281738, 4242.563965, 4205.127930, 4190.256348, 4188.717773, 4201.025391, 4178.461426, 4165.127930, 4206.153809, 4160.000000, 4207.179199, 1785.000000, 8417.000000, 8138.000000, 0.000000, 0.000000, 0.000000, 17283.000000, 651.794861, 4.000000, 4.000000, 4.000000, 4.000000, 4.000000, 4.000000, 4.000000, 4.000000, 4.000000, 4.000000, 4.000000, 4.000000, 4.000000, 4.000000, 4.000000, 4.000000
116.000000, 0.000000, 4242.051270, 4355.384277, 4215.384277, 4247.692383, 4218.461426, 4185.641113, 4185.641113, 4176.410156, 4180.512695, 4173.333008, 4153.846191, 4193.846191, 4153.333008, 4196.922852, 3487.000000, 8417.000000, 8138.000000, 0.000000, 0.000000, 0.000000, 17283.000000, 659.487183, 4.000000, 4.000000, 4.000000, 4.000000, 4.000000, 4.000000, 4.000000, 4.000000, 4.000000, 4.000000, 4.000000, 4.000000, 4.000000, 4.000000, 4.000000, 4.000000
117.000000, 0.000000, 4226.153809, 4341.538574, 4211.794922, 4238.974121, 4211.281738, 4181.025391, 4182.563965, 4175.897461, 4163.589844, 4168.717773, 4135.897461, 4189.743652, 4143.589844, 4196.410156, 2307.000000, 8441.000000, 8126.000000, 0.000000, 0.000000, 0.000000, 17283.000000, 667.692322, 4.000000, 4.000000, 4.000000, 4.000000, 4.000000, 4.000000, 4.000000, 4.000000, 4.000000, 4.000000, 4.000000, 4.000000, 4.000000, 4.000000, 4.000000, 4.000000
118.000000, 0.000000, 4227.179199, 4331.281738, 4215.384277, 4238.461426, 4240.000000, 4189.230469, 4188.717773, 4190.256348, 4180.512695, 4170.769043, 4142.051270, 4194.871582, 4145.641113, 4205.127930, 3166.000000, 8441.000000, 8126.000000, 0.000000, 0.000000, 0.000000, 17283.000000, 675.384583, 4.000000, 4.000000, 4.000000, 4.000000, 4.000000, 4.000000, 4.000000, 4.000000, 4.000000, 4.000000, 4.000000, 4.000000, 4.000000, 4.000000, 4.000000, 4.000000
119.000000, 0.000000, 4227.692383, 4329.230469, 4213.846191, 4236.922852, 4240.000000, 4176.410156, 4184.615234, 4192.307617, 4181.538574, 4176.410156, 4153.846191, 4190.769043, 4148.717773, 4201.538574, 1785.000000, 8465.000000, 8127.000000, 0.000000, 0.000000, 0.000000, 17283.000000, 683.076904, 4.000000, 4.000000, 4.000000, 4.000000, 4.000000, 4.000000, 4.000000, 4.000000, 4.000000, 4.000000, 4.000000, 4.000000, 4.000000, 4.000000, 4.000000, 4.000000
120.000000, 0.000000, 4219.487305, 4330.256348, 4217.436035, 4233.333008, 4220.000000, 4187.692383, 4189.230469, 4191.794922, 4182.563965, 4182.051270, 4156.922852, 4197.948730, 4150.769043, 4204.615234, 3487.000000, 8465.000000, 8127.000000, 0.000000, 0.000000, 0.000000, 17283.000000, 690.769226, 4.000000, 4.000000, 4.000000, 4.000000, 4.000000, 4.000000, 4.000000, 4.000000, 4.000000, 4.000000, 4.000000, 4.000000, 4.000000, 4.000000, 4.000000, 4.000000
121.000000, 0.000000, 4208.205078, 4318.974121, 4218.461426, 4230.769043, 4217.436035, 4207.692383, 4200.000000, 4196.410156, 4200.512695, 4190.769043, 4155.384277, 4198.461426, 4153.333008, 4199.487305, 2307.000000, 8507.000000, 8146.000000, 0.000000, 0.000000, 0.000000, 17283.000000, 698.461548, 4.000000, 4.000000, 4.000000, 4.000000, 4.000000, 4.000000, 4.000000, 4.000000, 4.000000, 4.000000, 4.000000, 4.000000, 4.000000, 4.000000, 4.000000, 4.000000
122.000000, 0.000000, 4203.589844, 4300.000000, 4208.717773, 4226.666504, 4222.563965, 4198.461426, 4191.794922, 4195.897461, 4205.127930, 4190.769043, 4149.743652, 4193.333008, 4153.846191, 4197.436035, 3166.000000, 8507.000000, 8146.000000, 0.000000, 0.000000, 0.000000, 17283.000000, 706.666626, 4.000000, 4.000000, 4.000000, 4.000000, 4.000000, 4.000000, 4.000000, 4.000000, 4.000000, 4.000000, 4.000000, 4.000000, 4.000000, 4.000000, 4.000000, 4.000000
123.000000, 0.000000, 4201.538574, 4288.717773, 4207.179199, 4221.538574, 4222.563965, 4191.281738, 4187.179199, 4195.384277, 4193.333008, 4178.461426, 4148.205078, 4190.256348, 4151.794922, 4201.538574, 1785.000000, 8531.000000, 8147.000000, 0.000000, 0.000000, 0.000000, 17283.000000, 714.358948, 4.000000, 4.000000, 4.000000, 4.000000, 4.000000, 4.000000, 4.000000, 4.000000, 4.000000, 4.000000, 4.000000, 4.000000, 4.000000, 4.000000, 4.000000, 4.000000
124.000000, 0.000000, 4201.025391, 4282.563965, 4216.410156, 4215.897461, 4214.358887, 4204.615234, 4201.025391, 4211.281738, 4196.410156, 4173.846191, 4152.820313, 4196.410156, 4152.307617, 4200.512695, 3487.000000, 8531.000000, 8147.000000, 0.000000, 0.000000, 0.000000, 17283.000000, 722.051270, 4.000000, 4.000000, 4.000000, 4.000000, 4.000000, 4.000000, 4.000000, 4.000000, 4.000000, 4.000000, 4.000000, 4.000000, 4.000000, 4.000000, 4.000000, 4.000000
125.000000, 0.000000, 4200.000000, 4274.871582, 4223.076660, 4215.897461, 4206.153809, 4210.256348, 4206.666504, 4217.948730, 4204.102539, 4184.615234, 4155.897461, 4207.179199, 4157.436035, 4205.127930, 2307.000000, 8606.000000, 8157.000000, 0.000000, 0.000000, 0.000000, 17283.000000, 729.743591, 4.000000, 4.000000, 4.000000, 4.000000, 4.000000, 4.000000, 4.000000, 4.000000, 4.000000, 4.000000, 4.000000, 4.000000, 4.000000, 4.000000, 4.000000, 4.000000
126.000000, 0.000000, 4190.769043, 4260.512695, 4213.846191, 4215.384277, 4221.538574, 4192.307617, 4197.948730, 4194.871582, 4182.051270, 4188.717773, 4149.230469, 4195.897461, 4153.333008, 4196.410156, 3166.000000, 8606.000000, 8157.000000, 0.000000, 0.000000, 0.000000, 17283.000000, 737.435852, 4.000000, 4.000000, 4.000000, 4.000000, 4.000000, 4.000000, 4.000000, 4.000000, 4.000000, 4.000000, 4.000000, 4.000000, 4.000000, 4.000000, 4.000000, 4.000000
127.000000, 0.000000, 4190.769043, 4254.871582, 4209.230469, 4213.333008, 4234.358887, 4189.743652, 4198.461426, 4177.948730, 4158.461426, 4187.179199, 4145.127930, 4192.820313, 4149.743652, 4193.846191, 55.000000, 8634.000000, 8167.000000, 0.000000, 0.000000, 0.000000, 17283.000000, 745.640991, 4.000000, 4.000000, 4.000000, 4.000000, 4.000000, 4.000000, 4.000000, 4.000000, 4.000000, 4.000000, 4.000000, 4.000000, 4.000000, 4.000000, 4.000000, 4.000000
0.000000, 0.000000, 4194.358887, 4259.487305, 4217.436035, 4215.384277, 4211.794922, 4212.820313, 4207.692383, 4186.666504, 4179.487305, 4190.256348, 4152.307617, 4204.615234, 4156.922852, 4202.051270, 3500.000000, 8634.000000, 8167.000000, 0.000000, 0.000000, 0.000000, 17283.000000, 753.333313, 4.000000, 4.000000, 4.000000, 4.000000, 4.000000, 4.000000, 4.000000, 4.000000, 4.000000, 4.000000, 4.000000, 4.000000, 4.000000, 4.000000, 4.000000, 4.000000
1.000000, 0.000000, 4193.333008, 4253.846191, 4216.410156, 4221.538574, 4199.487305, 4222.563965, 4215.384277, 4191.281738, 4198.974121, 4183.076660, 4157.948730, 4205.641113, 4158.974121, 4199.487305, 3537.000000, 8685.000000, 8213.000000, 0.000000, 0.000000, 0.000000, 17283.000000, 761.025635, 4.000000, 4.000000, 4.000000, 4.000000, 4.000000, 4.000000, 4.000000, 4.000000, 4.000000, 4.000000, 4.000000, 4.000000, 4.000000, 4.000000, 4.000000, 4.000000
2.000000, 0.000000, 4189.743652, 4241.025391, 4210.256348, 4216.922852, 4217.436035, 4204.615234, 4216.410156, 4186.666504, 4175.384277, 4174.871582, 4151.281738, 4203.589844, 4153.846191, 4201.025391, 2755.000000, 8685.000000, 8213.000000, 0.000000, 0.000000, 0.000000, 17283.000000, 768.717957, 4.000000, 4.000000, 4.000000, 4.000000, 4.000000, 4.000000, 4.000000, 4.000000, 4.000000, 4.000000, 4.000000, 4.000000, 4.000000, 4.000000, 4.000000, 4.000000
3.000000, 0.000000, 4180.512695, 4234.871582, 4207.692383, 4197.948730, 4217.948730, 4187.692383, 4204.102539, 4188.205078, 4172.307617, 4174.871582, 4142.563965, 4193.846191, 4152.820313, 4194.871582, 3549.000000, 8693.000000, 8235.000000, 0.000000, 0.000000, 0.000000, 17283.000000, 776.410217, 4.000000, 4.000000, 4.000000, 4.000000, 4.000000, 4.000000, 4.000000, 4.000000, 4.000000, 4.000000, 4.000000, 4.000000, 4.000000, 4.000000, 4.000000, 4.000000
4.000000, 0.000000, 4172.820313, 4220.000000, 4197.436035, 4184.615234, 4196.410156, 4186.666504, 4197.948730, 4187.179199, 4187.179199, 4167.179199, 4135.897461, 4190.256348, 4149.230469, 4188.717773, 3515.000000, 8693.000000, 8235.000000, 0.000000, 0.000000, 0.000000, 17283.000000, 784.615356, 4.000000, 4.000000, 4.000000, 4.000000, 4.000000, 4.000000, 4.000000, 4.000000, 4.000000, 4.000000, 4.000000, 4.000000, 4.000000, 4.000000, 4.000000, 4.000000
5.000000, 0.000000, 4170.256348, 4208.205078, 4190.769043, 4188.205078, 4184.615234, 4205.641113, 4205.127930, 4185.127930, 4184.615234, 4168.205078, 4130.256348, 4192.307617, 4144.102539, 4193.846191, 3538.000000, 8696.000000, 8243.000000, 0.000000, 0.000000, 0.000000, 17283.000000, 792.307678, 4.000000, 4.000000, 4.000000, 4.000000, 4.000000, 4.000000, 4.000000, 4.000000, 4.000000, 4.000000, 4.000000, 4.000000, 4.000000, 4.000000, 4.000000, 4.000000
6.000000, 0.000000, 4172.820313, 4214.871582, 4197.948730, 4191.794922, 4192.820313, 4218.461426, 4208.717773, 4191.281738, 4184.615234, 4168.205078, 4129.743652, 4189.743652, 4143.076660, 4192.820313, 3435.000000, 8696.000000, 8243.000000, 0.000000, 0.000000, 0.000000, 17283.000000, 800.000000, 4.000000, 4.000000, 4.000000, 4.000000, 4.000000, 4.000000, 4.000000, 4.000000, 4.000000, 4.000000, 4.000000, 4.000000, 4.000000, 4.000000, 4.000000, 4.000000
7.000000, 0.000000, 4170.769043, 4207.179199, 4193.846191, 4185.641113, 4204.102539, 4199.487305, 4203.589844, 4190.769043, 4181.538574, 4152.820313, 4135.384277, 4190.769043, 4143.589844, 4194.358887, 3194.000000, 8674.000000, 8303.000000, 0.000000, 0.000000, 0.000000, 17283.000000, 807.692261, 4.000000, 4.000000, 4.000000, 4.000000, 4.000000, 4.000000, 4.000000, 4.000000, 4.000000, 4.000000, 4.000000, 4.000000, 4.000000, 4.000000, 4.000000, 4.000000
8.000000, 0.000000, 4165.641113, 4199.487305, 4188.205078, 4187.179199, 4207.179199, 4193.333008, 4199.487305, 4183.589844, 4182.051270, 4161.025391, 4141.025391, 4183.589844, 4147.179199, 4191.794922, 3523.000000, 8674.000000, 8303.000000, 0.000000, 0.000000, 0.000000, 17283.000000, 815.384583, 4.000000, 4.000000, 4.000000, 4.000000, 4.000000, 4.000000, 4.000000, 4.000000, 4.000000, 4.000000, 4.000000, 4.000000, 4.000000, 4.000000, 4.000000, 4.000000
9.000000, 0.000000, 4167.692383, 4205.641113, 4199.487305, 4191.794922, 4203.076660, 4216.922852, 4206.666504, 4180.000000, 4197.436035, 4181.025391, 4131.794922, 4184.615234, 4135.897461, 4190.769043, 3527.000000, 8650.000000, 8324.000000, 0.000000, 0.000000, 0.000000, 17283.000000, 823.076904, 4.000000, 4.000000, 4.000000, 4.000000, 4.000000, 4.000000, 4.000000, 4.000000, 4.000000, 4.000000, 4.000000, 4.000000, 4.000000, 4.000000, 4.000000, 4.000000
10.000000, 0.000000, 4164.615234, 4195.384277, 4203.589844, 4186.666504, 4201.025391, 4220.000000, 4216.922852, 4183.589844, 4195.897461, 4173.846191, 4122.051270, 4192.820313, 4124.102539, 4196.922852, 3157.000000, 8650.000000, 8324.000000, 0.000000, 0.000000, 0.000000, 17283.000000, 831.282043, 4.000000, 4.000000, 4.000000, 4.000000, 4.000000, 4.000000, 4.000000, 4.000000, 4.000000, 4.000000, 4.000000, 4.000000, 4.000000, 4.000000, 4.000000, 4.000000
11.000000, 0.000000, 4164.102539, 4183.589844, 4196.922852, 4184.102539, 4197.948730, 4206.153809, 4213.333008, 4192.307617, 4185.641113, 4163.076660, 4137.948730, 4192.820313, 4144.615234, 4200.000000, 1784.000000, 8580.000000, 8333.000000, 0.000000, 0.000000, 0.000000, 17283.000000, 838.974365, 4.000000, 4.000000, 4.000000, 4.000000, 4.000000, 4.000000, 4.000000, 4.000000, 4.000000, 4.000000, 4.000000, 4.000000, 4.000000, 4.000000, 4.000000, 4.000000
12.000000, 0.000000, 4182.051270, 4189.230469, 4201.025391, 4187.692383, 4195.384277, 4216.922852, 4208.717773, 4204.102539, 4204.102539, 4175.384277, 4164.102539, 4205.127930, 4174.871582, 4211.794922, 3480.000000, 8580.000000, 8333.000000, 0.000000, 0.000000, 0.000000, 17283.000000, 846.666626, 4.000000, 4.000000, 4.000000, 4.000000, 4.000000, 4.000000, 4.000000, 4.000000, 4.000000, 4.000000, 4.000000, 4.000000, 4.000000, 4.000000, 4.000000, 4.000000
13.000000, 0.000000, 4188.717773, 4189.230469, 4203.589844, 4187.692383, 4202.051270, 4217.948730, 4211.281738, 4204.102539, 4212.820313, 4196.410156, 4171.794922, 4205.127930, 4181.538574, 4209.230469, 2310.000000, 8531.000000, 8329.000000, 0.000000, 0.000000, 0.000000, 17283.000000, 854.358948, 4.000000, 4.000000, 4.000000, 4.000000, 4.000000, 4.000000, 4.000000, 4.000000, 4.000000, 4.000000, 4.000000, 4.000000, 4.000000, 4.000000, 4.000000, 4.000000
14.000000, 0.000000, 4176.922852, 4175.897461, 4194.871582, 4180.000000, 4202.051270, 4189.743652, 4205.641113, 4190.256348, 4196.410156, 4212.307617, 4172.820313, 4195.897461, 4183.589844, 4203.589844, 3157.000000, 8531.000000, 8329.000000, 0.000000, 0.000000, 0.000000, 17283.000000, 862.051270, 4.000000, 4.000000, 4.000000, 4.000000, 4.000000, 4.000000, 4.000000, 4.000000, 4.000000, 4.000000, 4.000000, 4.000000, 4.000000, 4.000000, 4.000000, 4.000000
15.000000, 0.000000, 4181.025391, 4173.846191, 4196.410156, 4175.897461, 4203.076660, 4203.076660, 4203.589844, 4193.333008, 4216.410156, 4221.025391, 4192.820313, 4206.153809, 4203.589844, 4219.487305, 1784.000000, 8478.000000, 8314.000000, 0.000000, 0.000000, 0.000000, 17283.000000, 870.256409, 4.000000, 4.000000, 4.000000, 4.000000, 4.000000, 4.000000, 4.000000, 4.000000, 4.000000, 4.000000, 4.000000, 4.000000, 4.000000, 4.000000, 4.000000, 4.000000
16.000000, 0.000000, 4194.358887, 4174.871582, 4205.641113, 4174.871582, 4201.538574, 4240.000000, 4216.410156, 4208.205078, 4247.179199, 4218.461426, 4216.410156, 4212.820313, 4218.461426, 4216.922852, 0.000000, 8478.000000, 8314.000000, 0.000000, 0.000000, 0.000000, 17283.000000, 877.948669, 4.000000, 4.000000, 4.000000, 4.000000, 4.000000, 4.000000, 4.000000, 4.000000, 4.000000, 4.000000, 4.000000, 4.000000, 4.000000, 4.000000, 4.000000, 4.000000
17.000000, 0.000000, 4187.179199, 4157.436035, 4200.512695, 4170.769043, 4185.641113, 4226.666504, 4223.076660, 4206.153809, 4228.205078, 4214.871582, 4216.922852, 4210.769043, 4213.333008, 4211.794922, 0.000000, 8363.000000, 8271.000000, 0.000000, 0.000000, 0.000000, 17283.000000, 885.640991, 4.000000, 4.000000, 4.000000, 4.000000, 4.000000, 4.000000, 4.000000, 4.000000, 4.000000, 4.000000, 4.000000, 4.000000, 4.000000, 4.000000, 4.000000, 4.000000
18.000000, 0.000000, 4176.410156, 4141.538574, 4191.281738, 4164.615234, 4177.436035, 4207.692383, 4219.487305, 4203.076660, 4220.512695, 4223.589844, 4213.846191, 4206.153809, 4210.256348, 4214.871582, 0.000000, 8363.000000, 8271.000000, 0.000000, 0.000000, 0.000000, 17283.000000, 893.333313, 4.000000, 4.000000, 4.000000, 4.000000, 4.000000, 4.000000, 4.000000, 4.000000, 4.000000, 4.000000, 4.000000, 4.000000, 4.000000, 4.000000, 4.000000, 4.000000
19.000000, 0.000000, 4190.256348, 4140.512695, 4196.410156, 4159.487305, 4193.333008, 4217.948730, 4218.461426, 4217.948730, 4244.102539, 4243.076660, 4234.358887, 4214.358887, 4227.179199, 4216.410156, 0.000000, 8314.000000, 8244.000000, 0.000000, 0.000000, 0.000000, 17283.000000, 901.538452, 4.000000, 4.000000, 4.000000, 4.000000, 4.000000, 4.000000, 4.000000, 4.000000, 4.000000, 4.000000, 4.000000, 4.000000, 4.000000, 4.000000, 4.000000, 4.000000
20.000000, 0.000000, 4196.922852, 4132.820313, 4201.538574, 4155.897461, 4205.127930, 4211.281738, 4214.871582, 4226.666504, 4237.948730, 4248.717773, 4251.281738, 4223.076660, 4238.461426, 4216.922852, 0.000000, 8314.000000, 8244.000000, 0.000000, 0.000000, 0.000000, 17283.000000, 909.230774, 4.000000, 4.000000, 4.000000, 4.000000, 4.000000, 4.000000, 4.000000, 4.000000, 4.000000, 4.000000, 4.000000, 4.000000, 4.000000, 4.000000, 4.000000, 4.000000
21.000000, 0.000000, 4187.179199, 4120.512695, 4197.948730, 4151.794922, 4200.000000, 4201.538574, 4214.358887, 4226.666504, 4233.333008, 4246.666504, 4246.666504, 4213.846191, 4228.717773, 4205.641113, 0.000000, 8238.000000, 8206.000000, 0.000000, 0.000000, 0.000000, 17283.000000, 916.923035, 4.000000, 4.000000, 4.000000, 4.000000, 4.000000, 4.000000, 4.000000, 4.000000, 4.000000, 4.000000, 4.000000, 4.000000, 4.000000, 4.000000, 4.000000, 4.000000
22.000000, 0.000000, 4197.436035, 4123.076660, 4202.051270, 4151.794922, 4192.820313, 4229.230469, 4224.615234, 4231.281738, 4262.563965, 4262.563965, 4248.205078, 4219.487305, 4225.641113, 4211.794922, 0.000000, 8238.000000, 8206.000000, 0.000000, 0.000000, 0.000000, 17283.000000, 924.615356, 4.000000, 4.000000, 4.000000, 4.000000, 4.000000, 4.000000, 4.000000, 4.000000, 4.000000, 4.000000, 4.000000, 4.000000, 4.000000, 4.000000, 4.000000, 4.000000
23.000000, 0.000000, 4203.589844, 4123.076660, 4206.666504, 4152.307617, 4184.615234, 4242.563965, 4233.333008, 4223.076660, 4260.512695, 4271.281738, 4251.794922, 4220.512695, 4225.641113, 4214.871582, 0.000000, 8205.000000, 8196.000000, 0.000000, 0.000000, 0.000000, 17283.000000, 932.820496, 4.000000, 4.000000, 4.000000, 4.000000, 4.000000, 4.000000, 4.000000, 4.000000, 4.000000, 4.000000, 4.000000, 4.000000, 4.000000, 4.000000, 4.000000, 4.000000
24.000000, 0.000000, 4195.897461, 4110.769043, 4198.461426, 4153.846191, 4188.205078, 4222.051270, 4233.333008, 4212.820313, 4229.743652, 4254.358887, 4236.410156, 4209.230469, 4213.846191, 4204.615234, 0.000000, 8205.000000, 8196.000000, 0.000000, 0.000000, 0.000000, 17283.000000, 940.512817, 4.000000, 4.000000, 4.000000, 4.000000, 4.000000, 4.000000, 4.000000, 4.000000, 4.000000, 4.000000, 4.000000, 4.000000, 4.000000, 4.000000, 4.000000, 4.000000
25.000000, 0.000000, 4198.974121, 4104.102539, 4192.307617, 4153.846191, 4198.461426, 4214.358887, 4228.717773, 4213.846191, 4226.666504, 4237.436035, 4225.127930, 4213.846191, 4207.692383, 4212.307617, 0.000000, 8150.000000, 8195.000000, 0.000000, 0.000000, 0.000000, 17283.000000, 948.205078, 4.000000, 4.000000, 4.000000, 4.000000, 4.000000, 4.000000, 4.000000, 4.000000, 4.000000, 4.000000, 4.000000, 4.000000, 4.000000, 4.000000, 4.000000, 4.000000
26.000000, 0.000000, 4198.461426, 4100.000000, 4188.717773, 4148.205078, 4188.205078, 4224.615234, 4229.230469, 4207.179199, 4236.410156, 4238.461426, 4231.794922, 4213.846191, 4212.307617, 4212.820313, 0.000000, 8150.000000, 8195.000000, 0.000000, 0.000000, 0.000000, 17283.000000, 955.897400, 4.000000, 4.000000, 4.000000, 4.000000, 4.000000, 4.000000, 4.000000, 4.000000, 4.000000, 4.000000, 4.000000, 4.000000, 4.000000, 4.000000, 4.000000, 4.000000
27.000000, 0.000000, 4192.820313, 4094.871582, 4185.127930, 4146.153809, 4182.563965, 4234.358887, 4233.846191, 4203.076660, 4236.410156, 4243.076660, 4229.743652, 4210.769043, 4211.794922, 4208.205078, 0.000000, 8124.000000, 8190.000000, 0.000000, 0.000000, 0.000000, 17283.000000, 963.589722, 4.000000, 4.000000, 4.000000, 4.000000, 4.000000, 4.000000, 4.000000, 4.000000, 4.000000, 4.000000, 4.000000, 4.000000, 4.000000, 4.000000, 4.000000, 4.000000
28.000000, 0.000000, 4192.820313, 4101.025391, 4183.589844, 4150.769043, 4196.410156, 4233.846191, 4232.820313, 4211.281738, 4236.922852, 4241.025391, 4220.000000, 4205.127930, 4206.153809, 4207.692383, 0.000000, 8124.000000, 8190.000000, 0.000000, 0.000000, 0.000000, 17283.000000, 971.794861, 4.000000, 4.000000, 4.000000, 4.000000, 4.000000, 4.000000, 4.000000, 4.000000, 4.000000, 4.000000, 4.000000, 4.000000, 4.000000, 4.000000, 4.000000, 4.000000
29.000000, 0.000000, 4193.333008, 4105.641113, 4183.589844, 4153.846191, 4190.769043, 4224.615234, 4234.358887, 4221.025391, 4233.333008, 4236.410156, 4217.948730, 4201.538574, 4202.051270, 4206.153809, 0.000000, 8104.000000, 8197.000000, 0.000000, 0.000000, 0.000000, 17283.000000, 979.487183, 4.000000, 4.000000, 4.000000, 4.000000, 4.000000, 4.000000, 4.000000, 4.000000, 4.000000, 4.000000, 4.000000, 4.000000, 4.000000, 4.000000, 4.000000, 4.000000
30.000000, 0.000000, 4189.230469, 4095.897217, 4181.538574, 4149.743652, 4178.461426, 4214.871582, 4235.384277, 4227.692383, 4227.179199, 4231.281738, 4218.461426, 4208.205078, 4199.487305, 4210.256348, 0.000000, 8104.000000, 8197.000000, 0.000000, 0.000000, 0.000000, 17283.000000, 987.179443, 4.000000, 4.000000, 4.000000, 4.000000, 4.000000, 4.000000, 4.000000, 4.000000, 4.000000, 4.000000, 4.000000, 4.000000, 4.000000, 4.000000, 4.000000, 4.000000
31.000000, 0.000000, 4186.666504, 4089.743408, 4181.025391, 4148.717773, 4198.974121, 4209.230469, 4229.743652, 4234.358887, 4228.717773, 4230.256348, 4222.563965, 4207.692383, 4204.615234, 4208.205078, 0.000000, 8066.000000, 8201.000000, 0.000000, 0.000000, 0.000000, 17283.000000, 995.384583, 4.000000, 4.000000, 4.000000, 4.000000, 4.000000, 4.000000, 4.000000, 4.000000, 4.000000, 4.000000, 4.000000, 4.000000, 4.000000, 4.000000, 4.000000, 4.000000
32.000000, 0.000000, 4200.000000, 4102.051270, 4195.897461, 4160.512695, 4209.230469, 4226.153809, 4230.769043, 4243.589844, 4249.230469, 4242.563965, 4239.487305, 4223.589844, 4220.512695, 4215.384277, 0.000000, 8066.000000, 8201.000000, 0.000000, 0.000000, 0.000000, 17284.000000, 3.076923, 4.000000, 4.000000, 4.000000, 4.000000, 4.000000, 4.000000, 4.000000, 4.000000, 4.000000, 4.000000, 4.000000, 4.000000, 4.000000, 4.000000, 4.000000, 4.000000
33.000000, 0.000000, 4211.794922, 4108.717773, 4208.717773, 4165.641113, 4191.281738, 4253.333008, 4238.461426, 4248.717773, 4268.717773, 4269.230469, 4253.333008, 4241.025391, 4227.692383, 4223.076660, 0.000000, 8052.000000, 8196.000000, 0.000000, 0.000000, 0.000000, 17284.000000, 10.769231, 4.000000, 4.000000, 4.000000, 4.000000, 4.000000, 4.000000, 4.000000, 4.000000, 4.000000, 4.000000, 4.000000, 4.000000, 4.000000, 4.000000, 4.000000, 4.000000
34.000000, 0.000000, 4210.769043, 4100.000000, 4198.974121, 4162.051270, 4192.307617, 4241.538574, 4234.871582, 4240.000000, 4256.922852, 4283.589844, 4250.256348, 4228.717773, 4216.922852, 4208.717773, 0.000000, 8052.000000, 8196.000000, 0.000000, 0.000000, 0.000000, 17284.000000, 18.461538, 4.000000, 4.000000, 4.000000, 4.000000, 4.000000, 4.000000, 4.000000, 4.000000, 4.000000, 4.000000, 4.000000, 4.000000, 4.000000, 4.000000, 4.000000, 4.000000
35.000000, 0.000000, 4209.230469, 4099.487305, 4189.743652, 4165.127930, 4197.436035, 4216.410156, 4225.641113, 4226.666504, 4241.025391, 4271.794922, 4243.589844, 4220.512695, 4211.281738, 4207.692383, 0.000000, 8026.000000, 8187.000000, 0.000000, 0.000000, 0.000000, 17284.000000, 26.153845, 4.000000, 4.000000, 4.000000, 4.000000, 4.000000, 4.000000, 4.000000, 4.000000, 4.000000, 4.000000, 4.000000, 4.000000, 4.000000, 4.000000, 4.000000, 4.000000
36.000000, 0.000000, 4208.717773, 4118.974121, 4195.897461, 4174.871582, 4184.102539, 4230.256348, 4228.205078, 4222.051270, 4250.769043, 4256.922852, 4243.589844, 4221.538574, 4217.948730, 4213.333008, 0.000000, 8026.000000, 8187.000000, 0.000000, 0.000000, 0.000000, 17284.000000, 34.358974, 4.000000, 4.000000, 4.000000, 4.000000, 4.000000, 4.000000, 4.000000, 4.000000, 4.000000, 4.000000, 4.000000, 4.000000, 4.000000, 4.000000, 4.000000, 4.000000
37.000000, 0.000000, 4213.333008, 4130.769043, 4202.563965, 4176.922852, 4189.230469, 4248.717773, 4236.922852, 4218.974121, 4249.230469, 4254.358887, 4248.205078, 4226.153809, 4219.487305, 4211.794922, 0.000000, 8020.000000, 8179.000000, 0.000000, 0.000000, 0.000000, 17284.000000, 42.051281, 4.000000, 4.000000, 4.000000, 4.000000, 4.000000, 4.000000, 4.000000, 4.000000, 4.000000, 4.000000, 4.000000, 4.000000, 4.000000, 4.000000, 4.000000, 4.000000
