title:winkLeft27, recorded:21.05.18 17.06.11, timestamp started:2018-05-12T20:28:52.032863+02:00            , sampling:128, subject:Noé, labels:COUNTER INTERPOLATED AF3 F7 F3 FC5 T7 P7 O1 O2 P8 T8 FC6 F4 F8 AF4 RAW_CQ GYROX GYROY MARKER MARKER_HARDWARE SYNC TIME_STAMP_s TIME_STAMP_ms CQ_AF3 CQ_F7 CQ_F3 CQ_FC5 CQ_T7 CQ_P7 CQ_O1 CQ_O2 CQ_P8 CQ_T8 CQ_FC6 CQ_F4 CQ_F8 CQ_AF4 CQ_CMS CQ_DRL, chan:40, samples:2356, units:emotiv
76.000000, 0.000000, 4336.922852, 4260.000000, 4281.538574, 4282.051270, 4265.127930, 4272.307617, 4263.076660, 4265.641113, 4200.512695, 4269.230469, 4296.410156, 4323.589844, 4313.333008, 4300.000000, 3651.000000, 8204.000000, 8172.000000, 0.000000, 0.000000, 0.000000, -20992.000000, 310.256409, 4.000000, 4.000000, 4.000000, 4.000000, 4.000000, 4.000000, 4.000000, 4.000000, 1.000000, 4.000000, 4.000000, 4.000000, 4.000000, 4.000000, 4.000000, 4.000000
77.000000, 0.000000, 4333.333008, 4261.538574, 4280.512695, 4281.025391, 4263.076660, 4270.769043, 4263.589844, 4266.666504, 4201.025391, 4269.743652, 4297.436035, 4320.000000, 4312.307617, 4300.512695, 3597.000000, 8211.000000, 8170.000000, 0.000000, 0.000000, 0.000000, -20992.000000, 317.948700, 4.000000, 4.000000, 4.000000, 4.000000, 4.000000, 4.000000, 4.000000, 4.000000, 1.000000, 4.000000, 4.000000, 4.000000, 4.000000, 4.000000, 4.000000, 4.000000
78.000000, 0.000000, 4326.153809, 4252.307617, 4279.487305, 4276.922852, 4259.487305, 4273.846191, 4267.692383, 4276.410156, 4201.025391, 4267.692383, 4294.871582, 4317.948730, 4313.333008, 4295.384277, 3584.000000, 8211.000000, 8170.000000, 0.000000, 0.000000, 0.000000, -20992.000000, 326.153839, 4.000000, 4.000000, 4.000000, 4.000000, 4.000000, 4.000000, 4.000000, 4.000000, 1.000000, 4.000000, 4.000000, 4.000000, 4.000000, 4.000000, 4.000000, 4.000000
79.000000, 0.000000, 4325.641113, 4248.205078, 4278.461426, 4275.897461, 4261.025391, 4275.384277, 4268.717773, 4276.922852, 4201.025391, 4271.281738, 4292.820313, 4318.974121, 4312.307617, 4295.897461, 3547.000000, 8219.000000, 8172.000000, 0.000000, 0.000000, 0.000000, -20992.000000, 333.846161, 4.000000, 4.000000, 4.000000, 4.000000, 4.000000, 4.000000, 4.000000, 4.000000, 1.000000, 4.000000, 4.000000, 4.000000, 4.000000, 4.000000, 4.000000, 4.000000
80.000000, 0.000000, 4326.153809, 4251.281738, 4274.358887, 4271.794922, 4260.000000, 4267.179199, 4263.076660, 4272.820313, 4201.025391, 4269.743652, 4293.846191, 4314.358887, 4309.743652, 4296.922852, 3651.000000, 8219.000000, 8172.000000, 0.000000, 0.000000, 0.000000, -20992.000000, 342.051270, 4.000000, 4.000000, 4.000000, 4.000000, 4.000000, 4.000000, 4.000000, 4.000000, 1.000000, 4.000000, 4.000000, 4.000000, 4.000000, 4.000000, 4.000000, 4.000000
81.000000, 0.000000, 4324.102539, 4250.769043, 4274.871582, 4271.794922, 4256.410156, 4266.153809, 4262.051270, 4276.410156, 4201.025391, 4267.179199, 4293.846191, 4314.358887, 4311.794922, 4296.410156, 3597.000000, 8229.000000, 8158.000000, 0.000000, 0.000000, 0.000000, -20992.000000, 349.743591, 4.000000, 4.000000, 4.000000, 4.000000, 4.000000, 4.000000, 4.000000, 4.000000, 1.000000, 4.000000, 4.000000, 4.000000, 4.000000, 4.000000, 4.000000, 4.000000
82.000000, 0.000000, 4324.615234, 4254.358887, 4276.922852, 4276.410156, 4259.487305, 4277.948730, 4266.153809, 4278.461426, 4201.025391, 4270.256348, 4288.717773, 4314.358887, 4311.281738, 4293.333008, 3584.000000, 8229.000000, 8158.000000, 0.000000, 0.000000, 0.000000, -20992.000000, 357.948700, 4.000000, 4.000000, 4.000000, 4.000000, 4.000000, 4.000000, 4.000000, 4.000000, 1.000000, 4.000000, 4.000000, 4.000000, 4.000000, 4.000000, 4.000000, 4.000000
83.000000, 0.000000, 4324.615234, 4263.589844, 4276.410156, 4278.461426, 4263.076660, 4279.487305, 4264.102539, 4274.358887, 4201.538574, 4268.205078, 4281.025391, 4301.025391, 4301.538574, 4286.153809, 3547.000000, 8232.000000, 8152.000000, 0.000000, 0.000000, 0.000000, -20992.000000, 365.641022, 4.000000, 4.000000, 4.000000, 4.000000, 4.000000, 4.000000, 4.000000, 4.000000, 1.000000, 4.000000, 4.000000, 4.000000, 4.000000, 4.000000, 4.000000, 4.000000
84.000000, 0.000000, 4315.897461, 4256.922852, 4272.307617, 4273.846191, 4260.000000, 4274.358887, 4262.563965, 4275.897461, 4201.025391, 4262.563965, 4280.512695, 4295.897461, 4296.410156, 4280.000000, 3651.000000, 8232.000000, 8152.000000, 0.000000, 0.000000, 0.000000, -20992.000000, 373.846130, 4.000000, 4.000000, 4.000000, 4.000000, 4.000000, 4.000000, 4.000000, 4.000000, 1.000000, 4.000000, 4.000000, 4.000000, 4.000000, 4.000000, 4.000000, 4.000000
85.000000, 0.000000, 4308.205078, 4245.127930, 4267.179199, 4267.692383, 4256.922852, 4277.436035, 4264.615234, 4284.102539, 4200.000000, 4264.615234, 4281.025391, 4306.153809, 4296.922852, 4278.461426, 3597.000000, 8235.000000, 8147.000000, 0.000000, 0.000000, 0.000000, -20992.000000, 381.538452, 4.000000, 4.000000, 4.000000, 4.000000, 4.000000, 4.000000, 4.000000, 4.000000, 1.000000, 4.000000, 4.000000, 4.000000, 4.000000, 4.000000, 4.000000, 4.000000
86.000000, 0.000000, 4311.794922, 4253.333008, 4268.717773, 4270.769043, 4258.974121, 4272.820313, 4260.512695, 4280.512695, 4200.000000, 4263.076660, 4279.487305, 4308.205078, 4292.820313, 4281.025391, 3584.000000, 8235.000000, 8147.000000, 0.000000, 0.000000, 0.000000, -20992.000000, 389.743591, 4.000000, 4.000000, 4.000000, 4.000000, 4.000000, 4.000000, 4.000000, 4.000000, 1.000000, 4.000000, 4.000000, 4.000000, 4.000000, 4.000000, 4.000000, 4.000000
87.000000, 0.000000, 4314.871582, 4265.127930, 4273.333008, 4278.974121, 4262.563965, 4262.051270, 4251.281738, 4265.641113, 4200.000000, 4255.897461, 4276.922852, 4303.076660, 4281.538574, 4278.974121, 3547.000000, 8226.000000, 8139.000000, 0.000000, 0.000000, 0.000000, -20992.000000, 397.948700, 4.000000, 4.000000, 4.000000, 4.000000, 4.000000, 4.000000, 4.000000, 4.000000, 1.000000, 4.000000, 4.000000, 4.000000, 4.000000, 4.000000, 4.000000, 4.000000
88.000000, 0.000000, 4310.769043, 4267.692383, 4270.256348, 4279.487305, 4262.563965, 4267.179199, 4249.230469, 4262.563965, 4200.512695, 4249.743652, 4269.230469, 4296.410156, 4266.666504, 4268.205078, 3651.000000, 8226.000000, 8139.000000, 0.000000, 0.000000, 0.000000, -20992.000000, 405.641022, 4.000000, 4.000000, 4.000000, 4.000000, 4.000000, 4.000000, 4.000000, 4.000000, 1.000000, 4.000000, 4.000000, 4.000000, 4.000000, 4.000000, 4.000000, 4.000000
89.000000, 0.000000, 4306.153809, 4269.230469, 4260.512695, 4274.358887, 4260.000000, 4272.820313, 4253.333008, 4263.589844, 4200.000000, 4246.153809, 4258.974121, 4283.076660, 4246.666504, 4257.948730, 3597.000000, 8209.000000, 8150.000000, 0.000000, 0.000000, 0.000000, -20992.000000, 413.846130, 4.000000, 4.000000, 4.000000, 4.000000, 4.000000, 4.000000, 4.000000, 4.000000, 1.000000, 4.000000, 4.000000, 4.000000, 4.000000, 4.000000, 4.000000, 4.000000
90.000000, 0.000000, 4312.307617, 4276.922852, 4261.538574, 4276.922852, 4260.512695, 4266.666504, 4252.307617, 4251.794922, 4200.000000, 4243.076660, 4255.897461, 4274.871582, 4234.358887, 4256.410156, 3584.000000, 8209.000000, 8150.000000, 0.000000, 0.000000, 0.000000, -20992.000000, 421.538452, 4.000000, 4.000000, 4.000000, 4.000000, 4.000000, 4.000000, 4.000000, 4.000000, 1.000000, 4.000000, 4.000000, 4.000000, 4.000000, 4.000000, 4.000000, 4.000000
91.000000, 0.000000, 4326.666504, 4286.666504, 4271.794922, 4284.615234, 4263.589844, 4262.563965, 4247.692383, 4243.589844, 4200.512695, 4241.538574, 4260.000000, 4280.512695, 4232.307617, 4261.025391, 3547.000000, 8207.000000, 8154.000000, 0.000000, 0.000000, 0.000000, -20992.000000, 429.743591, 4.000000, 4.000000, 4.000000, 4.000000, 4.000000, 4.000000, 4.000000, 4.000000, 1.000000, 4.000000, 4.000000, 4.000000, 4.000000, 4.000000, 4.000000, 4.000000
92.000000, 0.000000, 4338.461426, 4292.820313, 4273.846191, 4291.281738, 4265.127930, 4265.641113, 4246.666504, 4249.230469, 4200.000000, 4244.615234, 4263.589844, 4290.769043, 4232.820313, 4268.717773, 3651.000000, 8207.000000, 8154.000000, 0.000000, 0.000000, 0.000000, -20992.000000, 437.435883, 4.000000, 4.000000, 4.000000, 4.000000, 4.000000, 4.000000, 4.000000, 4.000000, 1.000000, 4.000000, 4.000000, 4.000000, 4.000000, 4.000000, 4.000000, 4.000000
93.000000, 0.000000, 4347.179199, 4296.410156, 4275.897461, 4296.410156, 4265.127930, 4267.179199, 4249.743652, 4254.358887, 4200.000000, 4245.641113, 4262.563965, 4297.948730, 4232.307617, 4275.897461, 3597.000000, 8203.000000, 8155.000000, 0.000000, 0.000000, 0.000000, -20992.000000, 445.641022, 4.000000, 4.000000, 4.000000, 4.000000, 4.000000, 4.000000, 4.000000, 4.000000, 1.000000, 4.000000, 4.000000, 4.000000, 4.000000, 4.000000, 4.000000, 4.000000
94.000000, 0.000000, 4354.358887, 4301.025391, 4285.127930, 4299.487305, 4266.666504, 4270.769043, 4251.281738, 4256.410156, 4201.025391, 4245.127930, 4263.589844, 4306.153809, 4233.333008, 4281.538574, 3584.000000, 8203.000000, 8155.000000, 0.000000, 0.000000, 0.000000, -20992.000000, 453.333313, 4.000000, 4.000000, 4.000000, 4.000000, 4.000000, 4.000000, 4.000000, 4.000000, 1.000000, 4.000000, 4.000000, 4.000000, 4.000000, 4.000000, 4.000000, 4.000000
95.000000, 0.000000, 4356.922852, 4302.563965, 4285.127930, 4301.025391, 4265.641113, 4276.922852, 4250.769043, 4262.563965, 4201.538574, 4246.153809, 4265.127930, 4307.179199, 4240.512695, 4290.256348, 3547.000000, 8198.000000, 8158.000000, 0.000000, 0.000000, 0.000000, -20992.000000, 461.538452, 4.000000, 4.000000, 4.000000, 4.000000, 4.000000, 4.000000, 4.000000, 4.000000, 1.000000, 4.000000, 4.000000, 4.000000, 4.000000, 4.000000, 4.000000, 4.000000
96.000000, 0.000000, 4359.487305, 4302.563965, 4283.076660, 4304.102539, 4269.743652, 4278.974121, 4250.256348, 4260.512695, 4201.025391, 4244.615234, 4264.102539, 4300.512695, 4245.127930, 4295.384277, 3651.000000, 8198.000000, 8158.000000, 0.000000, 0.000000, 0.000000, -20992.000000, 469.230743, 4.000000, 4.000000, 4.000000, 4.000000, 4.000000, 4.000000, 4.000000, 4.000000, 1.000000, 4.000000, 4.000000, 4.000000, 4.000000, 4.000000, 4.000000, 4.000000
97.000000, 0.000000, 4365.641113, 4307.692383, 4288.717773, 4308.205078, 4275.897461, 4280.000000, 4251.794922, 4257.948730, 4201.025391, 4242.563965, 4264.615234, 4301.025391, 4245.641113, 4293.846191, 3597.000000, 8193.000000, 8156.000000, 0.000000, 0.000000, 0.000000, -20992.000000, 477.435883, 4.000000, 4.000000, 4.000000, 4.000000, 4.000000, 4.000000, 4.000000, 4.000000, 1.000000, 4.000000, 4.000000, 4.000000, 4.000000, 4.000000, 4.000000, 4.000000
98.000000, 0.000000, 4369.230469, 4311.281738, 4289.230469, 4306.666504, 4271.794922, 4280.512695, 4254.358887, 4267.179199, 4201.538574, 4243.589844, 4268.717773, 4304.615234, 4247.179199, 4300.000000, 3584.000000, 8193.000000, 8156.000000, 0.000000, 0.000000, 0.000000, -20992.000000, 485.128204, 4.000000, 4.000000, 4.000000, 4.000000, 4.000000, 4.000000, 4.000000, 4.000000, 1.000000, 4.000000, 4.000000, 4.000000, 4.000000, 4.000000, 4.000000, 4.000000
99.000000, 0.000000, 4372.820313, 4309.230469, 4285.127930, 4302.563965, 4266.666504, 4279.487305, 4252.820313, 4260.512695, 4200.000000, 4247.179199, 4265.127930, 4301.025391, 4249.743652, 4309.230469, 3547.000000, 8184.000000, 8152.000000, 0.000000, 0.000000, 0.000000, -20992.000000, 493.333313, 4.000000, 4.000000, 4.000000, 4.000000, 4.000000, 4.000000, 4.000000, 4.000000, 1.000000, 4.000000, 4.000000, 4.000000, 4.000000, 4.000000, 4.000000, 4.000000
100.000000, 0.000000, 4382.051270, 4315.384277, 4291.794922, 4307.692383, 4273.333008, 4277.948730, 4248.717773, 4244.102539, 4198.461426, 4246.153809, 4264.102539, 4303.589844, 4251.794922, 4309.743652, 3651.000000, 8184.000000, 8152.000000, 0.000000, 0.000000, 0.000000, -20992.000000, 501.025635, 4.000000, 4.000000, 4.000000, 4.000000, 4.000000, 4.000000, 4.000000, 4.000000, 1.000000, 4.000000, 4.000000, 4.000000, 4.000000, 4.000000, 4.000000, 4.000000
101.000000, 0.000000, 4390.256348, 4326.153809, 4295.384277, 4313.333008, 4277.436035, 4272.820313, 4244.102539, 4254.358887, 4200.512695, 4246.153809, 4272.307617, 4311.281738, 4258.974121, 4315.384277, 3597.000000, 8181.000000, 8152.000000, 0.000000, 0.000000, 0.000000, -20992.000000, 509.230743, 4.000000, 4.000000, 4.000000, 4.000000, 4.000000, 4.000000, 4.000000, 4.000000, 1.000000, 4.000000, 4.000000, 4.000000, 4.000000, 4.000000, 4.000000, 4.000000
102.000000, 0.000000, 4398.461426, 4331.794922, 4291.281738, 4309.743652, 4273.333008, 4270.769043, 4247.179199, 4279.487305, 4202.563965, 4254.871582, 4280.512695, 4311.281738, 4271.281738, 4328.717773, 3584.000000, 8181.000000, 8152.000000, 0.000000, 0.000000, 0.000000, -20992.000000, 516.923035, 4.000000, 4.000000, 4.000000, 4.000000, 4.000000, 4.000000, 4.000000, 4.000000, 1.000000, 4.000000, 4.000000, 4.000000, 4.000000, 4.000000, 4.000000, 4.000000
103.000000, 0.000000, 4411.281738, 4336.410156, 4294.871582, 4312.820313, 4273.333008, 4275.897461, 4260.000000, 4287.179199, 4201.025391, 4264.615234, 4287.692383, 4318.461426, 4284.102539, 4341.025391, 3547.000000, 8189.000000, 8148.000000, 0.000000, 0.000000, 0.000000, -20992.000000, 525.128174, 4.000000, 4.000000, 4.000000, 4.000000, 4.000000, 4.000000, 4.000000, 4.000000, 1.000000, 4.000000, 4.000000, 4.000000, 4.000000, 4.000000, 4.000000, 4.000000
104.000000, 0.000000, 4415.384277, 4340.512695, 4299.487305, 4321.538574, 4276.922852, 4277.948730, 4259.487305, 4280.512695, 4198.974121, 4265.127930, 4293.333008, 4331.281738, 4293.333008, 4346.153809, 3651.000000, 8189.000000, 8148.000000, 0.000000, 0.000000, 0.000000, -20992.000000, 533.333313, 4.000000, 4.000000, 4.000000, 4.000000, 4.000000, 4.000000, 4.000000, 4.000000, 1.000000, 4.000000, 4.000000, 4.000000, 4.000000, 4.000000, 4.000000, 4.000000
105.000000, 0.000000, 4411.794922, 4341.538574, 4296.922852, 4320.512695, 4277.436035, 4274.358887, 4246.153809, 4268.205078, 4199.487305, 4263.076660, 4288.717773, 4323.589844, 4290.769043, 4339.487305, 3597.000000, 8203.000000, 8132.000000, 0.000000, 0.000000, 0.000000, -20992.000000, 541.025635, 4.000000, 4.000000, 4.000000, 4.000000, 4.000000, 4.000000, 4.000000, 4.000000, 1.000000, 4.000000, 4.000000, 4.000000, 4.000000, 4.000000, 4.000000, 4.000000
106.000000, 0.000000, 4413.333008, 4341.025391, 4293.846191, 4317.436035, 4277.436035, 4273.333008, 4246.666504, 4261.025391, 4200.512695, 4261.538574, 4281.538574, 4310.256348, 4282.051270, 4330.769043, 3584.000000, 8203.000000, 8132.000000, 0.000000, 0.000000, 0.000000, -20992.000000, 548.717957, 4.000000, 4.000000, 4.000000, 4.000000, 4.000000, 4.000000, 4.000000, 4.000000, 1.000000, 4.000000, 4.000000, 4.000000, 4.000000, 4.000000, 4.000000, 4.000000
107.000000, 0.000000, 4410.769043, 4341.025391, 4294.358887, 4324.102539, 4278.974121, 4276.410156, 4256.922852, 4273.846191, 4201.025391, 4265.641113, 4281.538574, 4312.307617, 4279.487305, 4323.076660, 3547.000000, 8210.000000, 8131.000000, 0.000000, 0.000000, 0.000000, -20992.000000, 556.923035, 4.000000, 4.000000, 4.000000, 4.000000, 4.000000, 4.000000, 4.000000, 4.000000, 1.000000, 4.000000, 4.000000, 4.000000, 4.000000, 4.000000, 4.000000, 4.000000
108.000000, 0.000000, 4401.538574, 4344.102539, 4296.410156, 4326.666504, 4281.025391, 4280.000000, 4251.281738, 4285.641113, 4201.538574, 4275.897461, 4281.025391, 4312.820313, 4278.974121, 4315.897461, 3651.000000, 8210.000000, 8131.000000, 0.000000, 0.000000, 0.000000, -20992.000000, 565.128174, 4.000000, 4.000000, 4.000000, 4.000000, 4.000000, 4.000000, 4.000000, 4.000000, 1.000000, 4.000000, 4.000000, 4.000000, 4.000000, 4.000000, 4.000000, 4.000000
109.000000, 0.000000, 4392.820313, 4342.051270, 4294.358887, 4315.897461, 4281.538574, 4279.487305, 4248.717773, 4274.871582, 4201.025391, 4272.820313, 4276.410156, 4301.025391, 4277.436035, 4304.615234, 3597.000000, 8224.000000, 8129.000000, 0.000000, 0.000000, 0.000000, -20992.000000, 572.820496, 4.000000, 4.000000, 4.000000, 4.000000, 4.000000, 4.000000, 4.000000, 4.000000, 1.000000, 4.000000, 4.000000, 4.000000, 4.000000, 4.000000, 4.000000, 4.000000
110.000000, 0.000000, 4384.615234, 4332.307617, 4290.769043, 4310.256348, 4281.025391, 4276.410156, 4257.436035, 4266.153809, 4201.025391, 4262.051270, 4273.846191, 4291.281738, 4278.461426, 4294.871582, 3584.000000, 8224.000000, 8129.000000, 0.000000, 0.000000, 0.000000, -20992.000000, 581.025635, 4.000000, 4.000000, 4.000000, 4.000000, 4.000000, 4.000000, 4.000000, 4.000000, 1.000000, 4.000000, 4.000000, 4.000000, 4.000000, 4.000000, 4.000000, 4.000000
111.000000, 0.000000, 4373.846191, 4326.666504, 4290.769043, 4312.307617, 4280.512695, 4277.948730, 4254.871582, 4278.461426, 4201.025391, 4267.692383, 4274.358887, 4294.871582, 4278.461426, 4290.769043, 3547.000000, 8228.000000, 8131.000000, 0.000000, 0.000000, 0.000000, -20992.000000, 588.717957, 4.000000, 4.000000, 4.000000, 4.000000, 4.000000, 4.000000, 4.000000, 4.000000, 1.000000, 4.000000, 4.000000, 4.000000, 4.000000, 4.000000, 4.000000, 4.000000
112.000000, 0.000000, 4369.743652, 4325.127930, 4292.307617, 4311.794922, 4281.025391, 4276.410156, 4248.717773, 4291.281738, 4201.025391, 4278.974121, 4278.974121, 4305.641113, 4278.461426, 4290.769043, 3651.000000, 8228.000000, 8131.000000, 0.000000, 0.000000, 0.000000, -20992.000000, 596.923035, 4.000000, 4.000000, 4.000000, 4.000000, 4.000000, 4.000000, 4.000000, 4.000000, 1.000000, 4.000000, 4.000000, 4.000000, 4.000000, 4.000000, 4.000000, 4.000000
113.000000, 0.000000, 4371.794922, 4320.000000, 4294.871582, 4311.794922, 4280.512695, 4266.666504, 4249.743652, 4294.871582, 4201.025391, 4278.974121, 4283.589844, 4313.846191, 4281.538574, 4295.384277, 3597.000000, 8239.000000, 8140.000000, 0.000000, 0.000000, 0.000000, -20992.000000, 604.615356, 4.000000, 4.000000, 4.000000, 4.000000, 4.000000, 4.000000, 4.000000, 4.000000, 1.000000, 4.000000, 4.000000, 4.000000, 4.000000, 4.000000, 4.000000, 4.000000
114.000000, 0.000000, 4369.230469, 4311.794922, 4297.436035, 4311.281738, 4277.436035, 4264.102539, 4247.179199, 4293.333008, 4201.025391, 4275.897461, 4283.076660, 4317.436035, 4282.051270, 4294.871582, 3584.000000, 8239.000000, 8140.000000, 0.000000, 0.000000, 0.000000, -20992.000000, 612.820496, 4.000000, 4.000000, 4.000000, 4.000000, 4.000000, 4.000000, 4.000000, 4.000000, 1.000000, 4.000000, 4.000000, 4.000000, 4.000000, 4.000000, 4.000000, 4.000000
115.000000, 0.000000, 4361.025391, 4309.743652, 4295.384277, 4302.051270, 4276.922852, 4274.871582, 4244.102539, 4281.025391, 4201.025391, 4276.922852, 4280.512695, 4318.974121, 4277.436035, 4291.794922, 3547.000000, 8239.000000, 8142.000000, 0.000000, 0.000000, 0.000000, -20992.000000, 620.512817, 4.000000, 4.000000, 4.000000, 4.000000, 4.000000, 4.000000, 4.000000, 4.000000, 1.000000, 4.000000, 4.000000, 4.000000, 4.000000, 4.000000, 4.000000, 4.000000
116.000000, 0.000000, 4354.871582, 4311.794922, 4293.333008, 4295.384277, 4279.487305, 4280.512695, 4254.358887, 4273.846191, 4201.025391, 4278.974121, 4280.000000, 4322.563965, 4277.436035, 4292.820313, 3651.000000, 8239.000000, 8142.000000, 0.000000, 0.000000, 0.000000, -20992.000000, 628.717957, 4.000000, 4.000000, 4.000000, 4.000000, 4.000000, 4.000000, 4.000000, 4.000000, 1.000000, 4.000000, 4.000000, 4.000000, 4.000000, 4.000000, 4.000000, 4.000000
117.000000, 0.000000, 4354.871582, 4307.179199, 4288.717773, 4298.461426, 4280.000000, 4278.461426, 4259.487305, 4275.384277, 4201.025391, 4279.487305, 4286.666504, 4326.666504, 4284.102539, 4292.820313, 3597.000000, 8244.000000, 8142.000000, 0.000000, 0.000000, 0.000000, -20992.000000, 636.410217, 4.000000, 4.000000, 4.000000, 4.000000, 4.000000, 4.000000, 4.000000, 4.000000, 1.000000, 4.000000, 4.000000, 4.000000, 4.000000, 4.000000, 4.000000, 4.000000
118.000000, 0.000000, 4356.922852, 4305.641113, 4284.615234, 4302.051270, 4278.974121, 4278.974121, 4249.230469, 4265.127930, 4202.563965, 4277.948730, 4292.820313, 4325.641113, 4291.281738, 4293.333008, 3584.000000, 8244.000000, 8142.000000, 0.000000, 0.000000, 0.000000, -20992.000000, 644.102539, 4.000000, 4.000000, 4.000000, 4.000000, 4.000000, 4.000000, 4.000000, 4.000000, 1.000000, 4.000000, 4.000000, 4.000000, 4.000000, 4.000000, 4.000000, 4.000000
119.000000, 0.000000, 4356.410156, 4309.230469, 4288.205078, 4303.076660, 4281.025391, 4278.974121, 4244.102539, 4264.102539, 4202.563965, 4279.487305, 4297.436035, 4329.743652, 4300.512695, 4301.538574, 3547.000000, 8240.000000, 8146.000000, 0.000000, 0.000000, 0.000000, -20992.000000, 652.307678, 4.000000, 4.000000, 4.000000, 4.000000, 4.000000, 4.000000, 4.000000, 4.000000, 1.000000, 4.000000, 4.000000, 4.000000, 4.000000, 4.000000, 4.000000, 4.000000
120.000000, 0.000000, 4356.410156, 4310.256348, 4291.794922, 4302.051270, 4281.025391, 4273.333008, 4246.153809, 4280.512695, 4201.025391, 4283.589844, 4303.589844, 4339.487305, 4308.205078, 4308.717773, 3651.000000, 8240.000000, 8146.000000, 0.000000, 0.000000, 0.000000, -20992.000000, 660.512817, 4.000000, 4.000000, 4.000000, 4.000000, 4.000000, 4.000000, 4.000000, 4.000000, 1.000000, 4.000000, 4.000000, 4.000000, 4.000000, 4.000000, 4.000000, 4.000000
121.000000, 0.000000, 4358.974121, 4310.769043, 4292.307617, 4298.974121, 4278.461426, 4271.794922, 4243.076660, 4278.461426, 4201.025391, 4282.051270, 4303.589844, 4341.538574, 4308.205078, 4306.153809, 3597.000000, 8237.000000, 8152.000000, 0.000000, 0.000000, 0.000000, -20992.000000, 668.205139, 4.000000, 4.000000, 4.000000, 4.000000, 4.000000, 4.000000, 4.000000, 4.000000, 1.000000, 4.000000, 4.000000, 4.000000, 4.000000, 4.000000, 4.000000, 4.000000
122.000000, 0.000000, 4359.487305, 4312.307617, 4294.871582, 4297.948730, 4279.487305, 4274.871582, 4245.127930, 4276.922852, 4201.025391, 4282.563965, 4302.051270, 4338.974121, 4305.641113, 4307.179199, 3584.000000, 8237.000000, 8152.000000, 0.000000, 0.000000, 0.000000, -20992.000000, 676.410217, 4.000000, 4.000000, 4.000000, 4.000000, 4.000000, 4.000000, 4.000000, 4.000000, 1.000000, 4.000000, 4.000000, 4.000000, 4.000000, 4.000000, 4.000000, 4.000000
123.000000, 0.000000, 4354.358887, 4309.743652, 4294.871582, 4296.922852, 4281.025391, 4271.281738, 4255.897461, 4291.281738, 4199.487305, 4288.205078, 4303.589844, 4335.897461, 4307.692383, 4308.205078, 3547.000000, 8222.000000, 8152.000000, 0.000000, 0.000000, 0.000000, -20992.000000, 684.102539, 4.000000, 4.000000, 4.000000, 4.000000, 4.000000, 4.000000, 4.000000, 4.000000, 1.000000, 4.000000, 4.000000, 4.000000, 4.000000, 4.000000, 4.000000, 4.000000
124.000000, 0.000000, 4352.820313, 4310.256348, 4291.281738, 4292.820313, 4276.922852, 4263.589844, 4258.974121, 4292.820313, 4201.025391, 4291.794922, 4304.102539, 4329.230469, 4306.666504, 4299.487305, 3651.000000, 8222.000000, 8152.000000, 0.000000, 0.000000, 0.000000, -20992.000000, 692.307678, 4.000000, 4.000000, 4.000000, 4.000000, 4.000000, 4.000000, 4.000000, 4.000000, 1.000000, 4.000000, 4.000000, 4.000000, 4.000000, 4.000000, 4.000000, 4.000000
125.000000, 0.000000, 4358.461426, 4311.794922, 4292.820313, 4294.358887, 4275.384277, 4264.615234, 4258.461426, 4295.384277, 4202.563965, 4294.358887, 4304.102539, 4329.743652, 4301.538574, 4296.922852, 3597.000000, 8217.000000, 8158.000000, 0.000000, 0.000000, 0.000000, -20992.000000, 700.000000, 4.000000, 4.000000, 4.000000, 4.000000, 4.000000, 4.000000, 4.000000, 4.000000, 1.000000, 4.000000, 4.000000, 4.000000, 4.000000, 4.000000, 4.000000, 4.000000
126.000000, 0.000000, 4353.333008, 4304.615234, 4298.461426, 4297.436035, 4276.922852, 4266.666504, 4262.051270, 4308.205078, 4201.538574, 4290.769043, 4302.051270, 4332.307617, 4295.897461, 4296.922852, 3584.000000, 8217.000000, 8158.000000, 0.000000, 0.000000, 0.000000, -20992.000000, 708.205139, 4.000000, 4.000000, 4.000000, 4.000000, 4.000000, 4.000000, 4.000000, 4.000000, 1.000000, 4.000000, 4.000000, 4.000000, 4.000000, 4.000000, 4.000000, 4.000000
127.000000, 0.000000, 4342.051270, 4297.948730, 4293.846191, 4291.281738, 4270.769043, 4263.589844, 4264.615234, 4306.666504, 4201.538574, 4281.538574, 4289.230469, 4321.025391, 4286.153809, 4285.127930, 57.000000, 8206.000000, 8158.000000, 0.000000, 0.000000, 0.000000, -20992.000000, 716.410217, 4.000000, 4.000000, 4.000000, 4.000000, 4.000000, 4.000000, 4.000000, 4.000000, 1.000000, 4.000000, 4.000000, 4.000000, 4.000000, 4.000000, 4.000000, 4.000000
0.000000, 0.000000, 4340.512695, 4298.461426, 4286.153809, 4287.692383, 4264.615234, 4267.179199, 4264.615234, 4295.384277, 4202.051270, 4275.897461, 4276.922852, 4310.256348, 4277.948730, 4276.922852, 3163.000000, 8206.000000, 8158.000000, 0.000000, 0.000000, 0.000000, -20992.000000, 724.102539, 4.000000, 4.000000, 4.000000, 4.000000, 4.000000, 4.000000, 4.000000, 4.000000, 1.000000, 4.000000, 4.000000, 4.000000, 4.000000, 4.000000, 4.000000, 4.000000
1.000000, 0.000000, 4334.871582, 4297.436035, 4284.102539, 4290.769043, 4267.692383, 4273.333008, 4263.076660, 4283.589844, 4200.512695, 4269.743652, 4273.846191, 4309.743652, 4275.384277, 4274.358887, 3514.000000, 8206.000000, 8172.000000, 0.000000, 0.000000, 0.000000, -20992.000000, 731.794861, 4.000000, 4.000000, 4.000000, 4.000000, 4.000000, 4.000000, 4.000000, 4.000000, 1.000000, 4.000000, 4.000000, 4.000000, 4.000000, 4.000000, 4.000000, 4.000000
2.000000, 0.000000, 4325.641113, 4294.871582, 4284.615234, 4286.666504, 4269.230469, 4273.846191, 4260.000000, 4273.846191, 4199.487305, 4262.563965, 4275.897461, 4311.281738, 4275.897461, 4268.205078, 3546.000000, 8206.000000, 8172.000000, 0.000000, 0.000000, 0.000000, -20992.000000, 740.000000, 4.000000, 4.000000, 4.000000, 4.000000, 4.000000, 4.000000, 4.000000, 4.000000, 1.000000, 4.000000, 4.000000, 4.000000, 4.000000, 4.000000, 4.000000, 4.000000
3.000000, 0.000000, 4327.179199, 4294.871582, 4282.051270, 4280.000000, 4266.666504, 4276.410156, 4254.871582, 4274.871582, 4201.025391, 4264.102539, 4274.871582, 4306.666504, 4273.333008, 4264.102539, 2377.000000, 8207.000000, 8176.000000, 0.000000, 0.000000, 0.000000, -20992.000000, 747.692261, 4.000000, 4.000000, 4.000000, 4.000000, 4.000000, 4.000000, 4.000000, 4.000000, 1.000000, 4.000000, 4.000000, 4.000000, 4.000000, 4.000000, 4.000000, 4.000000
4.000000, 0.000000, 4326.666504, 4292.307617, 4276.410156, 4278.974121, 4265.127930, 4275.384277, 4249.743652, 4280.512695, 4202.563965, 4265.127930, 4265.127930, 4298.974121, 4264.615234, 4262.563965, 3647.000000, 8207.000000, 8176.000000, 0.000000, 0.000000, 0.000000, -20992.000000, 755.384583, 4.000000, 4.000000, 4.000000, 4.000000, 4.000000, 4.000000, 4.000000, 4.000000, 1.000000, 4.000000, 4.000000, 4.000000, 4.000000, 4.000000, 4.000000, 4.000000
5.000000, 0.000000, 4322.051270, 4291.281738, 4275.384277, 4280.000000, 4266.666504, 4266.153809, 4245.641113, 4275.384277, 4202.051270, 4263.589844, 4263.076660, 4301.025391, 4260.512695, 4260.000000, 3567.000000, 8200.000000, 8182.000000, 0.000000, 0.000000, 0.000000, -20992.000000, 763.589722, 4.000000, 4.000000, 4.000000, 4.000000, 4.000000, 4.000000, 4.000000, 4.000000, 1.000000, 4.000000, 4.000000, 4.000000, 4.000000, 4.000000, 4.000000, 4.000000
6.000000, 0.000000, 4325.641113, 4295.384277, 4280.512695, 4278.974121, 4270.256348, 4266.153809, 4248.205078, 4273.846191, 4201.025391, 4272.820313, 4276.922852, 4311.281738, 4271.794922, 4264.102539, 3406.000000, 8200.000000, 8182.000000, 0.000000, 0.000000, 0.000000, -20992.000000, 771.282043, 4.000000, 4.000000, 4.000000, 4.000000, 4.000000, 4.000000, 4.000000, 4.000000, 1.000000, 4.000000, 4.000000, 4.000000, 4.000000, 4.000000, 4.000000, 4.000000
7.000000, 0.000000, 4326.666504, 4295.897461, 4277.436035, 4281.538574, 4274.358887, 4273.846191, 4249.743652, 4286.153809, 4201.538574, 4281.538574, 4283.589844, 4313.846191, 4283.589844, 4274.358887, 3493.000000, 8205.000000, 8181.000000, 0.000000, 0.000000, 0.000000, -20992.000000, 779.487183, 4.000000, 4.000000, 4.000000, 4.000000, 4.000000, 4.000000, 4.000000, 4.000000, 1.000000, 4.000000, 4.000000, 4.000000, 4.000000, 4.000000, 4.000000, 4.000000
8.000000, 0.000000, 4323.589844, 4294.871582, 4270.256348, 4287.692383, 4277.436035, 4272.820313, 4246.153809, 4289.743652, 4202.563965, 4278.461426, 4278.461426, 4309.230469, 4282.563965, 4275.384277, 71.000000, 8205.000000, 8181.000000, 0.000000, 0.000000, 0.000000, -20992.000000, 787.179443, 4.000000, 4.000000, 4.000000, 4.000000, 4.000000, 4.000000, 4.000000, 4.000000, 1.000000, 4.000000, 4.000000, 4.000000, 4.000000, 4.000000, 4.000000, 4.000000
9.000000, 0.000000, 4324.102539, 4295.384277, 4269.743652, 4286.666504, 4280.000000, 4268.717773, 4246.666504, 4280.512695, 4202.051270, 4275.897461, 4277.948730, 4309.743652, 4280.000000, 4268.205078, 2961.000000, 8202.000000, 8183.000000, 0.000000, 0.000000, 0.000000, -20992.000000, 795.384583, 4.000000, 4.000000, 4.000000, 4.000000, 4.000000, 4.000000, 4.000000, 4.000000, 1.000000, 4.000000, 4.000000, 4.000000, 4.000000, 4.000000, 4.000000, 4.000000
10.000000, 0.000000, 4324.615234, 4294.358887, 4270.256348, 4280.512695, 4272.820313, 4267.179199, 4249.230469, 4278.461426, 4201.538574, 4273.333008, 4280.000000, 4305.127930, 4277.436035, 4263.589844, 3584.000000, 8202.000000, 8183.000000, 0.000000, 0.000000, 0.000000, -20992.000000, 803.076904, 4.000000, 4.000000, 4.000000, 4.000000, 4.000000, 4.000000, 4.000000, 4.000000, 1.000000, 4.000000, 4.000000, 4.000000, 4.000000, 4.000000, 4.000000, 4.000000
11.000000, 0.000000, 4322.051270, 4291.794922, 4266.666504, 4276.410156, 4263.076660, 4262.563965, 4245.127930, 4279.487305, 4201.025391, 4269.230469, 4276.922852, 4295.897461, 4275.897461, 4264.102539, 3547.000000, 8200.000000, 8185.000000, 0.000000, 0.000000, 0.000000, -20992.000000, 811.282043, 4.000000, 4.000000, 4.000000, 4.000000, 4.000000, 4.000000, 4.000000, 4.000000, 1.000000, 4.000000, 4.000000, 4.000000, 4.000000, 4.000000, 4.000000, 4.000000
12.000000, 0.000000, 4323.589844, 4293.333008, 4273.333008, 4279.487305, 4271.281738, 4265.127930, 4246.666504, 4269.230469, 4201.538574, 4268.205078, 4275.897461, 4299.487305, 4278.974121, 4266.153809, 3607.000000, 8200.000000, 8185.000000, 0.000000, 0.000000, 0.000000, -20992.000000, 818.974365, 4.000000, 4.000000, 4.000000, 4.000000, 4.000000, 4.000000, 4.000000, 4.000000, 1.000000, 4.000000, 4.000000, 4.000000, 4.000000, 4.000000, 4.000000, 4.000000
13.000000, 0.000000, 4328.205078, 4296.410156, 4278.974121, 4281.538574, 4278.974121, 4270.769043, 4257.436035, 4262.563965, 4201.025391, 4266.666504, 4280.000000, 4309.743652, 4280.512695, 4266.153809, 3534.000000, 8194.000000, 8181.000000, 0.000000, 0.000000, 0.000000, -20992.000000, 826.666626, 4.000000, 4.000000, 4.000000, 4.000000, 4.000000, 4.000000, 4.000000, 4.000000, 1.000000, 4.000000, 4.000000, 4.000000, 4.000000, 4.000000, 4.000000, 4.000000
14.000000, 0.000000, 4325.641113, 4291.281738, 4267.692383, 4276.922852, 4268.717773, 4266.666504, 4257.948730, 4266.666504, 4201.025391, 4264.102539, 4281.025391, 4307.179199, 4280.000000, 4266.666504, 3584.000000, 8194.000000, 8181.000000, 0.000000, 0.000000, 0.000000, -20992.000000, 834.358948, 4.000000, 4.000000, 4.000000, 4.000000, 4.000000, 4.000000, 4.000000, 4.000000, 1.000000, 4.000000, 4.000000, 4.000000, 4.000000, 4.000000, 4.000000, 4.000000
15.000000, 0.000000, 4316.410156, 4281.538574, 4261.538574, 4273.333008, 4259.487305, 4262.051270, 4247.692383, 4263.076660, 4201.025391, 4262.563965, 4272.820313, 4295.384277, 4277.436035, 4263.589844, 3547.000000, 8191.000000, 8178.000000, 0.000000, 0.000000, 0.000000, -20992.000000, 842.564087, 4.000000, 4.000000, 4.000000, 4.000000, 4.000000, 4.000000, 4.000000, 4.000000, 1.000000, 4.000000, 4.000000, 4.000000, 4.000000, 4.000000, 4.000000, 4.000000
16.000000, 0.000000, 4310.769043, 4277.948730, 4266.666504, 4273.333008, 4262.051270, 4262.563965, 4245.127930, 4255.384277, 4201.025391, 4255.384277, 4261.025391, 4292.307617, 4266.666504, 4255.384277, 0.000000, 8191.000000, 8178.000000, 0.000000, 0.000000, 0.000000, -20992.000000, 850.256409, 4.000000, 4.000000, 4.000000, 4.000000, 4.000000, 4.000000, 4.000000, 4.000000, 1.000000, 4.000000, 4.000000, 4.000000, 4.000000, 4.000000, 4.000000, 4.000000
17.000000, 0.000000, 4310.769043, 4286.666504, 4264.102539, 4274.871582, 4264.102539, 4262.563965, 4246.666504, 4252.820313, 4201.538574, 4247.179199, 4255.384277, 4291.794922, 4257.436035, 4251.794922, 0.000000, 8184.000000, 8176.000000, 0.000000, 0.000000, 0.000000, -20992.000000, 857.948669, 4.000000, 4.000000, 4.000000, 4.000000, 4.000000, 4.000000, 4.000000, 4.000000, 1.000000, 4.000000, 4.000000, 4.000000, 4.000000, 4.000000, 4.000000, 4.000000
18.000000, 0.000000, 4315.897461, 4300.512695, 4264.615234, 4276.410156, 4264.102539, 4263.589844, 4248.205078, 4252.307617, 4202.051270, 4252.307617, 4261.538574, 4295.384277, 4264.615234, 4257.948730, 0.000000, 8184.000000, 8176.000000, 0.000000, 0.000000, 0.000000, -20992.000000, 866.153809, 4.000000, 4.000000, 4.000000, 4.000000, 4.000000, 4.000000, 4.000000, 4.000000, 1.000000, 4.000000, 4.000000, 4.000000, 4.000000, 4.000000, 4.000000, 4.000000
19.000000, 0.000000, 4322.051270, 4309.743652, 4273.333008, 4281.025391, 4270.769043, 4272.307617, 4254.871582, 4263.589844, 4202.051270, 4262.051270, 4278.974121, 4306.666504, 4280.512695, 4267.179199, 0.000000, 8187.000000, 8170.000000, 0.000000, 0.000000, 0.000000, -20992.000000, 873.846130, 4.000000, 4.000000, 4.000000, 4.000000, 4.000000, 4.000000, 4.000000, 4.000000, 1.000000, 4.000000, 4.000000, 4.000000, 4.000000, 4.000000, 4.000000, 4.000000
20.000000, 0.000000, 4325.641113, 4310.256348, 4278.974121, 4287.179199, 4284.102539, 4285.641113, 4266.666504, 4293.333008, 4202.051270, 4275.897461, 4293.846191, 4313.846191, 4292.307617, 4273.333008, 0.000000, 8187.000000, 8170.000000, 0.000000, 0.000000, 0.000000, -20992.000000, 881.538452, 4.000000, 4.000000, 4.000000, 4.000000, 4.000000, 4.000000, 4.000000, 4.000000, 1.000000, 4.000000, 4.000000, 4.000000, 4.000000, 4.000000, 4.000000, 4.000000
21.000000, 0.000000, 4333.333008, 4313.846191, 4286.153809, 4296.922852, 4297.436035, 4295.897461, 4275.897461, 4314.871582, 4202.563965, 4292.307617, 4297.436035, 4315.897461, 4299.487305, 4277.436035, 0.000000, 8188.000000, 8165.000000, 0.000000, 0.000000, 0.000000, -20992.000000, 889.743591, 4.000000, 4.000000, 4.000000, 4.000000, 4.000000, 4.000000, 4.000000, 4.000000, 1.000000, 4.000000, 4.000000, 4.000000, 4.000000, 4.000000, 4.000000, 4.000000
22.000000, 0.000000, 4338.974121, 4317.948730, 4293.333008, 4300.512695, 4300.000000, 4298.974121, 4281.025391, 4311.794922, 4202.051270, 4292.820313, 4294.358887, 4316.922852, 4295.897461, 4275.384277, 0.000000, 8188.000000, 8165.000000, 0.000000, 0.000000, 0.000000, -20992.000000, 897.435852, 4.000000, 4.000000, 4.000000, 4.000000, 4.000000, 4.000000, 4.000000, 4.000000, 1.000000, 4.000000, 4.000000, 4.000000, 4.000000, 4.000000, 4.000000, 4.000000
23.000000, 0.000000, 4336.410156, 4315.384277, 4292.820313, 4296.922852, 4295.897461, 4296.922852, 4281.538574, 4304.615234, 4201.538574, 4281.025391, 4294.358887, 4317.436035, 4293.333008, 4274.358887, 0.000000, 8189.000000, 8165.000000, 0.000000, 0.000000, 0.000000, -20992.000000, 905.640991, 4.000000, 4.000000, 4.000000, 4.000000, 4.000000, 4.000000, 4.000000, 4.000000, 1.000000, 4.000000, 4.000000, 4.000000, 4.000000, 4.000000, 4.000000, 4.000000
24.000000, 0.000000, 4337.948730, 4313.846191, 4296.410156, 4304.102539, 4294.871582, 4295.384277, 4280.512695, 4304.102539, 4202.051270, 4280.000000, 4297.436035, 4323.076660, 4302.051270, 4281.538574, 0.000000, 8189.000000, 8165.000000, 0.000000, 0.000000, 0.000000, -20992.000000, 913.333313, 4.000000, 4.000000, 4.000000, 4.000000, 4.000000, 4.000000, 4.000000, 4.000000, 1.000000, 4.000000, 4.000000, 4.000000, 4.000000, 4.000000, 4.000000, 4.000000
25.000000, 0.000000, 4339.487305, 4312.307617, 4301.538574, 4312.307617, 4295.384277, 4298.461426, 4284.102539, 4303.076660, 4202.051270, 4282.051270, 4293.333008, 4328.205078, 4292.820313, 4279.487305, 0.000000, 8190.000000, 8164.000000, 0.000000, 0.000000, 0.000000, -20992.000000, 921.538452, 4.000000, 4.000000, 4.000000, 4.000000, 4.000000, 4.000000, 4.000000, 4.000000, 1.000000, 4.000000, 4.000000, 4.000000, 4.000000, 4.000000, 4.000000, 4.000000
26.000000, 0.000000, 4334.358887, 4310.769043, 4295.897461, 4308.205078, 4298.461426, 4304.615234, 4290.769043, 4306.153809, 4200.512695, 4284.615234, 4293.846191, 4324.102539, 4283.589844, 4274.358887, 0.000000, 8190.000000, 8164.000000, 0.000000, 0.000000, 0.000000, -20992.000000, 929.230774, 4.000000, 4.000000, 4.000000, 4.000000, 4.000000, 4.000000, 4.000000, 4.000000, 1.000000, 4.000000, 4.000000, 4.000000, 4.000000, 4.000000, 4.000000, 4.000000
27.000000, 0.000000, 4339.487305, 4314.358887, 4294.871582, 4310.256348, 4307.179199, 4309.230469, 4286.666504, 4315.384277, 4201.538574, 4296.922852, 4310.769043, 4324.615234, 4312.820313, 4285.127930, 0.000000, 8191.000000, 8160.000000, 0.000000, 0.000000, 0.000000, -20992.000000, 937.435852, 4.000000, 4.000000, 4.000000, 4.000000, 4.000000, 4.000000, 4.000000, 4.000000, 1.000000, 4.000000, 4.000000, 4.000000, 4.000000, 4.000000, 4.000000, 4.000000
28.000000, 0.000000, 4354.358887, 4322.051270, 4309.230469, 4322.563965, 4313.846191, 4309.230469, 4280.000000, 4322.563965, 4203.076660, 4310.256348, 4326.153809, 4338.974121, 4345.641113, 4304.615234, 0.000000, 8191.000000, 8160.000000, 0.000000, 0.000000, 0.000000, -20992.000000, 945.128174, 4.000000, 4.000000, 4.000000, 4.000000, 4.000000, 4.000000, 4.000000, 4.000000, 1.000000, 4.000000, 4.000000, 4.000000, 4.000000, 4.000000, 4.000000, 4.000000
29.000000, 0.000000, 4356.922852, 4324.102539, 4314.871582, 4323.076660, 4312.820313, 4308.717773, 4286.666504, 4324.102539, 4202.051270, 4310.769043, 4327.179199, 4346.666504, 4343.589844, 4311.281738, 0.000000, 8197.000000, 8167.000000, 0.000000, 0.000000, 0.000000, -20992.000000, 953.333313, 4.000000, 4.000000, 4.000000, 4.000000, 4.000000, 4.000000, 4.000000, 4.000000, 1.000000, 4.000000, 4.000000, 4.000000, 4.000000, 4.000000, 4.000000, 4.000000
30.000000, 0.000000, 4353.846191, 4317.436035, 4307.179199, 4313.846191, 4309.230469, 4307.179199, 4292.820313, 4318.974121, 4201.025391, 4307.692383, 4327.179199, 4344.102539, 4339.487305, 4311.281738, 0.000000, 8197.000000, 8167.000000, 0.000000, 0.000000, 0.000000, -20992.000000, 961.025635, 4.000000, 4.000000, 4.000000, 4.000000, 4.000000, 4.000000, 4.000000, 4.000000, 1.000000, 4.000000, 4.000000, 4.000000, 4.000000, 4.000000, 4.000000, 4.000000
31.000000, 0.000000, 4358.461426, 4314.871582, 4304.615234, 4311.281738, 4307.179199, 4306.666504, 4289.230469, 4317.436035, 4203.589844, 4309.743652, 4330.769043, 4346.666504, 4350.769043, 4314.358887, 0.000000, 8198.000000, 8172.000000, 0.000000, 0.000000, 0.000000, -20992.000000, 969.230774, 4.000000, 4.000000, 4.000000, 4.000000, 4.000000, 4.000000, 4.000000, 4.000000, 1.000000, 4.000000, 4.000000, 4.000000, 4.000000, 4.000000, 4.000000, 4.000000
32.000000, 0.000000, 4360.000000, 4317.436035, 4306.666504, 4313.846191, 4307.179199, 4310.256348, 4292.820313, 4322.051270, 4203.589844, 4311.281738, 4328.717773, 4346.153809, 4351.281738, 4313.846191, 0.000000, 8198.000000, 8172.000000, 0.000000, 0.000000, 0.000000, -20992.000000, 976.923035, 4.000000, 4.000000, 4.000000, 4.000000, 4.000000, 4.000000, 4.000000, 4.000000, 1.000000, 4.000000, 4.000000, 4.000000, 4.000000, 4.000000, 4.000000, 4.000000
33.000000, 0.000000, 4356.410156, 4316.922852, 4301.538574, 4312.820313, 4307.692383, 4311.281738, 4296.410156, 4318.974121, 4201.538574, 4311.281738, 4327.692383, 4338.461426, 4345.641113, 4307.692383, 0.000000, 8198.000000, 8175.000000, 0.000000, 0.000000, 0.000000, -20992.000000, 984.615356, 4.000000, 4.000000, 4.000000, 4.000000, 4.000000, 4.000000, 4.000000, 4.000000, 1.000000, 4.000000, 4.000000, 4.000000, 4.000000, 4.000000, 4.000000, 4.000000
34.000000, 0.000000, 4352.307617, 4310.256348, 4297.436035, 4309.230469, 4308.717773, 4313.846191, 4295.384277, 4318.974121, 4202.051270, 4311.794922, 4327.179199, 4337.436035, 4338.974121, 4298.974121, 0.000000, 8198.000000, 8175.000000, 0.000000, 0.000000, 0.000000, -20992.000000, 992.820496, 4.000000, 4.000000, 4.000000, 4.000000, 4.000000, 4.000000, 4.000000, 4.000000, 1.000000, 4.000000, 4.000000, 4.000000, 4.000000, 4.000000, 4.000000, 4.000000
35.000000, 0.000000, 4346.666504, 4307.179199, 4295.384277, 4306.666504, 4316.410156, 4323.589844, 4305.127930, 4327.692383, 4203.589844, 4306.153809, 4318.974121, 4337.948730, 4329.230469, 4295.384277, 0.000000, 8196.000000, 8171.000000, 0.000000, 0.000000, 0.000000, -20991.000000, 1.025641, 4.000000, 4.000000, 4.000000, 4.000000, 4.000000, 4.000000, 4.000000, 4.000000, 1.000000, 4.000000, 4.000000, 4.000000, 4.000000, 4.000000, 4.000000, 4.000000
36.000000, 0.000000, 4342.051270, 4310.769043, 4288.717773, 4303.076660, 4321.538574, 4330.769043, 4314.358887, 4326.153809, 4204.102539, 4297.436035, 4309.230469, 4328.717773, 4325.127930, 4295.384277, 0.000000, 8196.000000, 8171.000000, 0.000000, 0.000000, 0.000000, -20991.000000, 8.717949, 4.000000, 4.000000, 4.000000, 4.000000, 4.000000, 4.000000, 4.000000, 4.000000, 1.000000, 4.000000, 4.000000, 4.000000, 4.000000, 4.000000, 4.000000, 4.000000
37.000000, 0.000000, 4338.461426, 4305.641113, 4283.589844, 4296.922852, 4312.820313, 4327.692383, 4310.769043, 4326.666504, 4203.589844, 4302.051270, 4307.692383, 4321.025391, 4322.563965, 4292.820313, 0.000000, 8199.000000, 8174.000000, 0.000000, 0.000000, 0.000000, -20991.000000, 16.410255, 4.000000, 4.000000, 4.000000, 4.000000, 4.000000, 4.000000, 4.000000, 4.000000, 1.000000, 4.000000, 4.000000, 4.000000, 4.000000, 4.000000, 4.000000, 4.000000
38.000000, 0.000000, 4341.538574, 4294.871582, 4289.743652, 4301.538574, 4308.205078, 4326.666504, 4309.743652, 4338.974121, 4202.051270, 4314.358887, 4318.461426, 4325.641113, 4327.692383, 4294.871582, 0.000000, 8199.000000, 8174.000000, 0.000000, 0.000000, 0.000000, -20991.000000, 24.102564, 4.000000, 4.000000, 4.000000, 4.000000, 4.000000, 4.000000, 4.000000, 4.000000, 1.000000, 4.000000, 4.000000, 4.000000, 4.000000, 4.000000, 4.000000, 4.000000
39.000000, 0.000000, 4354.358887, 4294.871582, 4302.051270, 4316.922852, 4320.000000, 4331.794922, 4313.333008, 4338.974121, 4201.538574, 4322.051270, 4329.743652, 4335.897461, 4343.076660, 4307.692383, 0.000000, 8193.000000, 8171.000000, 0.000000, 0.000000, 0.000000, -20991.000000, 32.307690, 4.000000, 4.000000, 4.000000, 4.000000, 4.000000, 4.000000, 4.000000, 4.000000, 1.000000, 4.000000, 4.000000, 4.000000, 4.000000, 4.000000, 4.000000, 4.000000
40.000000, 0.000000, 4367.179199, 4307.692383, 4310.256348, 4326.666504, 4328.205078, 4334.871582, 4309.230469, 4332.820313, 4202.563965, 4326.153809, 4338.461426, 4343.076660, 4358.974121, 4319.487305, 0.000000, 8193.000000, 8171.000000, 0.000000, 0.000000, 0.000000, -20991.000000, 40.000000, 4.000000, 4.000000, 4.000000, 4.000000, 4.000000, 4.000000, 4.000000, 4.000000, 1.000000, 4.000000, 4.000000, 4.000000, 4.000000, 4.000000, 4.000000, 4.000000
41.000000, 0.000000, 4368.717773, 4311.794922, 4311.794922, 4327.692383, 4326.153809, 4335.897461, 4311.794922, 4338.974121, 4202.563965, 4326.153809, 4341.538574, 4343.589844, 4359.487305, 4317.436035, 0.000000, 8197.000000, 8175.000000, 0.000000, 0.000000, 0.000000, -20991.000000, 48.205128, 4.000000, 4.000000, 4.000000, 4.000000, 4.000000, 4.000000, 4.000000, 4.000000, 1.000000, 4.000000, 4.000000, 4.000000, 4.000000, 4.000000, 4.000000, 4.000000
42.000000, 0.000000, 4364.615234, 4306.153809, 4306.666504, 4325.127930, 4325.127930, 4334.358887, 4317.948730, 4343.589844, 4202.051270, 4323.076660, 4337.948730, 4341.538574, 4353.846191, 4310.769043, 0.000000, 8197.000000, 8175.000000, 0.000000, 0.000000, 0.000000, -20991.000000, 55.897434, 4.000000, 4.000000, 4.000000, 4.000000, 4.000000, 4.000000, 4.000000, 4.000000, 1.000000, 4.000000, 4.000000, 4.000000, 4.000000, 4.000000, 4.000000, 4.000000
43.000000, 0.000000, 4366.153809, 4307.179199, 4302.051270, 4320.000000, 4327.179199, 4330.769043, 4312.307617, 4346.153809, 4202.563965, 4325.127930, 4337.948730, 4343.076660, 4357.435547, 4315.897461, 0.000000, 8202.000000, 8167.000000, 0.000000, 0.000000, 0.000000, -20991.000000, 64.102562, 4.000000, 4.000000, 4.000000, 4.000000, 4.000000, 4.000000, 4.000000, 4.000000, 1.000000, 4.000000, 4.000000, 4.000000, 4.000000, 4.000000, 4.000000, 4.000000
44.000000, 0.000000, 4369.743652, 4311.794922, 4306.153809, 4319.487305, 4326.153809, 4333.333008, 4311.281738, 4353.846191, 4202.051270, 4329.743652, 4342.051270, 4348.205078, 4358.461426, 4326.153809, 0.000000, 8202.000000, 8167.000000, 0.000000, 0.000000, 0.000000, -20991.000000, 71.794868, 4.000000, 4.000000, 4.000000, 4.000000, 4.000000, 4.000000, 4.000000, 4.000000, 1.000000, 4.000000, 4.000000, 4.000000, 4.000000, 4.000000, 4.000000, 4.000000
45.000000, 0.000000, 4373.846191, 4311.281738, 4312.307617, 4326.666504, 4327.179199, 4341.538574, 4317.436035, 4356.922852, 4201.538574, 4333.846191, 4344.102539, 4352.820313, 4359.487305, 4328.717773, 0.000000, 8205.000000, 8155.000000, 0.000000, 0.000000, 0.000000, -20991.000000, 80.000000, 4.000000, 4.000000, 4.000000, 4.000000, 4.000000, 4.000000, 4.000000, 4.000000, 1.000000, 4.000000, 4.000000, 4.000000, 4.000000, 4.000000, 4.000000, 4.000000
46.000000, 0.000000, 4375.384277, 4311.281738, 4315.384277, 4332.820313, 4332.820313, 4341.538574, 4316.410156, 4357.948730, 4203.589844, 4338.461426, 4345.641113, 4352.307617, 4364.102539, 4326.153809, 0.000000, 8205.000000, 8155.000000, 0.000000, 0.000000, 0.000000, -20991.000000, 87.692307, 4.000000, 4.000000, 4.000000, 4.000000, 4.000000, 4.000000, 4.000000, 4.000000, 1.000000, 4.000000, 4.000000, 4.000000, 4.000000, 4.000000, 4.000000, 4.000000
47.000000, 0.000000, 4375.897461, 4316.410156, 4315.897461, 4328.717773, 4337.948730, 4337.948730, 4317.436035, 4360.000000, 4204.102539, 4338.974121, 4350.769043, 4351.281738, 4369.230469, 4326.666504, 0.000000, 8216.000000, 8147.000000, 0.000000, 0.000000, 0.000000, -20991.000000, 95.897430, 4.000000, 4.000000, 4.000000, 4.000000, 4.000000, 4.000000, 4.000000, 4.000000, 1.000000, 4.000000, 4.000000, 4.000000, 4.000000, 4.000000, 4.000000, 4.000000
48.000000, 0.000000, 4377.948730, 4318.461426, 4315.897461, 4328.205078, 4341.025391, 4346.666504, 4324.615234, 4353.333008, 4202.051270, 4333.846191, 4349.743652, 4354.871582, 4369.743652, 4331.281738, 0.000000, 8216.000000, 8147.000000, 0.000000, 0.000000, 0.000000, -20991.000000, 103.589745, 4.000000, 4.000000, 4.000000, 4.000000, 4.000000, 4.000000, 4.000000, 4.000000, 1.000000, 4.000000, 4.000000, 4.000000, 4.000000, 4.000000, 4.000000, 4.000000
49.000000, 0.000000, 4373.333008, 4315.384277, 4312.307617, 4330.256348, 4339.487305, 4350.256348, 4324.615234, 4343.076660, 4202.051270, 4327.692383, 4341.025391, 4355.384277, 4363.589844, 4329.743652, 0.000000, 8216.000000, 8152.000000, 0.000000, 0.000000, 0.000000, -20991.000000, 111.794868, 4.000000, 4.000000, 4.000000, 4.000000, 4.000000, 4.000000, 4.000000, 4.000000, 1.000000, 4.000000, 4.000000, 4.000000, 4.000000, 4.000000, 4.000000, 4.000000
50.000000, 0.000000, 4367.692383, 4310.769043, 4307.692383, 4328.205078, 4335.384277, 4345.127930, 4322.051270, 4338.461426, 4203.076660, 4324.615234, 4337.436035, 4351.794922, 4352.307617, 4326.153809, 0.000000, 8216.000000, 8152.000000, 0.000000, 0.000000, 0.000000, -20991.000000, 119.487175, 4.000000, 4.000000, 4.000000, 4.000000, 4.000000, 4.000000, 4.000000, 4.000000, 1.000000, 4.000000, 4.000000, 4.000000, 4.000000, 4.000000, 4.000000, 4.000000
51.000000, 0.000000, 4374.358887, 4310.769043, 4311.794922, 4331.794922, 4337.948730, 4347.179199, 4324.615234, 4335.897461, 4202.051270, 4324.615234, 4342.051270, 4350.256348, 4348.717773, 4328.717773, 0.000000, 8219.000000, 8146.000000, 0.000000, 0.000000, 0.000000, -20991.000000, 127.692307, 4.000000, 4.000000, 4.000000, 4.000000, 4.000000, 4.000000, 4.000000, 4.000000, 1.000000, 4.000000, 4.000000, 4.000000, 4.000000, 4.000000, 4.000000, 4.000000
52.000000, 0.000000, 4381.538574, 4317.436035, 4321.538574, 4340.000000, 4342.051270, 4352.820313, 4324.102539, 4337.948730, 4200.512695, 4329.230469, 4347.179199, 4352.307617, 4351.281738, 4334.871582, 0.000000, 8219.000000, 8146.000000, 0.000000, 0.000000, 0.000000, -20991.000000, 135.384613, 4.000000, 4.000000, 4.000000, 4.000000, 4.000000, 4.000000, 4.000000, 4.000000, 1.000000, 4.000000, 4.000000, 4.000000, 4.000000, 4.000000, 4.000000, 4.000000
53.000000, 0.000000, 4375.897461, 4320.000000, 4320.512695, 4335.897461, 4341.025391, 4353.846191, 4324.615234, 4345.127930, 4201.025391, 4336.410156, 4347.692383, 4352.820313, 4341.025391, 4334.358887, 0.000000, 8208.000000, 8160.000000, 0.000000, 0.000000, 0.000000, -20991.000000, 143.076920, 4.000000, 4.000000, 4.000000, 4.000000, 4.000000, 4.000000, 4.000000, 4.000000, 1.000000, 4.000000, 4.000000, 4.000000, 4.000000, 4.000000, 4.000000, 4.000000
54.000000, 0.000000, 4367.692383, 4310.769043, 4309.743652, 4323.589844, 4335.897461, 4349.743652, 4323.589844, 4345.127930, 4202.051270, 4333.333008, 4342.051270, 4351.794922, 4322.563965, 4325.127930, 0.000000, 8208.000000, 8160.000000, 0.000000, 0.000000, 0.000000, -20991.000000, 151.282043, 4.000000, 4.000000, 4.000000, 4.000000, 4.000000, 4.000000, 4.000000, 4.000000, 1.000000, 4.000000, 4.000000, 4.000000, 4.000000, 4.000000, 4.000000, 4.000000
55.000000, 0.000000, 4370.256348, 4308.717773, 4309.743652, 4325.641113, 4332.820313, 4345.127930, 4320.512695, 4336.922852, 4202.051270, 4325.127930, 4341.025391, 4354.871582, 4315.897461, 4324.615234, 0.000000, 8207.000000, 8168.000000, 0.000000, 0.000000, 0.000000, -20991.000000, 158.974350, 4.000000, 4.000000, 4.000000, 4.000000, 4.000000, 4.000000, 4.000000, 4.000000, 1.000000, 4.000000, 4.000000, 4.000000, 4.000000, 4.000000, 4.000000, 4.000000
56.000000, 0.000000, 4387.692383, 4323.076660, 4328.717773, 4340.000000, 4337.436035, 4345.127930, 4321.538574, 4342.051270, 4203.076660, 4330.769043, 4350.256348, 4366.666504, 4322.563965, 4341.025391, 0.000000, 8207.000000, 8168.000000, 0.000000, 0.000000, 0.000000, -20991.000000, 167.179489, 4.000000, 4.000000, 4.000000, 4.000000, 4.000000, 4.000000, 4.000000, 4.000000, 1.000000, 4.000000, 4.000000, 4.000000, 4.000000, 4.000000, 4.000000, 4.000000
57.000000, 0.000000, 4398.461426, 4331.281738, 4338.974121, 4344.615234, 4340.000000, 4346.666504, 4318.974121, 4349.230469, 4204.615234, 4337.948730, 4352.820313, 4374.358887, 4323.589844, 4349.743652, 0.000000, 8204.000000, 8171.000000, 0.000000, 0.000000, 0.000000, -20991.000000, 174.871796, 4.000000, 4.000000, 4.000000, 4.000000, 4.000000, 4.000000, 4.000000, 4.000000, 1.000000, 4.000000, 4.000000, 4.000000, 4.000000, 4.000000, 4.000000, 4.000000
58.000000, 0.000000, 4386.153809, 4322.051270, 4330.769043, 4335.897461, 4332.820313, 4343.076660, 4312.307617, 4343.589844, 4203.076660, 4329.230469, 4343.076660, 4366.666504, 4312.820313, 4335.384277, 0.000000, 8204.000000, 8171.000000, 0.000000, 0.000000, 0.000000, -20991.000000, 183.076920, 4.000000, 4.000000, 4.000000, 4.000000, 4.000000, 4.000000, 4.000000, 4.000000, 1.000000, 4.000000, 4.000000, 4.000000, 4.000000, 4.000000, 4.000000, 4.000000
59.000000, 0.000000, 4375.384277, 4317.436035, 4323.589844, 4332.307617, 4330.769043, 4339.487305, 4314.871582, 4344.615234, 4200.512695, 4324.102539, 4335.897461, 4357.435547, 4307.692383, 4322.563965, 0.000000, 8206.000000, 8175.000000, 0.000000, 0.000000, 0.000000, -20991.000000, 190.769226, 4.000000, 4.000000, 4.000000, 4.000000, 4.000000, 4.000000, 4.000000, 4.000000, 1.000000, 4.000000, 4.000000, 4.000000, 4.000000, 4.000000, 4.000000, 4.000000
60.000000, 0.000000, 4382.563965, 4319.487305, 4328.205078, 4335.384277, 4335.897461, 4341.538574, 4324.102539, 4354.358887, 4202.051270, 4327.179199, 4336.410156, 4359.487305, 4309.743652, 4328.717773, 0.000000, 8206.000000, 8175.000000, 0.000000, 0.000000, 0.000000, -20991.000000, 198.461533, 4.000000, 4.000000, 4.000000, 4.000000, 4.000000, 4.000000, 4.000000, 4.000000, 1.000000, 4.000000, 4.000000, 4.000000, 4.000000, 4.000000, 4.000000, 4.000000
61.000000, 0.000000, 4381.538574, 4316.410156, 4329.230469, 4333.333008, 4332.820313, 4342.051270, 4320.512695, 4347.692383, 4202.563965, 4321.538574, 4331.794922, 4357.948730, 4303.076660, 4330.769043, 0.000000, 8203.000000, 8177.000000, 0.000000, 0.000000, 0.000000, -20991.000000, 206.666656, 4.000000, 4.000000, 4.000000, 4.000000, 4.000000, 4.000000, 4.000000, 4.000000, 1.000000, 4.000000, 4.000000, 4.000000, 4.000000, 4.000000, 4.000000, 4.000000
62.000000, 0.000000, 4363.076660, 4309.743652, 4316.410156, 4324.615234, 4322.051270, 4336.410156, 4310.256348, 4328.717773, 4201.025391, 4308.205078, 4316.922852, 4344.102539, 4290.769043, 4318.974121, 0.000000, 8203.000000, 8177.000000, 0.000000, 0.000000, 0.000000, -20991.000000, 214.358963, 4.000000, 4.000000, 4.000000, 4.000000, 4.000000, 4.000000, 4.000000, 4.000000, 1.000000, 4.000000, 4.000000, 4.000000, 4.000000, 4.000000, 4.000000, 4.000000
63.000000, 0.000000, 4355.384277, 4306.153809, 4307.179199, 4319.487305, 4321.025391, 4327.179199, 4308.205078, 4321.538574, 4201.538574, 4306.666504, 4309.743652, 4337.948730, 4289.230469, 4313.846191, 0.000000, 8194.000000, 8170.000000, 0.000000, 0.000000, 0.000000, -20991.000000, 222.564102, 4.000000, 4.000000, 4.000000, 4.000000, 4.000000, 4.000000, 4.000000, 4.000000, 1.000000, 4.000000, 4.000000, 4.000000, 4.000000, 4.000000, 4.000000, 4.000000
64.000000, 0.000000, 4361.538574, 4307.692383, 4311.281738, 4323.076660, 4323.076660, 4327.179199, 4309.743652, 4323.589844, 4202.563965, 4309.743652, 4316.922852, 4345.127930, 4295.384277, 4323.076660, 3159.000000, 8194.000000, 8170.000000, 0.000000, 0.000000, 0.000000, -20991.000000, 230.256409, 4.000000, 4.000000, 4.000000, 4.000000, 4.000000, 4.000000, 4.000000, 4.000000, 1.000000, 4.000000, 4.000000, 4.000000, 4.000000, 4.000000, 4.000000, 4.000000
65.000000, 0.000000, 4364.615234, 4309.743652, 4315.384277, 4327.179199, 4322.563965, 4335.897461, 4310.256348, 4323.076660, 4203.076660, 4311.281738, 4322.563965, 4349.230469, 4300.000000, 4329.743652, 3508.000000, 8190.000000, 8170.000000, 0.000000, 0.000000, 0.000000, -20991.000000, 238.461533, 4.000000, 4.000000, 4.000000, 4.000000, 4.000000, 4.000000, 4.000000, 4.000000, 1.000000, 4.000000, 4.000000, 4.000000, 4.000000, 4.000000, 4.000000, 4.000000
66.000000, 0.000000, 4358.974121, 4303.076660, 4313.846191, 4319.487305, 4322.051270, 4333.333008, 4311.794922, 4324.615234, 4203.076660, 4310.769043, 4315.897461, 4345.127930, 4298.974121, 4321.538574, 3542.000000, 8190.000000, 8170.000000, 0.000000, 0.000000, 0.000000, -20991.000000, 246.153839, 4.000000, 4.000000, 4.000000, 4.000000, 4.000000, 4.000000, 4.000000, 4.000000, 1.000000, 4.000000, 4.000000, 4.000000, 4.000000, 4.000000, 4.000000, 4.000000
67.000000, 0.000000, 4351.281738, 4292.307617, 4310.256348, 4309.230469, 4314.358887, 4325.641113, 4310.256348, 4325.641113, 4200.512695, 4301.025391, 4307.179199, 4339.487305, 4291.794922, 4309.230469, 2377.000000, 8129.000000, 8158.000000, 0.000000, 0.000000, 0.000000, -20991.000000, 253.846146, 4.000000, 4.000000, 4.000000, 4.000000, 4.000000, 4.000000, 4.000000, 4.000000, 1.000000, 4.000000, 4.000000, 4.000000, 4.000000, 4.000000, 4.000000, 4.000000
68.000000, 0.000000, 4352.820313, 4293.846191, 4309.230469, 4311.281738, 4310.769043, 4325.127930, 4304.615234, 4324.615234, 4200.000000, 4292.820313, 4307.692383, 4338.461426, 4293.333008, 4309.230469, 3546.000000, 8129.000000, 8158.000000, 0.000000, 0.000000, 0.000000, -20991.000000, 262.051270, 4.000000, 4.000000, 4.000000, 4.000000, 4.000000, 4.000000, 4.000000, 4.000000, 1.000000, 4.000000, 4.000000, 4.000000, 4.000000, 4.000000, 4.000000, 4.000000
69.000000, 0.000000, 4357.948730, 4296.410156, 4313.333008, 4314.358887, 4315.897461, 4328.717773, 4308.717773, 4326.153809, 4202.563965, 4302.563965, 4313.846191, 4343.589844, 4302.563965, 4317.436035, 3560.000000, 8191.000000, 8153.000000, 0.000000, 0.000000, 0.000000, -20991.000000, 269.743591, 4.000000, 4.000000, 4.000000, 4.000000, 4.000000, 4.000000, 4.000000, 4.000000, 1.000000, 4.000000, 4.000000, 4.000000, 4.000000, 4.000000, 4.000000, 4.000000
70.000000, 0.000000, 4354.871582, 4290.769043, 4314.871582, 4310.769043, 4316.922852, 4326.153809, 4313.333008, 4329.230469, 4203.076660, 4313.333008, 4320.512695, 4344.102539, 4310.769043, 4318.974121, 3400.000000, 8191.000000, 8153.000000, 0.000000, 0.000000, 0.000000, -20991.000000, 277.435883, 4.000000, 4.000000, 4.000000, 4.000000, 4.000000, 4.000000, 4.000000, 4.000000, 1.000000, 4.000000, 4.000000, 4.000000, 4.000000, 4.000000, 4.000000, 4.000000
71.000000, 0.000000, 4351.281738, 4291.794922, 4302.563965, 4309.743652, 4312.307617, 4318.461426, 4301.538574, 4324.615234, 4201.538574, 4309.743652, 4321.025391, 4333.846191, 4315.897461, 4314.358887, 3480.000000, 8192.000000, 8152.000000, 0.000000, 0.000000, 0.000000, -20991.000000, 285.641022, 4.000000, 4.000000, 4.000000, 4.000000, 4.000000, 4.000000, 4.000000, 4.000000, 1.000000, 4.000000, 4.000000, 4.000000, 4.000000, 4.000000, 4.000000, 4.000000
72.000000, 0.000000, 4351.281738, 4295.897461, 4296.922852, 4309.743652, 4310.256348, 4314.358887, 4292.307617, 4322.563965, 4202.563965, 4304.615234, 4313.333008, 4323.076660, 4313.846191, 4310.256348, 71.000000, 8192.000000, 8152.000000, 0.000000, 0.000000, 0.000000, -20991.000000, 293.333313, 4.000000, 4.000000, 4.000000, 4.000000, 4.000000, 4.000000, 4.000000, 4.000000, 1.000000, 4.000000, 4.000000, 4.000000, 4.000000, 4.000000, 4.000000, 4.000000
73.000000, 0.000000, 4351.794922, 4295.897461, 4306.666504, 4311.794922, 4311.794922, 4317.948730, 4300.000000, 4326.666504, 4202.051270, 4306.666504, 4308.717773, 4325.127930, 4308.717773, 4310.256348, 2955.000000, 8198.000000, 8155.000000, 0.000000, 0.000000, 0.000000, -20991.000000, 301.025635, 4.000000, 4.000000, 4.000000, 4.000000, 4.000000, 4.000000, 4.000000, 4.000000, 1.000000, 4.000000, 4.000000, 4.000000, 4.000000, 4.000000, 4.000000, 4.000000
74.000000, 0.000000, 4354.871582, 4298.461426, 4313.333008, 4318.461426, 4314.358887, 4322.051270, 4301.025391, 4320.512695, 4201.025391, 4308.205078, 4314.358887, 4334.358887, 4312.820313, 4313.846191, 3580.000000, 8198.000000, 8155.000000, 0.000000, 0.000000, 0.000000, -20991.000000, 308.717926, 4.000000, 4.000000, 4.000000, 4.000000, 4.000000, 4.000000, 4.000000, 4.000000, 1.000000, 4.000000, 4.000000, 4.000000, 4.000000, 4.000000, 4.000000, 4.000000
75.000000, 0.000000, 4358.974121, 4298.461426, 4312.307617, 4321.538574, 4320.000000, 4318.974121, 4284.615234, 4309.743652, 4201.025391, 4309.230469, 4321.538574, 4339.487305, 4321.538574, 4320.512695, 3546.000000, 8203.000000, 8152.000000, 0.000000, 0.000000, 0.000000, -20991.000000, 316.923065, 4.000000, 4.000000, 4.000000, 4.000000, 4.000000, 4.000000, 4.000000, 4.000000, 1.000000, 4.000000, 4.000000, 4.000000, 4.000000, 4.000000, 4.000000, 4.000000
76.000000, 0.000000, 4356.922852, 4296.922852, 4305.641113, 4318.461426, 4319.487305, 4312.820313, 4273.846191, 4310.769043, 4201.538574, 4310.769043, 4321.538574, 4338.974121, 4325.641113, 4322.051270, 3524.000000, 8203.000000, 8152.000000, 0.000000, 0.000000, 0.000000, -20991.000000, 324.615387, 4.000000, 4.000000, 4.000000, 4.000000, 4.000000, 4.000000, 4.000000, 4.000000, 1.000000, 4.000000, 4.000000, 4.000000, 4.000000, 4.000000, 4.000000, 4.000000
77.000000, 0.000000, 4351.281738, 4298.461426, 4300.512695, 4316.922852, 4312.820313, 4310.256348, 4277.436035, 4312.820313, 4201.025391, 4310.769043, 4319.487305, 4333.846191, 4324.102539, 4314.358887, 3453.000000, 8207.000000, 8155.000000, 0.000000, 0.000000, 0.000000, -20991.000000, 332.820496, 4.000000, 4.000000, 4.000000, 4.000000, 4.000000, 4.000000, 4.000000, 4.000000, 1.000000, 4.000000, 4.000000, 4.000000, 4.000000, 4.000000, 4.000000, 4.000000
78.000000, 0.000000, 4352.307617, 4298.461426, 4303.076660, 4315.897461, 4312.307617, 4311.281738, 4286.666504, 4312.820313, 4201.025391, 4311.281738, 4318.974121, 4332.820313, 4323.076660, 4310.256348, 3580.000000, 8207.000000, 8155.000000, 0.000000, 0.000000, 0.000000, -20991.000000, 340.512817, 4.000000, 4.000000, 4.000000, 4.000000, 4.000000, 4.000000, 4.000000, 4.000000, 1.000000, 4.000000, 4.000000, 4.000000, 4.000000, 4.000000, 4.000000, 4.000000
79.000000, 0.000000, 4352.307617, 4296.410156, 4302.563965, 4313.846191, 4315.384277, 4313.846191, 4291.794922, 4319.487305, 4201.025391, 4313.846191, 4314.358887, 4332.307617, 4323.076660, 4311.794922, 3546.000000, 8201.000000, 8157.000000, 0.000000, 0.000000, 0.000000, -20991.000000, 348.205109, 4.000000, 4.000000, 4.000000, 4.000000, 4.000000, 4.000000, 4.000000, 4.000000, 1.000000, 4.000000, 4.000000, 4.000000, 4.000000, 4.000000, 4.000000, 4.000000
80.000000, 0.000000, 4345.641113, 4295.384277, 4295.897461, 4311.794922, 4314.358887, 4312.820313, 4289.743652, 4315.897461, 4201.025391, 4309.743652, 4310.256348, 4329.230469, 4318.974121, 4309.743652, 3524.000000, 8201.000000, 8157.000000, 0.000000, 0.000000, 0.000000, -20991.000000, 355.897430, 4.000000, 4.000000, 4.000000, 4.000000, 4.000000, 4.000000, 4.000000, 4.000000, 1.000000, 4.000000, 4.000000, 4.000000, 4.000000, 4.000000, 4.000000, 4.000000
81.000000, 0.000000, 4341.025391, 4295.384277, 4294.358887, 4310.256348, 4306.153809, 4309.230469, 4288.717773, 4300.512695, 4201.538574, 4299.487305, 4310.769043, 4332.307617, 4312.820313, 4307.692383, 3453.000000, 8202.000000, 8167.000000, 0.000000, 0.000000, 0.000000, -20991.000000, 364.102570, 4.000000, 4.000000, 4.000000, 4.000000, 4.000000, 4.000000, 4.000000, 4.000000, 1.000000, 4.000000, 4.000000, 4.000000, 4.000000, 4.000000, 4.000000, 4.000000
82.000000, 0.000000, 4342.563965, 4294.871582, 4297.436035, 4308.717773, 4301.025391, 4305.641113, 4291.281738, 4306.666504, 4201.538574, 4297.948730, 4310.256348, 4333.846191, 4310.256348, 4309.230469, 3580.000000, 8202.000000, 8167.000000, 0.000000, 0.000000, 0.000000, -20991.000000, 372.307678, 4.000000, 4.000000, 4.000000, 4.000000, 4.000000, 4.000000, 4.000000, 4.000000, 1.000000, 4.000000, 4.000000, 4.000000, 4.000000, 4.000000, 4.000000, 4.000000
83.000000, 0.000000, 4344.615234, 4293.846191, 4303.076660, 4308.717773, 4305.641113, 4308.205078, 4292.820313, 4323.076660, 4201.025391, 4303.076660, 4310.256348, 4329.230469, 4312.820313, 4311.281738, 3546.000000, 8201.000000, 8173.000000, 0.000000, 0.000000, 0.000000, -20991.000000, 380.000000, 4.000000, 4.000000, 4.000000, 4.000000, 4.000000, 4.000000, 4.000000, 4.000000, 1.000000, 4.000000, 4.000000, 4.000000, 4.000000, 4.000000, 4.000000, 4.000000
84.000000, 0.000000, 4343.589844, 4293.846191, 4305.127930, 4311.281738, 4309.743652, 4308.717773, 4292.820313, 4316.922852, 4202.051270, 4299.487305, 4312.307617, 4327.179199, 4313.333008, 4311.281738, 3524.000000, 8201.000000, 8173.000000, 0.000000, 0.000000, 0.000000, -20991.000000, 387.692291, 4.000000, 4.000000, 4.000000, 4.000000, 4.000000, 4.000000, 4.000000, 4.000000, 1.000000, 4.000000, 4.000000, 4.000000, 4.000000, 4.000000, 4.000000, 4.000000
85.000000, 0.000000, 4343.076660, 4295.384277, 4297.948730, 4309.743652, 4302.563965, 4298.974121, 4288.205078, 4303.589844, 4203.076660, 4291.794922, 4303.589844, 4328.717773, 4306.153809, 4303.589844, 3453.000000, 8200.000000, 8171.000000, 0.000000, 0.000000, 0.000000, -20991.000000, 395.897430, 4.000000, 4.000000, 4.000000, 4.000000, 4.000000, 4.000000, 4.000000, 4.000000, 1.000000, 4.000000, 4.000000, 4.000000, 4.000000, 4.000000, 4.000000, 4.000000
86.000000, 0.000000, 4343.589844, 4293.846191, 4292.307617, 4306.666504, 4298.974121, 4294.358887, 4281.538574, 4310.256348, 4203.076660, 4291.281738, 4298.461426, 4328.205078, 4298.461426, 4296.922852, 3580.000000, 8200.000000, 8171.000000, 0.000000, 0.000000, 0.000000, -20991.000000, 403.589722, 4.000000, 4.000000, 4.000000, 4.000000, 4.000000, 4.000000, 4.000000, 4.000000, 1.000000, 4.000000, 4.000000, 4.000000, 4.000000, 4.000000, 4.000000, 4.000000
87.000000, 0.000000, 4341.538574, 4293.333008, 4301.538574, 4307.179199, 4302.051270, 4298.461426, 4278.461426, 4314.358887, 4202.051270, 4295.384277, 4305.641113, 4327.692383, 4298.974121, 4298.974121, 3546.000000, 8186.000000, 8172.000000, 0.000000, 0.000000, 0.000000, -20991.000000, 411.282043, 4.000000, 4.000000, 4.000000, 4.000000, 4.000000, 4.000000, 4.000000, 4.000000, 1.000000, 4.000000, 4.000000, 4.000000, 4.000000, 4.000000, 4.000000, 4.000000
88.000000, 0.000000, 4336.922852, 4292.307617, 4302.051270, 4303.076660, 4300.512695, 4298.461426, 4280.512695, 4299.487305, 4201.538574, 4293.846191, 4305.641113, 4328.717773, 4300.000000, 4297.948730, 3524.000000, 8186.000000, 8172.000000, 0.000000, 0.000000, 0.000000, -20991.000000, 419.487183, 4.000000, 4.000000, 4.000000, 4.000000, 4.000000, 4.000000, 4.000000, 4.000000, 1.000000, 4.000000, 4.000000, 4.000000, 4.000000, 4.000000, 4.000000, 4.000000
89.000000, 0.000000, 4333.846191, 4283.589844, 4294.871582, 4295.384277, 4296.922852, 4301.025391, 4286.666504, 4301.025391, 4201.025391, 4293.846191, 4295.897461, 4324.615234, 4295.897461, 4292.307617, 3453.000000, 8188.000000, 8177.000000, 0.000000, 0.000000, 0.000000, -20991.000000, 427.179474, 4.000000, 4.000000, 4.000000, 4.000000, 4.000000, 4.000000, 4.000000, 4.000000, 1.000000, 4.000000, 4.000000, 4.000000, 4.000000, 4.000000, 4.000000, 4.000000
90.000000, 0.000000, 4333.333008, 4278.461426, 4293.333008, 4294.871582, 4298.461426, 4307.179199, 4291.794922, 4316.922852, 4201.538574, 4295.897461, 4297.948730, 4318.974121, 4294.871582, 4291.794922, 3580.000000, 8188.000000, 8177.000000, 0.000000, 0.000000, 0.000000, -20991.000000, 434.871796, 4.000000, 4.000000, 4.000000, 4.000000, 4.000000, 4.000000, 4.000000, 4.000000, 1.000000, 4.000000, 4.000000, 4.000000, 4.000000, 4.000000, 4.000000, 4.000000
91.000000, 0.000000, 4324.615234, 4280.000000, 4285.127930, 4293.846191, 4295.384277, 4304.102539, 4290.769043, 4306.153809, 4202.051270, 4290.256348, 4296.410156, 4310.769043, 4288.717773, 4285.127930, 3546.000000, 8186.000000, 8179.000000, 0.000000, 0.000000, 0.000000, -20991.000000, 443.076904, 4.000000, 4.000000, 4.000000, 4.000000, 4.000000, 4.000000, 4.000000, 4.000000, 1.000000, 4.000000, 4.000000, 4.000000, 4.000000, 4.000000, 4.000000, 4.000000
92.000000, 0.000000, 4313.846191, 4278.974121, 4275.897461, 4287.692383, 4291.794922, 4299.487305, 4291.281738, 4288.205078, 4201.538574, 4277.436035, 4280.000000, 4305.127930, 4275.384277, 4272.307617, 3524.000000, 8186.000000, 8179.000000, 0.000000, 0.000000, 0.000000, -20991.000000, 450.769226, 4.000000, 4.000000, 4.000000, 4.000000, 4.000000, 4.000000, 4.000000, 4.000000, 1.000000, 4.000000, 4.000000, 4.000000, 4.000000, 4.000000, 4.000000, 4.000000
93.000000, 0.000000, 4321.025391, 4277.948730, 4281.538574, 4292.307617, 4295.897461, 4302.563965, 4297.436035, 4301.538574, 4202.563965, 4279.487305, 4284.102539, 4310.769043, 4285.127930, 4278.974121, 3453.000000, 8184.000000, 8179.000000, 0.000000, 0.000000, 0.000000, -20991.000000, 458.461517, 4.000000, 4.000000, 4.000000, 4.000000, 4.000000, 4.000000, 4.000000, 4.000000, 1.000000, 4.000000, 4.000000, 4.000000, 4.000000, 4.000000, 4.000000, 4.000000
94.000000, 0.000000, 4328.717773, 4281.538574, 4286.153809, 4297.436035, 4294.358887, 4302.563965, 4294.358887, 4315.384277, 4202.051270, 4286.666504, 4298.974121, 4315.897461, 4298.974121, 4294.871582, 3580.000000, 8184.000000, 8179.000000, 0.000000, 0.000000, 0.000000, -20991.000000, 466.666656, 4.000000, 4.000000, 4.000000, 4.000000, 4.000000, 4.000000, 4.000000, 4.000000, 1.000000, 4.000000, 4.000000, 4.000000, 4.000000, 4.000000, 4.000000, 4.000000
95.000000, 0.000000, 4315.384277, 4279.487305, 4280.512695, 4287.692383, 4289.230469, 4301.538574, 4290.256348, 4310.256348, 4201.025391, 4284.615234, 4287.692383, 4310.256348, 4281.025391, 4287.179199, 3546.000000, 8186.000000, 8173.000000, 0.000000, 0.000000, 0.000000, -20991.000000, 474.871796, 4.000000, 4.000000, 4.000000, 4.000000, 4.000000, 4.000000, 4.000000, 4.000000, 1.000000, 4.000000, 4.000000, 4.000000, 4.000000, 4.000000, 4.000000, 4.000000
96.000000, 0.000000, 4309.230469, 4276.410156, 4285.127930, 4285.127930, 4291.794922, 4308.205078, 4294.358887, 4310.256348, 4202.051270, 4288.717773, 4282.051270, 4311.794922, 4275.897461, 4276.922852, 3524.000000, 8186.000000, 8173.000000, 0.000000, 0.000000, 0.000000, -20991.000000, 482.564087, 4.000000, 4.000000, 4.000000, 4.000000, 4.000000, 4.000000, 4.000000, 4.000000, 1.000000, 4.000000, 4.000000, 4.000000, 4.000000, 4.000000, 4.000000, 4.000000
97.000000, 0.000000, 4324.615234, 4280.000000, 4297.436035, 4297.436035, 4298.461426, 4311.281738, 4292.820313, 4315.897461, 4202.563965, 4297.436035, 4301.538574, 4322.563965, 4308.205078, 4287.692383, 3453.000000, 8191.000000, 8174.000000, 0.000000, 0.000000, 0.000000, -20991.000000, 490.256409, 4.000000, 4.000000, 4.000000, 4.000000, 4.000000, 4.000000, 4.000000, 4.000000, 1.000000, 4.000000, 4.000000, 4.000000, 4.000000, 4.000000, 4.000000, 4.000000
98.000000, 0.000000, 4322.563965, 4281.025391, 4290.769043, 4296.410156, 4298.974121, 4305.641113, 4284.615234, 4310.256348, 4202.051270, 4297.436035, 4305.641113, 4318.974121, 4320.512695, 4297.436035, 3580.000000, 8191.000000, 8174.000000, 0.000000, 0.000000, 0.000000, -20991.000000, 497.948700, 4.000000, 4.000000, 4.000000, 4.000000, 4.000000, 4.000000, 4.000000, 4.000000, 1.000000, 4.000000, 4.000000, 4.000000, 4.000000, 4.000000, 4.000000, 4.000000
99.000000, 0.000000, 4309.743652, 4276.922852, 4280.512695, 4282.051270, 4291.794922, 4297.436035, 4281.025391, 4297.948730, 4202.563965, 4292.820313, 4293.333008, 4310.769043, 4307.179199, 4292.820313, 3546.000000, 8199.000000, 8174.000000, 0.000000, 0.000000, 0.000000, -20991.000000, 506.153839, 4.000000, 4.000000, 4.000000, 4.000000, 4.000000, 4.000000, 4.000000, 4.000000, 1.000000, 4.000000, 4.000000, 4.000000, 4.000000, 4.000000, 4.000000, 4.000000
100.000000, 0.000000, 4318.461426, 4275.897461, 4289.230469, 4284.102539, 4290.769043, 4293.846191, 4283.076660, 4293.846191, 4203.076660, 4294.358887, 4303.589844, 4322.563965, 4318.461426, 4293.846191, 3524.000000, 8199.000000, 8174.000000, 0.000000, 0.000000, 0.000000, -20991.000000, 513.846130, 4.000000, 4.000000, 4.000000, 4.000000, 4.000000, 4.000000, 4.000000, 4.000000, 1.000000, 4.000000, 4.000000, 4.000000, 4.000000, 4.000000, 4.000000, 4.000000
101.000000, 0.000000, 4326.153809, 4278.461426, 4294.358887, 4291.281738, 4292.820313, 4294.871582, 4282.563965, 4298.974121, 4203.076660, 4295.897461, 4315.897461, 4330.769043, 4333.333008, 4298.461426, 3453.000000, 8202.000000, 8172.000000, 0.000000, 0.000000, 0.000000, -20991.000000, 522.051270, 4.000000, 4.000000, 4.000000, 4.000000, 4.000000, 4.000000, 4.000000, 4.000000, 1.000000, 4.000000, 4.000000, 4.000000, 4.000000, 4.000000, 4.000000, 4.000000
102.000000, 0.000000, 4322.051270, 4277.948730, 4288.717773, 4291.281738, 4291.794922, 4292.820313, 4278.461426, 4303.589844, 4202.051270, 4294.871582, 4310.256348, 4324.102539, 4325.127930, 4295.897461, 3580.000000, 8202.000000, 8172.000000, 0.000000, 0.000000, 0.000000, -20991.000000, 529.743591, 4.000000, 4.000000, 4.000000, 4.000000, 4.000000, 4.000000, 4.000000, 4.000000, 1.000000, 4.000000, 4.000000, 4.000000, 4.000000, 4.000000, 4.000000, 4.000000
103.000000, 0.000000, 4325.127930, 4278.461426, 4291.281738, 4291.281738, 4292.820313, 4290.256348, 4275.897461, 4304.102539, 4201.025391, 4296.922852, 4307.179199, 4326.153809, 4323.589844, 4295.897461, 3546.000000, 8203.000000, 8176.000000, 0.000000, 0.000000, 0.000000, -20991.000000, 537.435913, 4.000000, 4.000000, 4.000000, 4.000000, 4.000000, 4.000000, 4.000000, 4.000000, 1.000000, 4.000000, 4.000000, 4.000000, 4.000000, 4.000000, 4.000000, 4.000000
104.000000, 0.000000, 4324.615234, 4279.487305, 4294.871582, 4288.205078, 4293.333008, 4293.846191, 4280.000000, 4310.769043, 4201.025391, 4300.000000, 4310.769043, 4328.205078, 4327.179199, 4297.436035, 3524.000000, 8203.000000, 8176.000000, 0.000000, 0.000000, 0.000000, -20991.000000, 545.640991, 4.000000, 4.000000, 4.000000, 4.000000, 4.000000, 4.000000, 4.000000, 4.000000, 1.000000, 4.000000, 4.000000, 4.000000, 4.000000, 4.000000, 4.000000, 4.000000
105.000000, 0.000000, 4310.769043, 4276.922852, 4287.179199, 4277.436035, 4286.666504, 4294.358887, 4281.538574, 4310.256348, 4203.076660, 4297.948730, 4306.666504, 4318.974121, 4318.461426, 4293.846191, 3453.000000, 8204.000000, 8168.000000, 0.000000, 0.000000, 0.000000, -20991.000000, 553.333313, 4.000000, 4.000000, 4.000000, 4.000000, 4.000000, 4.000000, 4.000000, 4.000000, 1.000000, 4.000000, 4.000000, 4.000000, 4.000000, 4.000000, 4.000000, 4.000000
106.000000, 0.000000, 4308.205078, 4274.358887, 4284.615234, 4275.897461, 4283.589844, 4290.256348, 4277.436035, 4302.563965, 4203.076660, 4294.871582, 4304.102539, 4318.461426, 4317.948730, 4294.358887, 3580.000000, 8204.000000, 8168.000000, 0.000000, 0.000000, 0.000000, -20991.000000, 561.025635, 4.000000, 4.000000, 4.000000, 4.000000, 4.000000, 4.000000, 4.000000, 4.000000, 1.000000, 4.000000, 4.000000, 4.000000, 4.000000, 4.000000, 4.000000, 4.000000
107.000000, 0.000000, 4320.000000, 4279.487305, 4293.846191, 4285.127930, 4290.256348, 4292.307617, 4277.948730, 4308.717773, 4201.025391, 4296.410156, 4308.717773, 4327.179199, 4326.153809, 4298.974121, 3546.000000, 8203.000000, 8160.000000, 0.000000, 0.000000, 0.000000, -20991.000000, 569.230774, 4.000000, 4.000000, 4.000000, 4.000000, 4.000000, 4.000000, 4.000000, 4.000000, 1.000000, 4.000000, 4.000000, 4.000000, 4.000000, 4.000000, 4.000000, 4.000000
108.000000, 0.000000, 4321.538574, 4282.563965, 4295.384277, 4285.127930, 4291.281738, 4295.897461, 4280.512695, 4306.666504, 4200.000000, 4293.333008, 4309.743652, 4328.717773, 4323.589844, 4299.487305, 3524.000000, 8203.000000, 8160.000000, 0.000000, 0.000000, 0.000000, -20991.000000, 576.923035, 4.000000, 4.000000, 4.000000, 4.000000, 4.000000, 4.000000, 4.000000, 4.000000, 1.000000, 4.000000, 4.000000, 4.000000, 4.000000, 4.000000, 4.000000, 4.000000
109.000000, 0.000000, 4310.769043, 4270.769043, 4288.205078, 4277.436035, 4288.205078, 4293.846191, 4278.461426, 4290.769043, 4202.563965, 4286.153809, 4303.589844, 4321.538574, 4316.410156, 4293.846191, 3453.000000, 8200.000000, 8159.000000, 0.000000, 0.000000, 0.000000, -20991.000000, 585.128174, 4.000000, 4.000000, 4.000000, 4.000000, 4.000000, 4.000000, 4.000000, 4.000000, 1.000000, 4.000000, 4.000000, 4.000000, 4.000000, 4.000000, 4.000000, 4.000000
110.000000, 0.000000, 4306.666504, 4267.179199, 4281.538574, 4275.384277, 4290.256348, 4292.820313, 4274.871582, 4295.384277, 4202.563965, 4290.256348, 4302.563965, 4314.358887, 4317.948730, 4290.769043, 3580.000000, 8200.000000, 8159.000000, 0.000000, 0.000000, 0.000000, -20991.000000, 592.820496, 4.000000, 4.000000, 4.000000, 4.000000, 4.000000, 4.000000, 4.000000, 4.000000, 1.000000, 4.000000, 4.000000, 4.000000, 4.000000, 4.000000, 4.000000, 4.000000
111.000000, 0.000000, 4312.307617, 4278.461426, 4280.000000, 4282.051270, 4287.692383, 4293.333008, 4274.871582, 4316.922852, 4200.512695, 4299.487305, 4310.769043, 4312.307617, 4327.179199, 4295.384277, 3546.000000, 8191.000000, 8152.000000, 0.000000, 0.000000, 0.000000, -20991.000000, 601.025635, 4.000000, 4.000000, 4.000000, 4.000000, 4.000000, 4.000000, 4.000000, 4.000000, 1.000000, 4.000000, 4.000000, 4.000000, 4.000000, 4.000000, 4.000000, 4.000000
112.000000, 0.000000, 4312.307617, 4275.897461, 4280.512695, 4278.461426, 4281.538574, 4288.717773, 4278.461426, 4313.846191, 4201.025391, 4297.436035, 4309.743652, 4311.794922, 4327.692383, 4296.410156, 3524.000000, 8191.000000, 8152.000000, 0.000000, 0.000000, 0.000000, -20991.000000, 608.717957, 4.000000, 4.000000, 4.000000, 4.000000, 4.000000, 4.000000, 4.000000, 4.000000, 1.000000, 4.000000, 4.000000, 4.000000, 4.000000, 4.000000, 4.000000, 4.000000
113.000000, 0.000000, 4307.179199, 4264.615234, 4280.512695, 4267.179199, 4276.410156, 4281.025391, 4282.563965, 4300.000000, 4202.563965, 4291.281738, 4297.948730, 4309.743652, 4316.922852, 4291.281738, 3453.000000, 8191.000000, 8151.000000, 0.000000, 0.000000, 0.000000, -20991.000000, 616.923035, 4.000000, 4.000000, 4.000000, 4.000000, 4.000000, 4.000000, 4.000000, 4.000000, 1.000000, 4.000000, 4.000000, 4.000000, 4.000000, 4.000000, 4.000000, 4.000000
114.000000, 0.000000, 4310.256348, 4268.717773, 4284.102539, 4270.256348, 4266.666504, 4280.000000, 4289.230469, 4317.436035, 4203.076660, 4292.307617, 4294.871582, 4317.948730, 4312.820313, 4291.281738, 3580.000000, 8191.000000, 8151.000000, 0.000000, 0.000000, 0.000000, -20991.000000, 624.615356, 4.000000, 4.000000, 4.000000, 4.000000, 4.000000, 4.000000, 4.000000, 4.000000, 1.000000, 4.000000, 4.000000, 4.000000, 4.000000, 4.000000, 4.000000, 4.000000
115.000000, 0.000000, 4311.281738, 4274.358887, 4285.127930, 4275.384277, 4263.076660, 4281.025391, 4295.384277, 4332.307617, 4203.076660, 4293.846191, 4297.436035, 4326.666504, 4315.384277, 4293.333008, 3546.000000, 8188.000000, 8149.000000, 0.000000, 0.000000, 0.000000, -20991.000000, 632.820496, 4.000000, 4.000000, 4.000000, 4.000000, 4.000000, 4.000000, 4.000000, 4.000000, 1.000000, 4.000000, 4.000000, 4.000000, 4.000000, 4.000000, 4.000000, 4.000000
116.000000, 0.000000, 4304.102539, 4270.769043, 4278.974121, 4269.230469, 4270.769043, 4278.974121, 4289.743652, 4308.205078, 4201.538574, 4291.281738, 4298.461426, 4317.436035, 4320.512695, 4292.307617, 3524.000000, 8188.000000, 8149.000000, 0.000000, 0.000000, 0.000000, -20991.000000, 641.025635, 4.000000, 4.000000, 4.000000, 4.000000, 4.000000, 4.000000, 4.000000, 4.000000, 1.000000, 4.000000, 4.000000, 4.000000, 4.000000, 4.000000, 4.000000, 4.000000
117.000000, 0.000000, 4299.487305, 4269.743652, 4278.461426, 4264.102539, 4269.230469, 4279.487305, 4280.512695, 4288.205078, 4202.051270, 4293.333008, 4301.025391, 4308.717773, 4327.179199, 4289.230469, 3453.000000, 8191.000000, 8143.000000, 0.000000, 0.000000, 0.000000, -20991.000000, 648.717957, 4.000000, 4.000000, 4.000000, 4.000000, 4.000000, 4.000000, 4.000000, 4.000000, 1.000000, 4.000000, 4.000000, 4.000000, 4.000000, 4.000000, 4.000000, 4.000000
118.000000, 0.000000, 4296.410156, 4267.692383, 4278.974121, 4263.076660, 4261.025391, 4277.436035, 4278.974121, 4297.948730, 4202.051270, 4292.307617, 4296.410156, 4311.281738, 4322.051270, 4282.563965, 3580.000000, 8191.000000, 8143.000000, 0.000000, 0.000000, 0.000000, -20991.000000, 656.923035, 4.000000, 4.000000, 4.000000, 4.000000, 4.000000, 4.000000, 4.000000, 4.000000, 1.000000, 4.000000, 4.000000, 4.000000, 4.000000, 4.000000, 4.000000, 4.000000
119.000000, 0.000000, 4293.846191, 4263.589844, 4269.230469, 4260.000000, 4262.051270, 4267.179199, 4273.846191, 4296.410156, 4200.512695, 4283.589844, 4286.666504, 4303.076660, 4310.256348, 4275.384277, 3546.000000, 8189.000000, 8144.000000, 0.000000, 0.000000, 0.000000, -20991.000000, 664.615356, 4.000000, 4.000000, 4.000000, 4.000000, 4.000000, 4.000000, 4.000000, 4.000000, 1.000000, 4.000000, 4.000000, 4.000000, 4.000000, 4.000000, 4.000000, 4.000000
120.000000, 0.000000, 4298.974121, 4268.205078, 4266.153809, 4263.589844, 4266.153809, 4263.589844, 4264.615234, 4280.512695, 4200.512695, 4279.487305, 4287.179199, 4292.820313, 4308.717773, 4277.436035, 3524.000000, 8189.000000, 8144.000000, 0.000000, 0.000000, 0.000000, -20991.000000, 672.820496, 4.000000, 4.000000, 4.000000, 4.000000, 4.000000, 4.000000, 4.000000, 4.000000, 1.000000, 4.000000, 4.000000, 4.000000, 4.000000, 4.000000, 4.000000, 4.000000
121.000000, 0.000000, 4302.051270, 4269.230469, 4272.307617, 4268.205078, 4264.102539, 4265.641113, 4261.025391, 4275.384277, 4202.563965, 4278.974121, 4288.717773, 4295.897461, 4311.281738, 4278.461426, 3453.000000, 8201.000000, 8145.000000, 0.000000, 0.000000, 0.000000, -20991.000000, 680.512817, 4.000000, 4.000000, 4.000000, 4.000000, 4.000000, 4.000000, 4.000000, 4.000000, 1.000000, 4.000000, 4.000000, 4.000000, 4.000000, 4.000000, 4.000000, 4.000000
122.000000, 0.000000, 4303.076660, 4266.666504, 4275.897461, 4263.589844, 4263.076660, 4264.615234, 4264.102539, 4280.000000, 4202.051270, 4278.461426, 4288.717773, 4304.615234, 4313.846191, 4279.487305, 3580.000000, 8201.000000, 8145.000000, 0.000000, 0.000000, 0.000000, -20991.000000, 688.717957, 4.000000, 4.000000, 4.000000, 4.000000, 4.000000, 4.000000, 4.000000, 4.000000, 1.000000, 4.000000, 4.000000, 4.000000, 4.000000, 4.000000, 4.000000, 4.000000
123.000000, 0.000000, 4308.717773, 4272.820313, 4277.436035, 4268.205078, 4268.205078, 4265.641113, 4267.179199, 4290.256348, 4200.512695, 4285.127930, 4300.000000, 4314.358887, 4325.127930, 4290.256348, 3546.000000, 8204.000000, 8144.000000, 0.000000, 0.000000, 0.000000, -20991.000000, 696.410217, 4.000000, 4.000000, 4.000000, 4.000000, 4.000000, 4.000000, 4.000000, 4.000000, 1.000000, 4.000000, 4.000000, 4.000000, 4.000000, 4.000000, 4.000000, 4.000000
124.000000, 0.000000, 4315.897461, 4283.076660, 4282.051270, 4280.000000, 4274.358887, 4272.820313, 4269.230469, 4293.333008, 4200.512695, 4291.794922, 4310.256348, 4323.076660, 4334.358887, 4301.538574, 3524.000000, 8204.000000, 8144.000000, 0.000000, 0.000000, 0.000000, -20991.000000, 704.615356, 4.000000, 4.000000, 4.000000, 4.000000, 4.000000, 4.000000, 4.000000, 4.000000, 1.000000, 4.000000, 4.000000, 4.000000, 4.000000, 4.000000, 4.000000, 4.000000
125.000000, 0.000000, 4311.281738, 4283.076660, 4284.615234, 4278.461426, 4280.000000, 4282.563965, 4274.871582, 4291.281738, 4201.538574, 4285.127930, 4297.948730, 4317.948730, 4324.102539, 4296.922852, 3453.000000, 8215.000000, 8152.000000, 0.000000, 0.000000, 0.000000, -20991.000000, 712.307678, 4.000000, 4.000000, 4.000000, 4.000000, 4.000000, 4.000000, 4.000000, 4.000000, 1.000000, 4.000000, 4.000000, 4.000000, 4.000000, 4.000000, 4.000000, 4.000000
126.000000, 0.000000, 4295.384277, 4268.717773, 4275.384277, 4262.051270, 4276.410156, 4288.717773, 4282.051270, 4295.384277, 4202.563965, 4274.358887, 4275.897461, 4302.563965, 4300.000000, 4277.436035, 3580.000000, 8215.000000, 8152.000000, 0.000000, 0.000000, 0.000000, -20991.000000, 720.512817, 4.000000, 4.000000, 4.000000, 4.000000, 4.000000, 4.000000, 4.000000, 4.000000, 1.000000, 4.000000, 4.000000, 4.000000, 4.000000, 4.000000, 4.000000, 4.000000
127.000000, 0.000000, 4280.512695, 4257.436035, 4263.589844, 4248.717773, 4266.666504, 4285.127930, 4281.538574, 4300.512695, 4203.076660, 4274.358887, 4272.820313, 4292.820313, 4286.666504, 4262.051270, 57.000000, 8215.000000, 8154.000000, 0.000000, 0.000000, 0.000000, -20991.000000, 728.717957, 4.000000, 4.000000, 4.000000, 4.000000, 4.000000, 4.000000, 4.000000, 4.000000, 1.000000, 4.000000, 4.000000, 4.000000, 4.000000, 4.000000, 4.000000, 4.000000
0.000000, 0.000000, 4278.461426, 4258.461426, 4260.000000, 4245.641113, 4259.487305, 4278.974121, 4281.025391, 4303.076660, 4203.076660, 4280.512695, 4278.461426, 4294.871582, 4293.846191, 4263.076660, 3162.000000, 8215.000000, 8154.000000, 0.000000, 0.000000, 0.000000, -20991.000000, 736.410217, 4.000000, 4.000000, 4.000000, 4.000000, 4.000000, 4.000000, 4.000000, 4.000000, 1.000000, 4.000000, 4.000000, 4.000000, 4.000000, 4.000000, 4.000000, 4.000000
1.000000, 0.000000, 4282.051270, 4261.538574, 4263.076660, 4252.820313, 4260.000000, 4278.974121, 4282.051270, 4302.563965, 4203.076660, 4282.051270, 4270.256348, 4292.820313, 4293.846191, 4265.127930, 3508.000000, 8214.000000, 8157.000000, 0.000000, 0.000000, 0.000000, -20991.000000, 744.615356, 4.000000, 4.000000, 4.000000, 4.000000, 4.000000, 4.000000, 4.000000, 4.000000, 1.000000, 4.000000, 4.000000, 4.000000, 4.000000, 4.000000, 4.000000, 4.000000
2.000000, 0.000000, 4284.102539, 4265.127930, 4265.127930, 4262.563965, 4262.563965, 4276.410156, 4271.281738, 4289.743652, 4202.051270, 4276.410156, 4264.102539, 4283.589844, 4286.666504, 4263.076660, 3544.000000, 8214.000000, 8157.000000, 0.000000, 0.000000, 0.000000, -20991.000000, 752.307678, 4.000000, 4.000000, 4.000000, 4.000000, 4.000000, 4.000000, 4.000000, 4.000000, 1.000000, 4.000000, 4.000000, 4.000000, 4.000000, 4.000000, 4.000000, 4.000000
3.000000, 0.000000, 4287.179199, 4272.820313, 4264.102539, 4263.589844, 4263.076660, 4266.666504, 4258.461426, 4276.410156, 4201.025391, 4274.871582, 4274.871582, 4284.102539, 4297.948730, 4268.717773, 2376.000000, 8215.000000, 8162.000000, 0.000000, 0.000000, 0.000000, -20991.000000, 760.512817, 4.000000, 4.000000, 4.000000, 4.000000, 4.000000, 4.000000, 4.000000, 4.000000, 1.000000, 4.000000, 4.000000, 4.000000, 4.000000, 4.000000, 4.000000, 4.000000
4.000000, 0.000000, 4293.846191, 4274.871582, 4264.102539, 4263.076660, 4263.589844, 4263.076660, 4260.512695, 4278.974121, 4200.512695, 4280.512695, 4282.563965, 4293.846191, 4315.384277, 4280.000000, 3543.000000, 8215.000000, 8162.000000, 0.000000, 0.000000, 0.000000, -20991.000000, 768.205139, 4.000000, 4.000000, 4.000000, 4.000000, 4.000000, 4.000000, 4.000000, 4.000000, 1.000000, 4.000000, 4.000000, 4.000000, 4.000000, 4.000000, 4.000000, 4.000000
5.000000, 0.000000, 4294.871582, 4266.666504, 4264.102539, 4262.563965, 4264.615234, 4264.615234, 4262.051270, 4280.512695, 4200.512695, 4283.076660, 4280.512695, 4300.000000, 4314.358887, 4281.025391, 3563.000000, 8212.000000, 8162.000000, 0.000000, 0.000000, 0.000000, -20991.000000, 775.897400, 4.000000, 4.000000, 4.000000, 4.000000, 4.000000, 4.000000, 4.000000, 4.000000, 1.000000, 4.000000, 4.000000, 4.000000, 4.000000, 4.000000, 4.000000, 4.000000
6.000000, 0.000000, 4287.179199, 4262.051270, 4260.000000, 4254.871582, 4264.102539, 4265.127930, 4254.358887, 4276.922852, 4201.025391, 4280.512695, 4276.922852, 4294.358887, 4303.076660, 4271.281738, 3402.000000, 8212.000000, 8162.000000, 0.000000, 0.000000, 0.000000, -20991.000000, 784.102539, 4.000000, 4.000000, 4.000000, 4.000000, 4.000000, 4.000000, 4.000000, 4.000000, 1.000000, 4.000000, 4.000000, 4.000000, 4.000000, 4.000000, 4.000000, 4.000000
7.000000, 0.000000, 4277.948730, 4263.589844, 4250.256348, 4247.692383, 4262.563965, 4263.589844, 4248.205078, 4275.384277, 4202.051270, 4278.974121, 4271.281738, 4282.563965, 4296.922852, 4261.025391, 3497.000000, 8216.000000, 8159.000000, 0.000000, 0.000000, 0.000000, -20991.000000, 791.794861, 4.000000, 4.000000, 4.000000, 4.000000, 4.000000, 4.000000, 4.000000, 4.000000, 1.000000, 4.000000, 4.000000, 4.000000, 4.000000, 4.000000, 4.000000, 4.000000
8.000000, 0.000000, 4276.410156, 4263.589844, 4244.615234, 4247.179199, 4262.563965, 4262.563965, 4251.281738, 4275.897461, 4202.051270, 4279.487305, 4271.794922, 4275.897461, 4296.922852, 4260.000000, 71.000000, 8216.000000, 8159.000000, 0.000000, 0.000000, 0.000000, -20991.000000, 800.000000, 4.000000, 4.000000, 4.000000, 4.000000, 4.000000, 4.000000, 4.000000, 4.000000, 1.000000, 4.000000, 4.000000, 4.000000, 4.000000, 4.000000, 4.000000, 4.000000
9.000000, 0.000000, 4277.948730, 4262.563965, 4247.179199, 4247.179199, 4257.436035, 4264.102539, 4261.538574, 4281.538574, 4202.051270, 4280.512695, 4277.436035, 4280.000000, 4302.051270, 4263.076660, 2955.000000, 8212.000000, 8153.000000, 0.000000, 0.000000, 0.000000, -20991.000000, 807.692261, 4.000000, 4.000000, 4.000000, 4.000000, 4.000000, 4.000000, 4.000000, 4.000000, 1.000000, 4.000000, 4.000000, 4.000000, 4.000000, 4.000000, 4.000000, 4.000000
10.000000, 0.000000, 4275.384277, 4263.076660, 4249.230469, 4244.615234, 4247.179199, 4260.000000, 4266.666504, 4284.615234, 4202.051270, 4280.000000, 4279.487305, 4291.794922, 4306.153809, 4264.102539, 3583.000000, 8212.000000, 8153.000000, 0.000000, 0.000000, 0.000000, -20991.000000, 815.897400, 4.000000, 4.000000, 4.000000, 4.000000, 4.000000, 4.000000, 4.000000, 4.000000, 1.000000, 4.000000, 4.000000, 4.000000, 4.000000, 4.000000, 4.000000, 4.000000
11.000000, 0.000000, 4274.871582, 4261.025391, 4249.230469, 4245.127930, 4243.589844, 4249.743652, 4257.436035, 4282.563965, 4202.051270, 4278.974121, 4278.974121, 4294.871582, 4303.076660, 4264.615234, 3547.000000, 8212.000000, 8154.000000, 0.000000, 0.000000, 0.000000, -20991.000000, 823.589722, 4.000000, 4.000000, 4.000000, 4.000000, 4.000000, 4.000000, 4.000000, 4.000000, 1.000000, 4.000000, 4.000000, 4.000000, 4.000000, 4.000000, 4.000000, 4.000000
12.000000, 0.000000, 4275.384277, 4258.461426, 4251.281738, 4245.127930, 4243.589844, 4242.563965, 4245.127930, 4277.948730, 4202.051270, 4276.410156, 4270.769043, 4285.127930, 4297.436035, 4263.076660, 3523.000000, 8212.000000, 8154.000000, 0.000000, 0.000000, 0.000000, -20991.000000, 831.282043, 4.000000, 4.000000, 4.000000, 4.000000, 4.000000, 4.000000, 4.000000, 4.000000, 1.000000, 4.000000, 4.000000, 4.000000, 4.000000, 4.000000, 4.000000, 4.000000
13.000000, 0.000000, 4274.871582, 4260.000000, 4253.846191, 4244.615234, 4241.538574, 4245.641113, 4246.666504, 4271.794922, 4202.051270, 4269.743652, 4263.589844, 4279.487305, 4291.281738, 4262.051270, 3451.000000, 8207.000000, 8154.000000, 0.000000, 0.000000, 0.000000, -20991.000000, 839.487183, 4.000000, 4.000000, 4.000000, 4.000000, 4.000000, 4.000000, 4.000000, 4.000000, 1.000000, 4.000000, 4.000000, 4.000000, 4.000000, 4.000000, 4.000000, 4.000000
14.000000, 0.000000, 4277.436035, 4263.076660, 4253.846191, 4246.153809, 4244.102539, 4249.230469, 4258.461426, 4272.820313, 4202.051270, 4266.153809, 4261.538574, 4279.487305, 4282.051270, 4260.512695, 3583.000000, 8207.000000, 8154.000000, 0.000000, 0.000000, 0.000000, -20991.000000, 847.692261, 4.000000, 4.000000, 4.000000, 4.000000, 4.000000, 4.000000, 4.000000, 4.000000, 1.000000, 4.000000, 4.000000, 4.000000, 4.000000, 4.000000, 4.000000, 4.000000
15.000000, 0.000000, 4273.846191, 4267.179199, 4245.641113, 4245.641113, 4247.692383, 4249.230469, 4260.000000, 4274.358887, 4202.051270, 4263.589844, 4252.307617, 4271.281738, 4265.127930, 4251.281738, 3547.000000, 8196.000000, 8167.000000, 0.000000, 0.000000, 0.000000, -20991.000000, 855.384583, 4.000000, 4.000000, 4.000000, 4.000000, 4.000000, 4.000000, 4.000000, 4.000000, 1.000000, 4.000000, 4.000000, 4.000000, 4.000000, 4.000000, 4.000000, 4.000000
16.000000, 0.000000, 4266.666504, 4268.205078, 4232.820313, 4243.076660, 4247.692383, 4251.281738, 4251.794922, 4265.641113, 4202.051270, 4255.384277, 4243.589844, 4259.487305, 4245.641113, 4243.589844, 0.000000, 8196.000000, 8167.000000, 0.000000, 0.000000, 0.000000, -20991.000000, 863.076904, 4.000000, 4.000000, 4.000000, 4.000000, 4.000000, 4.000000, 4.000000, 4.000000, 1.000000, 4.000000, 4.000000, 4.000000, 4.000000, 4.000000, 4.000000, 4.000000
17.000000, 0.000000, 4268.717773, 4268.205078, 4230.256348, 4242.563965, 4248.717773, 4251.794922, 4247.692383, 4261.025391, 4201.025391, 4252.820313, 4244.102539, 4261.025391, 4236.410156, 4245.641113, 0.000000, 8195.000000, 8179.000000, 0.000000, 0.000000, 0.000000, -20991.000000, 871.282043, 4.000000, 4.000000, 4.000000, 4.000000, 4.000000, 4.000000, 4.000000, 4.000000, 1.000000, 4.000000, 4.000000, 4.000000, 4.000000, 4.000000, 4.000000, 4.000000
18.000000, 0.000000, 4275.897461, 4272.307617, 4242.051270, 4248.205078, 4252.307617, 4249.743652, 4250.256348, 4268.205078, 4201.025391, 4260.512695, 4249.230469, 4271.281738, 4240.512695, 4247.692383, 0.000000, 8195.000000, 8179.000000, 0.000000, 0.000000, 0.000000, -20991.000000, 878.974365, 4.000000, 4.000000, 4.000000, 4.000000, 4.000000, 4.000000, 4.000000, 4.000000, 1.000000, 4.000000, 4.000000, 4.000000, 4.000000, 4.000000, 4.000000, 4.000000
19.000000, 0.000000, 4281.538574, 4278.974121, 4250.769043, 4256.410156, 4253.333008, 4254.358887, 4250.256348, 4266.666504, 4201.025391, 4262.563965, 4254.871582, 4278.461426, 4243.076660, 4249.230469, 0.000000, 8192.000000, 8180.000000, 0.000000, 0.000000, 0.000000, -20991.000000, 887.179443, 4.000000, 4.000000, 4.000000, 4.000000, 4.000000, 4.000000, 4.000000, 4.000000, 1.000000, 4.000000, 4.000000, 4.000000, 4.000000, 4.000000, 4.000000, 4.000000
20.000000, 0.000000, 4289.230469, 4280.000000, 4249.743652, 4257.948730, 4251.281738, 4258.974121, 4249.230469, 4258.974121, 4201.025391, 4259.487305, 4260.512695, 4281.025391, 4240.512695, 4256.410156, 0.000000, 8192.000000, 8180.000000, 0.000000, 0.000000, 0.000000, -20991.000000, 894.871765, 4.000000, 4.000000, 4.000000, 4.000000, 4.000000, 4.000000, 4.000000, 4.000000, 1.000000, 4.000000, 4.000000, 4.000000, 4.000000, 4.000000, 4.000000, 4.000000
21.000000, 0.000000, 4292.307617, 4277.948730, 4250.256348, 4252.307617, 4250.256348, 4255.384277, 4256.410156, 4256.922852, 4201.538574, 4262.563965, 4259.487305, 4281.025391, 4243.589844, 4263.589844, 0.000000, 8195.000000, 8182.000000, 0.000000, 0.000000, 0.000000, -20991.000000, 902.564087, 4.000000, 4.000000, 4.000000, 4.000000, 4.000000, 4.000000, 4.000000, 4.000000, 1.000000, 4.000000, 4.000000, 4.000000, 4.000000, 4.000000, 4.000000, 4.000000
22.000000, 0.000000, 4282.563965, 4279.487305, 4250.769043, 4248.205078, 4250.769043, 4248.717773, 4263.076660, 4251.281738, 4202.051270, 4262.563965, 4257.948730, 4278.461426, 4245.127930, 4261.538574, 0.000000, 8195.000000, 8182.000000, 0.000000, 0.000000, 0.000000, -20991.000000, 910.769226, 4.000000, 4.000000, 4.000000, 4.000000, 4.000000, 4.000000, 4.000000, 4.000000, 1.000000, 4.000000, 4.000000, 4.000000, 4.000000, 4.000000, 4.000000, 4.000000
23.000000, 0.000000, 4280.000000, 4278.974121, 4248.205078, 4249.743652, 4250.769043, 4248.717773, 4260.000000, 4246.666504, 4200.512695, 4260.000000, 4263.589844, 4283.589844, 4246.666504, 4262.051270, 0.000000, 8191.000000, 8173.000000, 0.000000, 0.000000, 0.000000, -20991.000000, 918.461487, 4.000000, 4.000000, 4.000000, 4.000000, 4.000000, 4.000000, 4.000000, 4.000000, 1.000000, 4.000000, 4.000000, 4.000000, 4.000000, 4.000000, 4.000000, 4.000000
24.000000, 0.000000, 4286.666504, 4276.922852, 4250.769043, 4250.769043, 4249.230469, 4251.281738, 4253.333008, 4251.281738, 4200.512695, 4264.102539, 4269.230469, 4297.948730, 4261.025391, 4275.897461, 0.000000, 8191.000000, 8173.000000, 0.000000, 0.000000, 0.000000, -20991.000000, 926.153809, 4.000000, 4.000000, 4.000000, 4.000000, 4.000000, 4.000000, 4.000000, 4.000000, 1.000000, 4.000000, 4.000000, 4.000000, 4.000000, 4.000000, 4.000000, 4.000000
25.000000, 0.000000, 4285.127930, 4277.436035, 4252.307617, 4247.692383, 4245.127930, 4248.205078, 4247.692383, 4246.153809, 4202.563965, 4261.025391, 4267.179199, 4296.922852, 4265.641113, 4281.538574, 0.000000, 8193.000000, 8170.000000, 0.000000, 0.000000, 0.000000, -20991.000000, 934.358948, 4.000000, 4.000000, 4.000000, 4.000000, 4.000000, 4.000000, 4.000000, 4.000000, 1.000000, 4.000000, 4.000000, 4.000000, 4.000000, 4.000000, 4.000000, 4.000000
26.000000, 0.000000, 4279.487305, 4278.461426, 4249.230469, 4245.641113, 4243.589844, 4239.487305, 4238.974121, 4233.333008, 4202.563965, 4248.717773, 4261.538574, 4281.025391, 4254.871582, 4268.205078, 0.000000, 8193.000000, 8170.000000, 0.000000, 0.000000, 0.000000, -20991.000000, 942.051270, 4.000000, 4.000000, 4.000000, 4.000000, 4.000000, 4.000000, 4.000000, 4.000000, 1.000000, 4.000000, 4.000000, 4.000000, 4.000000, 4.000000, 4.000000, 4.000000
27.000000, 0.000000, 4282.051270, 4281.538574, 4252.820313, 4248.717773, 4247.179199, 4239.487305, 4233.846191, 4236.922852, 4202.051270, 4245.641113, 4258.974121, 4277.948730, 4254.871582, 4263.589844, 0.000000, 8184.000000, 8162.000000, 0.000000, 0.000000, 0.000000, -20991.000000, 950.256409, 4.000000, 4.000000, 4.000000, 4.000000, 4.000000, 4.000000, 4.000000, 4.000000, 1.000000, 4.000000, 4.000000, 4.000000, 4.000000, 4.000000, 4.000000, 4.000000
28.000000, 0.000000, 4281.025391, 4282.051270, 4252.820313, 4251.281738, 4250.769043, 4247.179199, 4240.000000, 4248.205078, 4202.051270, 4250.769043, 4251.281738, 4275.897461, 4255.384277, 4262.563965, 0.000000, 8184.000000, 8162.000000, 0.000000, 0.000000, 0.000000, -20991.000000, 957.948669, 4.000000, 4.000000, 4.000000, 4.000000, 4.000000, 4.000000, 4.000000, 4.000000, 1.000000, 4.000000, 4.000000, 4.000000, 4.000000, 4.000000, 4.000000, 4.000000
29.000000, 0.000000, 4268.717773, 4277.948730, 4238.461426, 4248.205078, 4249.743652, 4246.666504, 4246.153809, 4250.769043, 4202.051270, 4248.717773, 4245.127930, 4268.205078, 4246.666504, 4252.307617, 0.000000, 8187.000000, 8157.000000, 0.000000, 0.000000, 0.000000, -20991.000000, 965.640991, 4.000000, 4.000000, 4.000000, 4.000000, 4.000000, 4.000000, 4.000000, 4.000000, 1.000000, 4.000000, 4.000000, 4.000000, 4.000000, 4.000000, 4.000000, 4.000000
30.000000, 0.000000, 4267.692383, 4275.897461, 4236.410156, 4245.127930, 4250.256348, 4245.641113, 4247.692383, 4249.230469, 4202.051270, 4248.205078, 4254.358887, 4274.358887, 4251.794922, 4253.333008, 0.000000, 8187.000000, 8157.000000, 0.000000, 0.000000, 0.000000, -20991.000000, 973.846130, 4.000000, 4.000000, 4.000000, 4.000000, 4.000000, 4.000000, 4.000000, 4.000000, 1.000000, 4.000000, 4.000000, 4.000000, 4.000000, 4.000000, 4.000000, 4.000000
31.000000, 0.000000, 4277.436035, 4278.974121, 4248.717773, 4251.281738, 4250.256348, 4248.205078, 4248.717773, 4251.794922, 4202.563965, 4252.820313, 4265.127930, 4284.615234, 4265.641113, 4264.102539, 0.000000, 8190.000000, 8154.000000, 0.000000, 0.000000, 0.000000, -20991.000000, 982.051270, 4.000000, 4.000000, 4.000000, 4.000000, 4.000000, 4.000000, 4.000000, 4.000000, 1.000000, 4.000000, 4.000000, 4.000000, 4.000000, 4.000000, 4.000000, 4.000000
32.000000, 0.000000, 4280.512695, 4281.025391, 4251.794922, 4259.487305, 4248.205078, 4246.666504, 4250.256348, 4251.794922, 4202.051270, 4251.794922, 4264.102539, 4285.641113, 4271.281738, 4266.153809, 0.000000, 8190.000000, 8154.000000, 0.000000, 0.000000, 0.000000, -20991.000000, 989.743591, 4.000000, 4.000000, 4.000000, 4.000000, 4.000000, 4.000000, 4.000000, 4.000000, 1.000000, 4.000000, 4.000000, 4.000000, 4.000000, 4.000000, 4.000000, 4.000000
33.000000, 0.000000, 4281.538574, 4281.025391, 4253.846191, 4262.051270, 4250.256348, 4244.615234, 4251.281738, 4250.256348, 4202.051270, 4250.256348, 4263.589844, 4290.769043, 4277.436035, 4269.743652, 0.000000, 8193.000000, 8154.000000, 0.000000, 0.000000, 0.000000, -20991.000000, 997.435852, 4.000000, 4.000000, 4.000000, 4.000000, 4.000000, 4.000000, 4.000000, 4.000000, 1.000000, 4.000000, 4.000000, 4.000000, 4.000000, 4.000000, 4.000000, 4.000000
34.000000, 0.000000, 4284.615234, 4280.512695, 4260.512695, 4263.589844, 4251.794922, 4249.230469, 4250.769043, 4253.846191, 4202.563965, 4251.794922, 4268.717773, 4296.410156, 4279.487305, 4274.871582, 0.000000, 8193.000000, 8154.000000, 0.000000, 0.000000, 0.000000, -20990.000000, 5.641026, 4.000000, 4.000000, 4.000000, 4.000000, 4.000000, 4.000000, 4.000000, 4.000000, 1.000000, 4.000000, 4.000000, 4.000000, 4.000000, 4.000000, 4.000000, 4.000000
35.000000, 0.000000, 4283.076660, 4280.512695, 4257.436035, 4265.127930, 4249.230469, 4246.666504, 4250.256348, 4248.205078, 4201.025391, 4249.230469, 4262.051270, 4287.179199, 4268.717773, 4268.205078, 0.000000, 8199.000000, 8156.000000, 0.000000, 0.000000, 0.000000, -20990.000000, 13.333333, 4.000000, 4.000000, 4.000000, 4.000000, 4.000000, 4.000000, 4.000000, 4.000000, 1.000000, 4.000000, 4.000000, 4.000000, 4.000000, 4.000000, 4.000000, 4.000000
36.000000, 0.000000, 4277.948730, 4278.461426, 4248.717773, 4255.384277, 4242.563965, 4234.871582, 4243.589844, 4235.897461, 4200.000000, 4245.641113, 4249.230469, 4278.461426, 4261.025391, 4257.436035, 0.000000, 8199.000000, 8156.000000, 0.000000, 0.000000, 0.000000, -20990.000000, 21.025640, 4.000000, 4.000000, 4.000000, 4.000000, 4.000000, 4.000000, 4.000000, 4.000000, 1.000000, 4.000000, 4.000000, 4.000000, 4.000000, 4.000000, 4.000000, 4.000000
37.000000, 0.000000, 4271.281738, 4271.281738, 4248.205078, 4244.102539, 4234.871582, 4226.666504, 4233.846191, 4238.461426, 4201.025391, 4246.153809, 4248.717773, 4278.461426, 4261.538574, 4251.281738, 0.000000, 8205.000000, 8154.000000, 0.000000, 0.000000, 0.000000, -20990.000000, 29.230768, 4.000000, 4.000000, 4.000000, 4.000000, 4.000000, 4.000000, 4.000000, 4.000000, 1.000000, 4.000000, 4.000000, 4.000000, 4.000000, 4.000000, 4.000000, 4.000000
38.000000, 0.000000, 4264.102539, 4265.127930, 4249.743652, 4244.102539, 4232.820313, 4227.179199, 4229.743652, 4253.333008, 4202.563965, 4249.230469, 4253.333008, 4281.538574, 4263.589844, 4252.307617, 0.000000, 8205.000000, 8154.000000, 0.000000, 0.000000, 0.000000, -20990.000000, 37.435898, 4.000000, 4.000000, 4.000000, 4.000000, 4.000000, 4.000000, 4.000000, 4.000000, 1.000000, 4.000000, 4.000000, 4.000000, 4.000000, 4.000000, 4.000000, 4.000000
39.000000, 0.000000, 4265.127930, 4264.615234, 4248.717773, 4243.589844, 4233.846191, 4229.230469, 4233.333008, 4250.256348, 4202.563965, 4252.307617, 4257.436035, 4285.641113, 4264.615234, 4260.512695, 0.000000, 8213.000000, 8151.000000, 0.000000, 0.000000, 0.000000, -20990.000000, 45.128204, 4.000000, 4.000000, 4.000000, 4.000000, 4.000000, 4.000000, 4.000000, 4.000000, 1.000000, 4.000000, 4.000000, 4.000000, 4.000000, 4.000000, 4.000000, 4.000000
40.000000, 0.000000, 4267.692383, 4264.615234, 4245.641113, 4234.871582, 4227.179199, 4223.076660, 4231.794922, 4232.820313, 4202.051270, 4251.794922, 4258.974121, 4285.641113, 4264.615234, 4261.025391, 0.000000, 8213.000000, 8151.000000, 0.000000, 0.000000, 0.000000, -20990.000000, 52.820511, 4.000000, 4.000000, 4.000000, 4.000000, 4.000000, 4.000000, 4.000000, 4.000000, 1.000000, 4.000000, 4.000000, 4.000000, 4.000000, 4.000000, 4.000000, 4.000000
41.000000, 0.000000, 4264.615234, 4262.051270, 4245.127930, 4231.281738, 4217.948730, 4216.922852, 4222.051270, 4230.256348, 4202.051270, 4249.230469, 4253.846191, 4280.000000, 4265.127930, 4251.794922, 0.000000, 8210.000000, 8153.000000, 0.000000, 0.000000, 0.000000, -20990.000000, 61.025639, 4.000000, 4.000000, 4.000000, 4.000000, 4.000000, 4.000000, 4.000000, 4.000000, 1.000000, 4.000000, 4.000000, 4.000000, 4.000000, 4.000000, 4.000000, 4.000000
42.000000, 0.000000, 4260.512695, 4258.461426, 4243.589844, 4230.256348, 4212.820313, 4215.897461, 4214.871582, 4239.487305, 4202.563965, 4246.153809, 4248.717773, 4277.948730, 4263.076660, 4249.230469, 0.000000, 8210.000000, 8153.000000, 0.000000, 0.000000, 0.000000, -20990.000000, 68.717949, 4.000000, 4.000000, 4.000000, 4.000000, 4.000000, 4.000000, 4.000000, 4.000000, 1.000000, 4.000000, 4.000000, 4.000000, 4.000000, 4.000000, 4.000000, 4.000000
43.000000, 0.000000, 4255.384277, 4252.820313, 4237.948730, 4222.563965, 4207.692383, 4210.769043, 4207.179199, 4231.281738, 4201.538574, 4240.512695, 4246.153809, 4278.461426, 4251.794922, 4246.666504, 0.000000, 8208.000000, 8153.000000, 0.000000, 0.000000, 0.000000, -20990.000000, 76.923073, 4.000000, 4.000000, 4.000000, 4.000000, 4.000000, 4.000000, 4.000000, 4.000000, 1.000000, 4.000000, 4.000000, 4.000000, 4.000000, 4.000000, 4.000000, 4.000000
44.000000, 0.000000, 4245.641113, 4248.717773, 4228.205078, 4214.358887, 4203.076660, 4202.051270, 4198.974121, 4208.205078, 4200.000000, 4232.307617, 4235.897461, 4265.641113, 4235.897461, 4236.410156, 0.000000, 8208.000000, 8153.000000, 0.000000, 0.000000, 0.000000, -20990.000000, 84.615379, 4.000000, 4.000000, 4.000000, 4.000000, 4.000000, 4.000000, 4.000000, 4.000000, 1.000000, 4.000000, 4.000000, 4.000000, 4.000000, 4.000000, 4.000000, 4.000000
45.000000, 0.000000, 4234.358887, 4246.153809, 4220.512695, 4212.307617, 4201.025391, 4198.974121, 4195.384277, 4197.948730, 4201.025391, 4225.127930, 4218.974121, 4248.205078, 4229.230469, 4224.102539, 0.000000, 8205.000000, 8154.000000, 0.000000, 0.000000, 0.000000, -20990.000000, 92.820511, 4.000000, 4.000000, 4.000000, 4.000000, 4.000000, 4.000000, 4.000000, 4.000000, 1.000000, 4.000000, 4.000000, 4.000000, 4.000000, 4.000000, 4.000000, 4.000000
46.000000, 0.000000, 4229.743652, 4244.615234, 4218.974121, 4211.794922, 4198.974121, 4198.974121, 4195.384277, 4199.487305, 4202.051270, 4220.512695, 4213.333008, 4242.051270, 4224.102539, 4214.358887, 0.000000, 8205.000000, 8154.000000, 0.000000, 0.000000, 0.000000, -20990.000000, 100.512817, 4.000000, 4.000000, 4.000000, 4.000000, 4.000000, 4.000000, 4.000000, 4.000000, 1.000000, 4.000000, 4.000000, 4.000000, 4.000000, 4.000000, 4.000000, 4.000000
47.000000, 0.000000, 4231.794922, 4246.153809, 4221.025391, 4212.307617, 4198.461426, 4199.487305, 4196.922852, 4196.922852, 4201.025391, 4221.025391, 4216.410156, 4245.127930, 4221.025391, 4213.846191, 0.000000, 8206.000000, 8149.000000, 0.000000, 0.000000, 0.000000, -20990.000000, 108.717949, 4.000000, 4.000000, 4.000000, 4.000000, 4.000000, 4.000000, 4.000000, 4.000000, 1.000000, 4.000000, 4.000000, 4.000000, 4.000000, 4.000000, 4.000000, 4.000000
48.000000, 0.000000, 4233.846191, 4246.153809, 4225.127930, 4213.333008, 4201.025391, 4199.487305, 4201.538574, 4203.589844, 4200.000000, 4226.153809, 4218.461426, 4248.205078, 4225.641113, 4221.538574, 0.000000, 8206.000000, 8149.000000, 0.000000, 0.000000, 0.000000, -20990.000000, 116.410255, 4.000000, 4.000000, 4.000000, 4.000000, 4.000000, 4.000000, 4.000000, 4.000000, 1.000000, 4.000000, 4.000000, 4.000000, 4.000000, 4.000000, 4.000000, 4.000000
49.000000, 0.000000, 4233.846191, 4245.127930, 4225.641113, 4211.281738, 4203.076660, 4201.025391, 4205.641113, 4217.948730, 4201.025391, 4230.256348, 4223.589844, 4250.256348, 4231.281738, 4224.102539, 0.000000, 8201.000000, 8153.000000, 0.000000, 0.000000, 0.000000, -20990.000000, 124.615379, 4.000000, 4.000000, 4.000000, 4.000000, 4.000000, 4.000000, 4.000000, 4.000000, 1.000000, 4.000000, 4.000000, 4.000000, 4.000000, 4.000000, 4.000000, 4.000000
50.000000, 0.000000, 4233.846191, 4248.205078, 4221.538574, 4204.102539, 4209.230469, 4209.743652, 4204.102539, 4220.512695, 4200.512695, 4233.333008, 4229.743652, 4253.333008, 4233.333008, 4222.051270, 0.000000, 8201.000000, 8153.000000, 0.000000, 0.000000, 0.000000, -20990.000000, 132.307693, 4.000000, 4.000000, 4.000000, 4.000000, 4.000000, 4.000000, 4.000000, 4.000000, 1.000000, 4.000000, 4.000000, 4.000000, 4.000000, 4.000000, 4.000000, 4.000000
51.000000, 0.000000, 4229.743652, 4248.205078, 4214.871582, 4204.102539, 4214.871582, 4213.846191, 4204.102539, 4216.922852, 4200.512695, 4234.358887, 4226.153809, 4247.179199, 4230.256348, 4215.384277, 0.000000, 8201.000000, 8155.000000, 0.000000, 0.000000, 0.000000, -20990.000000, 140.000000, 4.000000, 4.000000, 4.000000, 4.000000, 4.000000, 4.000000, 4.000000, 4.000000, 1.000000, 4.000000, 4.000000, 4.000000, 4.000000, 4.000000, 4.000000, 4.000000
52.000000, 0.000000, 4225.641113, 4246.153809, 4209.230469, 4213.333008, 4214.358887, 4204.615234, 4203.589844, 4218.461426, 4200.512695, 4232.307617, 4217.436035, 4236.410156, 4222.563965, 4206.666504, 0.000000, 8201.000000, 8155.000000, 0.000000, 0.000000, 0.000000, -20990.000000, 147.692307, 4.000000, 4.000000, 4.000000, 4.000000, 4.000000, 4.000000, 4.000000, 4.000000, 1.000000, 4.000000, 4.000000, 4.000000, 4.000000, 4.000000, 4.000000, 4.000000
53.000000, 0.000000, 4228.205078, 4249.743652, 4215.384277, 4218.974121, 4210.769043, 4200.000000, 4202.563965, 4217.948730, 4200.512695, 4228.205078, 4214.871582, 4237.436035, 4217.436035, 4206.153809, 0.000000, 8200.000000, 8156.000000, 0.000000, 0.000000, 0.000000, -20990.000000, 155.897430, 4.000000, 4.000000, 4.000000, 4.000000, 4.000000, 4.000000, 4.000000, 4.000000, 1.000000, 4.000000, 4.000000, 4.000000, 4.000000, 4.000000, 4.000000, 4.000000
54.000000, 0.000000, 4233.333008, 4251.794922, 4226.666504, 4220.000000, 4211.794922, 4206.666504, 4207.692383, 4212.307617, 4200.512695, 4221.025391, 4215.384277, 4247.692383, 4217.948730, 4210.256348, 0.000000, 8200.000000, 8156.000000, 0.000000, 0.000000, 0.000000, -20990.000000, 164.102554, 4.000000, 4.000000, 4.000000, 4.000000, 4.000000, 4.000000, 4.000000, 4.000000, 1.000000, 4.000000, 4.000000, 4.000000, 4.000000, 4.000000, 4.000000, 4.000000
55.000000, 0.000000, 4234.871582, 4250.769043, 4228.205078, 4221.025391, 4214.871582, 4213.333008, 4218.974121, 4213.846191, 4200.512695, 4217.436035, 4215.897461, 4247.179199, 4218.974121, 4211.281738, 0.000000, 8201.000000, 8153.000000, 0.000000, 0.000000, 0.000000, -20990.000000, 171.794861, 4.000000, 4.000000, 4.000000, 4.000000, 4.000000, 4.000000, 4.000000, 4.000000, 1.000000, 4.000000, 4.000000, 4.000000, 4.000000, 4.000000, 4.000000, 4.000000
56.000000, 0.000000, 4230.769043, 4247.179199, 4218.461426, 4215.897461, 4211.281738, 4214.358887, 4224.102539, 4218.461426, 4200.512695, 4220.512695, 4211.794922, 4236.922852, 4212.820313, 4209.230469, 0.000000, 8201.000000, 8153.000000, 0.000000, 0.000000, 0.000000, -20990.000000, 179.487183, 4.000000, 4.000000, 4.000000, 4.000000, 4.000000, 4.000000, 4.000000, 4.000000, 1.000000, 4.000000, 4.000000, 4.000000, 4.000000, 4.000000, 4.000000, 4.000000
57.000000, 0.000000, 4229.230469, 4240.512695, 4213.846191, 4208.205078, 4204.615234, 4215.384277, 4218.974121, 4210.769043, 4200.512695, 4217.436035, 4203.589844, 4233.333008, 4205.127930, 4208.205078, 0.000000, 8204.000000, 8157.000000, 0.000000, 0.000000, 0.000000, -20990.000000, 187.692307, 4.000000, 4.000000, 4.000000, 4.000000, 4.000000, 4.000000, 4.000000, 4.000000, 1.000000, 4.000000, 4.000000, 4.000000, 4.000000, 4.000000, 4.000000, 4.000000
58.000000, 0.000000, 4231.794922, 4238.461426, 4211.794922, 4204.615234, 4200.000000, 4211.794922, 4214.358887, 4196.410156, 4200.512695, 4204.102539, 4199.487305, 4232.820313, 4204.615234, 4207.179199, 0.000000, 8204.000000, 8157.000000, 0.000000, 0.000000, 0.000000, -20990.000000, 195.384613, 4.000000, 4.000000, 4.000000, 4.000000, 4.000000, 4.000000, 4.000000, 4.000000, 1.000000, 4.000000, 4.000000, 4.000000, 4.000000, 4.000000, 4.000000, 4.000000
59.000000, 0.000000, 4234.358887, 4244.102539, 4210.769043, 4208.717773, 4204.102539, 4206.153809, 4212.820313, 4197.436035, 4200.512695, 4203.076660, 4200.000000, 4233.846191, 4211.281738, 4210.769043, 0.000000, 8209.000000, 8158.000000, 0.000000, 0.000000, 0.000000, -20990.000000, 203.589737, 4.000000, 4.000000, 4.000000, 4.000000, 4.000000, 4.000000, 4.000000, 4.000000, 1.000000, 4.000000, 4.000000, 4.000000, 4.000000, 4.000000, 4.000000, 4.000000
60.000000, 0.000000, 4237.948730, 4248.205078, 4216.922852, 4215.384277, 4215.897461, 4207.692383, 4213.846191, 4212.307617, 4200.512695, 4215.897461, 4205.641113, 4239.487305, 4215.384277, 4216.922852, 0.000000, 8209.000000, 8158.000000, 0.000000, 0.000000, 0.000000, -20990.000000, 211.282043, 4.000000, 4.000000, 4.000000, 4.000000, 4.000000, 4.000000, 4.000000, 4.000000, 1.000000, 4.000000, 4.000000, 4.000000, 4.000000, 4.000000, 4.000000, 4.000000
61.000000, 0.000000, 4242.051270, 4246.666504, 4220.000000, 4216.922852, 4215.897461, 4209.230469, 4210.256348, 4214.358887, 4200.512695, 4219.487305, 4213.333008, 4243.076660, 4220.000000, 4215.897461, 0.000000, 8218.000000, 8163.000000, 0.000000, 0.000000, 0.000000, -20990.000000, 218.974350, 4.000000, 4.000000, 4.000000, 4.000000, 4.000000, 4.000000, 4.000000, 4.000000, 1.000000, 4.000000, 4.000000, 4.000000, 4.000000, 4.000000, 4.000000, 4.000000
62.000000, 0.000000, 4243.589844, 4245.127930, 4218.461426, 4215.384277, 4205.127930, 4203.589844, 4203.589844, 4210.256348, 4200.512695, 4216.922852, 4216.922852, 4245.641113, 4227.179199, 4216.922852, 0.000000, 8218.000000, 8163.000000, 0.000000, 0.000000, 0.000000, -20990.000000, 227.179489, 4.000000, 4.000000, 4.000000, 4.000000, 4.000000, 4.000000, 4.000000, 4.000000, 1.000000, 4.000000, 4.000000, 4.000000, 4.000000, 4.000000, 4.000000, 4.000000
63.000000, 0.000000, 4250.769043, 4246.666504, 4225.641113, 4216.922852, 4205.127930, 4203.076660, 4207.692383, 4212.307617, 4200.512695, 4225.127930, 4222.051270, 4255.384277, 4236.410156, 4229.743652, 0.000000, 8212.000000, 8165.000000, 0.000000, 0.000000, 0.000000, -20990.000000, 234.871796, 4.000000, 4.000000, 4.000000, 4.000000, 4.000000, 4.000000, 4.000000, 4.000000, 1.000000, 4.000000, 4.000000, 4.000000, 4.000000, 4.000000, 4.000000, 4.000000
64.000000, 0.000000, 4264.615234, 4249.743652, 4235.384277, 4220.000000, 4215.384277, 4213.846191, 4216.410156, 4215.384277, 4200.512695, 4235.897461, 4235.897461, 4268.205078, 4253.846191, 4249.743652, 3165.000000, 8212.000000, 8165.000000, 0.000000, 0.000000, 0.000000, -20990.000000, 243.076920, 4.000000, 4.000000, 4.000000, 4.000000, 4.000000, 4.000000, 4.000000, 4.000000, 1.000000, 4.000000, 4.000000, 4.000000, 4.000000, 4.000000, 4.000000, 4.000000
65.000000, 0.000000, 4265.641113, 4251.281738, 4235.384277, 4220.000000, 4215.897461, 4219.487305, 4219.487305, 4227.692383, 4200.512695, 4239.487305, 4244.615234, 4269.230469, 4264.102539, 4252.820313, 3511.000000, 8201.000000, 8164.000000, 0.000000, 0.000000, 0.000000, -20990.000000, 250.769226, 4.000000, 4.000000, 4.000000, 4.000000, 4.000000, 4.000000, 4.000000, 4.000000, 1.000000, 4.000000, 4.000000, 4.000000, 4.000000, 4.000000, 4.000000, 4.000000
66.000000, 0.000000, 4252.820313, 4249.230469, 4224.102539, 4216.410156, 4213.846191, 4218.974121, 4218.461426, 4237.436035, 4200.512695, 4237.436035, 4238.974121, 4262.051270, 4255.897461, 4240.512695, 3546.000000, 8201.000000, 8164.000000, 0.000000, 0.000000, 0.000000, -20990.000000, 258.974365, 4.000000, 4.000000, 4.000000, 4.000000, 4.000000, 4.000000, 4.000000, 4.000000, 1.000000, 4.000000, 4.000000, 4.000000, 4.000000, 4.000000, 4.000000, 4.000000
67.000000, 0.000000, 4240.512695, 4248.717773, 4210.256348, 4214.871582, 4217.948730, 4218.974121, 4210.769043, 4224.615234, 4200.512695, 4235.897461, 4232.307617, 4252.307617, 4249.230469, 4229.743652, 2376.000000, 8202.000000, 8161.000000, 0.000000, 0.000000, 0.000000, -20990.000000, 267.179474, 4.000000, 4.000000, 4.000000, 4.000000, 4.000000, 4.000000, 4.000000, 4.000000, 1.000000, 4.000000, 4.000000, 4.000000, 4.000000, 4.000000, 4.000000, 4.000000
68.000000, 0.000000, 4231.281738, 4247.179199, 4205.641113, 4214.358887, 4218.974121, 4214.871582, 4196.922852, 4208.205078, 4200.512695, 4232.820313, 4226.153809, 4245.127930, 4241.538574, 4218.461426, 3543.000000, 8202.000000, 8161.000000, 0.000000, 0.000000, 0.000000, -20990.000000, 274.871796, 4.000000, 4.000000, 4.000000, 4.000000, 4.000000, 4.000000, 4.000000, 4.000000, 1.000000, 4.000000, 4.000000, 4.000000, 4.000000, 4.000000, 4.000000, 4.000000
69.000000, 0.000000, 4228.205078, 4245.641113, 4213.846191, 4216.410156, 4217.436035, 4214.358887, 4199.487305, 4208.717773, 4200.512695, 4225.127930, 4225.127930, 4245.641113, 4233.333008, 4213.846191, 3568.000000, 8195.000000, 8161.000000, 0.000000, 0.000000, 0.000000, -20990.000000, 282.564087, 4.000000, 4.000000, 4.000000, 4.000000, 4.000000, 4.000000, 4.000000, 4.000000, 1.000000, 4.000000, 4.000000, 4.000000, 4.000000, 4.000000, 4.000000, 4.000000
70.000000, 0.000000, 4238.461426, 4249.230469, 4221.538574, 4220.512695, 4217.948730, 4213.333008, 4211.794922, 4208.205078, 4200.512695, 4220.000000, 4227.692383, 4245.641113, 4237.948730, 4221.538574, 3406.000000, 8195.000000, 8161.000000, 0.000000, 0.000000, 0.000000, -20990.000000, 290.256409, 4.000000, 4.000000, 4.000000, 4.000000, 4.000000, 4.000000, 4.000000, 4.000000, 1.000000, 4.000000, 4.000000, 4.000000, 4.000000, 4.000000, 4.000000, 4.000000
71.000000, 0.000000, 4241.025391, 4250.769043, 4218.974121, 4218.974121, 4214.871582, 4205.127930, 4207.179199, 4202.051270, 4200.512695, 4215.897461, 4218.461426, 4240.512695, 4237.436035, 4221.538574, 3503.000000, 8181.000000, 8164.000000, 0.000000, 0.000000, 0.000000, -20990.000000, 298.461517, 4.000000, 4.000000, 4.000000, 4.000000, 4.000000, 4.000000, 4.000000, 4.000000, 1.000000, 4.000000, 4.000000, 4.000000, 4.000000, 4.000000, 4.000000, 4.000000
72.000000, 0.000000, 4231.794922, 4246.153809, 4211.794922, 4210.769043, 4211.794922, 4203.589844, 4208.717773, 4208.717773, 4200.512695, 4214.871582, 4212.820313, 4238.461426, 4227.692383, 4212.307617, 71.000000, 8181.000000, 8164.000000, 0.000000, 0.000000, 0.000000, -20990.000000, 306.153839, 4.000000, 4.000000, 4.000000, 4.000000, 4.000000, 4.000000, 4.000000, 4.000000, 1.000000, 4.000000, 4.000000, 4.000000, 4.000000, 4.000000, 4.000000, 4.000000
73.000000, 0.000000, 4236.922852, 4249.743652, 4212.307617, 4209.230469, 4215.897461, 4214.871582, 4229.743652, 4225.641113, 4200.512695, 4229.230469, 4230.256348, 4247.179199, 4241.538574, 4224.102539, 2955.000000, 8174.000000, 8165.000000, 0.000000, 0.000000, 0.000000, -20990.000000, 314.358978, 4.000000, 4.000000, 4.000000, 4.000000, 4.000000, 4.000000, 4.000000, 4.000000, 1.000000, 4.000000, 4.000000, 4.000000, 4.000000, 4.000000, 4.000000, 4.000000
74.000000, 0.000000, 4249.743652, 4261.025391, 4212.307617, 4215.897461, 4221.025391, 4226.153809, 4239.487305, 4240.512695, 4201.025391, 4249.230469, 4251.794922, 4260.512695, 4274.358887, 4245.641113, 3584.000000, 8174.000000, 8165.000000, 0.000000, 0.000000, 0.000000, -20990.000000, 322.051270, 4.000000, 4.000000, 4.000000, 4.000000, 4.000000, 4.000000, 4.000000, 4.000000, 1.000000, 4.000000, 4.000000, 4.000000, 4.000000, 4.000000, 4.000000, 4.000000
75.000000, 0.000000, 4248.205078, 4262.051270, 4202.051270, 4214.358887, 4218.461426, 4229.230469, 4226.666504, 4246.666504, 4200.000000, 4255.897461, 4256.922852, 4264.615234, 4283.076660, 4249.743652, 3548.000000, 8166.000000, 8162.000000, 0.000000, 0.000000, 0.000000, -20990.000000, 330.256409, 4.000000, 4.000000, 4.000000, 4.000000, 4.000000, 4.000000, 4.000000, 4.000000, 1.000000, 4.000000, 4.000000, 4.000000, 4.000000, 4.000000, 4.000000, 4.000000
76.000000, 0.000000, 4247.692383, 4258.461426, 4199.487305, 4209.743652, 4213.846191, 4227.692383, 4219.487305, 4247.179199, 4201.025391, 4255.897461, 4256.922852, 4265.641113, 4278.461426, 4251.794922, 3520.000000, 8166.000000, 8162.000000, 0.000000, 0.000000, 0.000000, -20990.000000, 338.461517, 4.000000, 4.000000, 4.000000, 4.000000, 4.000000, 4.000000, 4.000000, 4.000000, 1.000000, 4.000000, 4.000000, 4.000000, 4.000000, 4.000000, 4.000000, 4.000000
77.000000, 0.000000, 4270.256348, 4266.666504, 4220.512695, 4224.102539, 4215.384277, 4226.666504, 4228.717773, 4252.820313, 4203.076660, 4260.000000, 4265.127930, 4280.000000, 4288.717773, 4269.743652, 3447.000000, 8165.000000, 8162.000000, 0.000000, 0.000000, 0.000000, -20990.000000, 346.153839, 4.000000, 4.000000, 4.000000, 4.000000, 4.000000, 4.000000, 4.000000, 4.000000, 1.000000, 4.000000, 4.000000, 4.000000, 4.000000, 4.000000, 4.000000, 4.000000
78.000000, 0.000000, 4300.512695, 4283.589844, 4249.230469, 4244.102539, 4218.461426, 4230.256348, 4229.230469, 4258.974121, 4201.538574, 4264.615234, 4277.436035, 4295.897461, 4307.179199, 4289.743652, 3584.000000, 8165.000000, 8162.000000, 0.000000, 0.000000, 0.000000, -20990.000000, 354.358978, 4.000000, 4.000000, 4.000000, 4.000000, 4.000000, 4.000000, 4.000000, 4.000000, 1.000000, 4.000000, 4.000000, 4.000000, 4.000000, 4.000000, 4.000000, 4.000000
79.000000, 0.000000, 4321.025391, 4294.871582, 4263.076660, 4249.743652, 4218.461426, 4231.281738, 4220.000000, 4252.820313, 4200.000000, 4263.589844, 4283.076660, 4297.948730, 4314.871582, 4303.076660, 3548.000000, 8163.000000, 8164.000000, 0.000000, 0.000000, 0.000000, -20990.000000, 362.051270, 4.000000, 4.000000, 4.000000, 4.000000, 4.000000, 4.000000, 4.000000, 4.000000, 1.000000, 4.000000, 4.000000, 4.000000, 4.000000, 4.000000, 4.000000, 4.000000
80.000000, 0.000000, 4329.230469, 4295.897461, 4263.076660, 4247.692383, 4215.384277, 4227.692383, 4222.051270, 4244.102539, 4201.538574, 4258.974121, 4280.000000, 4296.410156, 4311.794922, 4309.230469, 3520.000000, 8163.000000, 8164.000000, 0.000000, 0.000000, 0.000000, -20990.000000, 370.256409, 4.000000, 4.000000, 4.000000, 4.000000, 4.000000, 4.000000, 4.000000, 4.000000, 1.000000, 4.000000, 4.000000, 4.000000, 4.000000, 4.000000, 4.000000, 4.000000
