title:winkLeft2, recorded:16.05.18 19.52.56, timestamp started:2018-05-12T20:28:52.032863+02:00            , sampling:128, subject:Noé, labels:COUNTER INTERPOLATED AF3 F7 F3 FC5 T7 P7 O1 O2 P8 T8 FC6 F4 F8 AF4 RAW_CQ GYROX GYROY MARKER MARKER_HARDWARE SYNC TIME_STAMP_s TIME_STAMP_ms CQ_AF3 CQ_F7 CQ_F3 CQ_FC5 CQ_T7 CQ_P7 CQ_O1 CQ_O2 CQ_P8 CQ_T8 CQ_FC6 CQ_F4 CQ_F8 CQ_AF4 CQ_CMS CQ_DRL, chan:40, samples:7098, units:emotiv
39.000000, 0.000000, 4183.076660, 4190.256348, 4188.717773, 4186.153809, 4207.179199, 4202.563965, 4204.102539, 4196.922852, 4201.538574, 4178.974121, 4168.717773, 4187.179199, 4197.436035, 4186.153809, 0.000000, 8239.000000, 8113.000000, 0.000000, 0.000000, 0.000000, 15764.000000, 961.025635, 4.000000, 4.000000, 4.000000, 4.000000, 4.000000, 4.000000, 4.000000, 4.000000, 4.000000, 4.000000, 4.000000, 4.000000, 4.000000, 4.000000, 4.000000, 4.000000
40.000000, 0.000000, 4188.717773, 4195.897461, 4190.256348, 4186.153809, 4198.461426, 4198.461426, 4201.538574, 4193.846191, 4193.846191, 4178.461426, 4175.384277, 4198.461426, 4200.000000, 4187.692383, 0.000000, 8239.000000, 8113.000000, 0.000000, 0.000000, 0.000000, 15764.000000, 968.717896, 4.000000, 4.000000, 4.000000, 4.000000, 4.000000, 4.000000, 4.000000, 4.000000, 4.000000, 4.000000, 4.000000, 4.000000, 4.000000, 4.000000, 4.000000, 4.000000
41.000000, 0.000000, 4191.794922, 4206.666504, 4193.333008, 4187.692383, 4196.922852, 4197.948730, 4190.256348, 4196.922852, 4198.974121, 4186.153809, 4182.051270, 4201.538574, 4202.051270, 4189.743652, 0.000000, 8238.000000, 8106.000000, 0.000000, 0.000000, 0.000000, 15764.000000, 976.923035, 4.000000, 4.000000, 4.000000, 4.000000, 4.000000, 4.000000, 4.000000, 4.000000, 4.000000, 4.000000, 4.000000, 4.000000, 4.000000, 4.000000, 4.000000, 4.000000
42.000000, 0.000000, 4194.871582, 4213.846191, 4194.358887, 4197.436035, 4210.769043, 4202.051270, 4186.666504, 4202.563965, 4205.641113, 4189.743652, 4186.666504, 4202.563965, 4212.820313, 4190.769043, 0.000000, 8238.000000, 8106.000000, 0.000000, 0.000000, 0.000000, 15764.000000, 984.615356, 4.000000, 4.000000, 4.000000, 4.000000, 4.000000, 4.000000, 4.000000, 4.000000, 4.000000, 4.000000, 4.000000, 4.000000, 4.000000, 4.000000, 4.000000, 4.000000
43.000000, 0.000000, 4195.897461, 4214.358887, 4196.922852, 4201.025391, 4217.436035, 4200.512695, 4193.333008, 4203.589844, 4199.487305, 4186.153809, 4187.179199, 4203.076660, 4214.358887, 4194.358887, 0.000000, 8225.000000, 8114.000000, 0.000000, 0.000000, 0.000000, 15764.000000, 992.820496, 4.000000, 4.000000, 4.000000, 4.000000, 4.000000, 4.000000, 4.000000, 4.000000, 4.000000, 4.000000, 4.000000, 4.000000, 4.000000, 4.000000, 4.000000, 4.000000
44.000000, 0.000000, 4195.384277, 4214.358887, 4194.358887, 4193.846191, 4206.666504, 4198.974121, 4191.281738, 4198.974121, 4194.871582, 4188.205078, 4186.153809, 4194.871582, 4192.820313, 4186.153809, 0.000000, 8225.000000, 8114.000000, 0.000000, 0.000000, 0.000000, 15765.000000, 0.512820, 4.000000, 4.000000, 4.000000, 4.000000, 4.000000, 4.000000, 4.000000, 4.000000, 4.000000, 4.000000, 4.000000, 4.000000, 4.000000, 4.000000, 4.000000, 4.000000
45.000000, 0.000000, 4193.333008, 4208.205078, 4185.641113, 4192.307617, 4198.461426, 4197.436035, 4186.153809, 4191.281738, 4195.384277, 4183.589844, 4180.512695, 4194.871582, 4177.436035, 4184.615234, 0.000000, 8224.000000, 8121.000000, 0.000000, 0.000000, 0.000000, 15765.000000, 8.205128, 4.000000, 4.000000, 4.000000, 4.000000, 4.000000, 4.000000, 4.000000, 4.000000, 4.000000, 4.000000, 4.000000, 4.000000, 4.000000, 4.000000, 4.000000, 4.000000
46.000000, 0.000000, 4192.820313, 4200.000000, 4185.641113, 4198.974121, 4204.102539, 4191.281738, 4190.256348, 4184.102539, 4187.692383, 4167.179199, 4175.384277, 4198.974121, 4186.666504, 4191.281738, 0.000000, 8224.000000, 8121.000000, 0.000000, 0.000000, 0.000000, 15765.000000, 15.897435, 4.000000, 4.000000, 4.000000, 4.000000, 4.000000, 4.000000, 4.000000, 4.000000, 4.000000, 4.000000, 4.000000, 4.000000, 4.000000, 4.000000, 4.000000, 4.000000
47.000000, 0.000000, 4197.948730, 4200.512695, 4194.871582, 4201.538574, 4205.127930, 4185.641113, 4185.127930, 4183.589844, 4175.897461, 4161.025391, 4177.948730, 4197.436035, 4183.589844, 4190.256348, 0.000000, 8225.000000, 8122.000000, 0.000000, 0.000000, 0.000000, 15765.000000, 24.102564, 4.000000, 4.000000, 4.000000, 4.000000, 4.000000, 4.000000, 4.000000, 4.000000, 4.000000, 4.000000, 4.000000, 4.000000, 4.000000, 4.000000, 4.000000, 4.000000
48.000000, 0.000000, 4204.102539, 4205.641113, 4198.974121, 4201.025391, 4200.000000, 4183.589844, 4172.820313, 4181.025391, 4171.281738, 4168.717773, 4181.025391, 4198.974121, 4167.179199, 4191.794922, 0.000000, 8225.000000, 8122.000000, 0.000000, 0.000000, 0.000000, 15765.000000, 31.794870, 4.000000, 4.000000, 4.000000, 4.000000, 4.000000, 4.000000, 4.000000, 4.000000, 4.000000, 4.000000, 4.000000, 4.000000, 4.000000, 4.000000, 4.000000, 4.000000
49.000000, 0.000000, 4209.230469, 4213.333008, 4193.333008, 4207.692383, 4202.563965, 4185.641113, 4176.922852, 4169.230469, 4166.666504, 4171.794922, 4177.948730, 4199.487305, 4172.820313, 4191.281738, 0.000000, 8223.000000, 8122.000000, 0.000000, 0.000000, 0.000000, 15765.000000, 40.000000, 4.000000, 4.000000, 4.000000, 4.000000, 4.000000, 4.000000, 4.000000, 4.000000, 4.000000, 4.000000, 4.000000, 4.000000, 4.000000, 4.000000, 4.000000, 4.000000
50.000000, 0.000000, 4208.205078, 4212.820313, 4189.230469, 4212.820313, 4203.589844, 4183.076660, 4178.974121, 4160.000000, 4158.974121, 4161.025391, 4170.256348, 4198.974121, 4180.512695, 4188.205078, 0.000000, 8223.000000, 8122.000000, 0.000000, 0.000000, 0.000000, 15765.000000, 47.692307, 4.000000, 4.000000, 4.000000, 4.000000, 4.000000, 4.000000, 4.000000, 4.000000, 4.000000, 4.000000, 4.000000, 4.000000, 4.000000, 4.000000, 4.000000, 4.000000
51.000000, 0.000000, 4205.127930, 4209.743652, 4188.717773, 4212.820313, 4191.281738, 4173.846191, 4161.538574, 4160.000000, 4156.410156, 4156.922852, 4167.692383, 4193.333008, 4173.846191, 4186.666504, 0.000000, 8219.000000, 8123.000000, 0.000000, 0.000000, 0.000000, 15765.000000, 55.384613, 4.000000, 4.000000, 4.000000, 4.000000, 4.000000, 4.000000, 4.000000, 4.000000, 4.000000, 4.000000, 4.000000, 4.000000, 4.000000, 4.000000, 4.000000, 4.000000
52.000000, 0.000000, 4206.666504, 4202.563965, 4188.717773, 4210.769043, 4183.076660, 4168.717773, 4154.358887, 4160.512695, 4154.871582, 4156.410156, 4168.205078, 4190.769043, 4171.281738, 4185.127930, 0.000000, 8219.000000, 8123.000000, 0.000000, 0.000000, 0.000000, 15765.000000, 63.589741, 4.000000, 4.000000, 4.000000, 4.000000, 4.000000, 4.000000, 4.000000, 4.000000, 4.000000, 4.000000, 4.000000, 4.000000, 4.000000, 4.000000, 4.000000, 4.000000
53.000000, 0.000000, 4207.692383, 4195.384277, 4192.820313, 4208.717773, 4195.897461, 4172.307617, 4170.256348, 4165.127930, 4159.487305, 4154.358887, 4171.281738, 4198.974121, 4183.589844, 4191.794922, 0.000000, 8212.000000, 8128.000000, 0.000000, 0.000000, 0.000000, 15765.000000, 71.282051, 4.000000, 4.000000, 4.000000, 4.000000, 4.000000, 4.000000, 4.000000, 4.000000, 4.000000, 4.000000, 4.000000, 4.000000, 4.000000, 4.000000, 4.000000, 4.000000
54.000000, 0.000000, 4210.256348, 4208.717773, 4194.871582, 4210.769043, 4211.794922, 4176.410156, 4172.307617, 4178.974121, 4171.281738, 4161.025391, 4180.512695, 4201.025391, 4195.897461, 4190.769043, 0.000000, 8212.000000, 8128.000000, 0.000000, 0.000000, 0.000000, 15765.000000, 78.974358, 4.000000, 4.000000, 4.000000, 4.000000, 4.000000, 4.000000, 4.000000, 4.000000, 4.000000, 4.000000, 4.000000, 4.000000, 4.000000, 4.000000, 4.000000, 4.000000
55.000000, 0.000000, 4216.410156, 4226.153809, 4193.846191, 4216.410156, 4211.794922, 4178.974121, 4168.205078, 4184.102539, 4171.794922, 4169.743652, 4186.666504, 4204.102539, 4197.948730, 4190.769043, 0.000000, 8213.000000, 8127.000000, 0.000000, 0.000000, 0.000000, 15765.000000, 87.179482, 4.000000, 4.000000, 4.000000, 4.000000, 4.000000, 4.000000, 4.000000, 4.000000, 4.000000, 4.000000, 4.000000, 4.000000, 4.000000, 4.000000, 4.000000, 4.000000
56.000000, 0.000000, 4221.538574, 4225.127930, 4196.410156, 4218.461426, 4208.205078, 4184.615234, 4184.102539, 4185.127930, 4173.333008, 4173.846191, 4187.692383, 4208.717773, 4193.333008, 4195.384277, 0.000000, 8213.000000, 8127.000000, 0.000000, 0.000000, 0.000000, 15765.000000, 94.871796, 4.000000, 4.000000, 4.000000, 4.000000, 4.000000, 4.000000, 4.000000, 4.000000, 4.000000, 4.000000, 4.000000, 4.000000, 4.000000, 4.000000, 4.000000, 4.000000
57.000000, 0.000000, 4218.461426, 4215.897461, 4194.358887, 4211.281738, 4204.102539, 4187.179199, 4187.692383, 4188.717773, 4176.922852, 4172.307617, 4185.127930, 4205.127930, 4185.127930, 4187.692383, 0.000000, 8203.000000, 8123.000000, 0.000000, 0.000000, 0.000000, 15765.000000, 102.564102, 4.000000, 4.000000, 4.000000, 4.000000, 4.000000, 4.000000, 4.000000, 4.000000, 4.000000, 4.000000, 4.000000, 4.000000, 4.000000, 4.000000, 4.000000, 4.000000
58.000000, 0.000000, 4211.281738, 4214.358887, 4187.692383, 4201.025391, 4200.512695, 4181.538574, 4172.307617, 4177.436035, 4169.743652, 4167.692383, 4180.512695, 4204.102539, 4185.127930, 4183.076660, 0.000000, 8203.000000, 8123.000000, 0.000000, 0.000000, 0.000000, 15765.000000, 110.769226, 4.000000, 4.000000, 4.000000, 4.000000, 4.000000, 4.000000, 4.000000, 4.000000, 4.000000, 4.000000, 4.000000, 4.000000, 4.000000, 4.000000, 4.000000, 4.000000
59.000000, 0.000000, 4213.846191, 4215.384277, 4188.717773, 4202.051270, 4204.102539, 4175.897461, 4172.820313, 4169.743652, 4168.205078, 4168.717773, 4179.487305, 4202.051270, 4194.358887, 4187.179199, 0.000000, 8206.000000, 8114.000000, 0.000000, 0.000000, 0.000000, 15765.000000, 118.461533, 4.000000, 4.000000, 4.000000, 4.000000, 4.000000, 4.000000, 4.000000, 4.000000, 4.000000, 4.000000, 4.000000, 4.000000, 4.000000, 4.000000, 4.000000, 4.000000
60.000000, 0.000000, 4219.487305, 4219.487305, 4194.358887, 4206.153809, 4200.512695, 4177.436035, 4178.461426, 4181.538574, 4173.846191, 4180.000000, 4183.076660, 4204.615234, 4200.000000, 4192.307617, 0.000000, 8206.000000, 8114.000000, 0.000000, 0.000000, 0.000000, 15765.000000, 126.666664, 4.000000, 4.000000, 4.000000, 4.000000, 4.000000, 4.000000, 4.000000, 4.000000, 4.000000, 4.000000, 4.000000, 4.000000, 4.000000, 4.000000, 4.000000, 4.000000
61.000000, 0.000000, 4212.307617, 4225.127930, 4191.281738, 4200.512695, 4197.948730, 4184.102539, 4176.410156, 4184.102539, 4169.743652, 4184.102539, 4181.025391, 4205.127930, 4199.487305, 4192.820313, 0.000000, 8218.000000, 8114.000000, 0.000000, 0.000000, 0.000000, 15765.000000, 134.358978, 4.000000, 4.000000, 4.000000, 4.000000, 4.000000, 4.000000, 4.000000, 4.000000, 4.000000, 4.000000, 4.000000, 4.000000, 4.000000, 4.000000, 4.000000, 4.000000
62.000000, 0.000000, 4211.281738, 4219.487305, 4188.717773, 4198.974121, 4210.769043, 4185.641113, 4177.948730, 4173.846191, 4168.717773, 4175.897461, 4182.563965, 4205.641113, 4199.487305, 4190.256348, 0.000000, 8218.000000, 8114.000000, 0.000000, 0.000000, 0.000000, 15765.000000, 142.051285, 4.000000, 4.000000, 4.000000, 4.000000, 4.000000, 4.000000, 4.000000, 4.000000, 4.000000, 4.000000, 4.000000, 4.000000, 4.000000, 4.000000, 4.000000, 4.000000
63.000000, 0.000000, 4221.538574, 4213.333008, 4197.948730, 4208.717773, 4222.563965, 4185.127930, 4174.358887, 4173.846191, 4171.794922, 4178.974121, 4195.897461, 4215.897461, 4204.615234, 4198.974121, 0.000000, 8217.000000, 8115.000000, 0.000000, 0.000000, 0.000000, 15765.000000, 150.256409, 4.000000, 4.000000, 4.000000, 4.000000, 4.000000, 4.000000, 4.000000, 4.000000, 4.000000, 4.000000, 4.000000, 4.000000, 4.000000, 4.000000, 4.000000, 4.000000
64.000000, 0.000000, 4220.512695, 4216.922852, 4198.974121, 4208.205078, 4214.358887, 4184.615234, 4164.615234, 4174.358887, 4165.641113, 4190.256348, 4198.461426, 4215.384277, 4208.205078, 4196.922852, 3249.000000, 8217.000000, 8115.000000, 0.000000, 0.000000, 0.000000, 15765.000000, 157.948715, 4.000000, 4.000000, 4.000000, 4.000000, 4.000000, 4.000000, 4.000000, 4.000000, 4.000000, 4.000000, 4.000000, 4.000000, 4.000000, 4.000000, 4.000000, 4.000000
65.000000, 0.000000, 4213.333008, 4217.436035, 4190.769043, 4197.948730, 4202.563965, 4178.974121, 4168.717773, 4169.230469, 4163.076660, 4189.230469, 4187.692383, 4212.820313, 4199.487305, 4187.692383, 3538.000000, 8224.000000, 8108.000000, 0.000000, 0.000000, 0.000000, 15765.000000, 165.641022, 4.000000, 4.000000, 4.000000, 4.000000, 4.000000, 4.000000, 4.000000, 4.000000, 4.000000, 4.000000, 4.000000, 4.000000, 4.000000, 4.000000, 4.000000, 4.000000
66.000000, 0.000000, 4209.743652, 4210.256348, 4188.205078, 4192.307617, 4199.487305, 4170.256348, 4171.794922, 4164.615234, 4162.563965, 4176.410156, 4181.538574, 4213.846191, 4185.641113, 4189.230469, 2899.000000, 8224.000000, 8108.000000, 0.000000, 0.000000, 0.000000, 15765.000000, 173.333328, 4.000000, 4.000000, 4.000000, 4.000000, 4.000000, 4.000000, 4.000000, 4.000000, 4.000000, 4.000000, 4.000000, 4.000000, 4.000000, 4.000000, 4.000000, 4.000000
67.000000, 0.000000, 4210.769043, 4215.384277, 4190.256348, 4193.333008, 4201.025391, 4170.256348, 4164.102539, 4166.666504, 4163.589844, 4180.000000, 4188.717773, 4211.281738, 4189.743652, 4191.281738, 3551.000000, 8232.000000, 8106.000000, 0.000000, 0.000000, 0.000000, 15765.000000, 181.538452, 4.000000, 4.000000, 4.000000, 4.000000, 4.000000, 4.000000, 4.000000, 4.000000, 4.000000, 4.000000, 4.000000, 4.000000, 4.000000, 4.000000, 4.000000, 4.000000
68.000000, 0.000000, 4216.922852, 4226.153809, 4195.384277, 4200.000000, 4208.205078, 4177.436035, 4163.076660, 4177.948730, 4172.307617, 4195.897461, 4201.025391, 4214.871582, 4205.127930, 4197.436035, 3514.000000, 8232.000000, 8106.000000, 0.000000, 0.000000, 0.000000, 15765.000000, 189.230759, 4.000000, 4.000000, 4.000000, 4.000000, 4.000000, 4.000000, 4.000000, 4.000000, 4.000000, 4.000000, 4.000000, 4.000000, 4.000000, 4.000000, 4.000000, 4.000000
69.000000, 0.000000, 4215.384277, 4220.000000, 4194.358887, 4205.127930, 4204.102539, 4177.948730, 4166.666504, 4184.102539, 4172.820313, 4195.384277, 4198.461426, 4210.769043, 4204.615234, 4192.820313, 3528.000000, 8232.000000, 8115.000000, 0.000000, 0.000000, 0.000000, 15765.000000, 197.435898, 4.000000, 4.000000, 4.000000, 4.000000, 4.000000, 4.000000, 4.000000, 4.000000, 4.000000, 4.000000, 4.000000, 4.000000, 4.000000, 4.000000, 4.000000, 4.000000
70.000000, 0.000000, 4213.333008, 4214.871582, 4191.281738, 4202.051270, 4183.589844, 4177.436035, 4177.436035, 4176.410156, 4163.589844, 4189.230469, 4188.205078, 4204.615234, 4196.922852, 4187.692383, 3406.000000, 8232.000000, 8115.000000, 0.000000, 0.000000, 0.000000, 15765.000000, 205.128204, 4.000000, 4.000000, 4.000000, 4.000000, 4.000000, 4.000000, 4.000000, 4.000000, 4.000000, 4.000000, 4.000000, 4.000000, 4.000000, 4.000000, 4.000000, 4.000000
71.000000, 0.000000, 4217.948730, 4226.153809, 4193.846191, 4201.025391, 4181.025391, 4183.076660, 4183.076660, 4175.384277, 4163.589844, 4194.358887, 4188.717773, 4207.692383, 4200.000000, 4197.436035, 3190.000000, 8231.000000, 8114.000000, 0.000000, 0.000000, 0.000000, 15765.000000, 213.333328, 4.000000, 4.000000, 4.000000, 4.000000, 4.000000, 4.000000, 4.000000, 4.000000, 4.000000, 4.000000, 4.000000, 4.000000, 4.000000, 4.000000, 4.000000, 4.000000
72.000000, 0.000000, 4227.179199, 4235.897461, 4196.410156, 4205.641113, 4206.666504, 4187.179199, 4171.794922, 4187.179199, 4172.820313, 4202.051270, 4201.025391, 4210.256348, 4212.307617, 4198.974121, 3527.000000, 8231.000000, 8114.000000, 0.000000, 0.000000, 0.000000, 15765.000000, 221.025635, 4.000000, 4.000000, 4.000000, 4.000000, 4.000000, 4.000000, 4.000000, 4.000000, 4.000000, 4.000000, 4.000000, 4.000000, 4.000000, 4.000000, 4.000000, 4.000000
73.000000, 0.000000, 4226.153809, 4230.769043, 4191.794922, 4206.153809, 4221.025391, 4179.487305, 4164.102539, 4184.615234, 4173.333008, 4198.974121, 4200.512695, 4209.743652, 4213.846191, 4192.820313, 3523.000000, 8241.000000, 8113.000000, 0.000000, 0.000000, 0.000000, 15765.000000, 228.717941, 4.000000, 4.000000, 4.000000, 4.000000, 4.000000, 4.000000, 4.000000, 4.000000, 4.000000, 4.000000, 4.000000, 4.000000, 4.000000, 4.000000, 4.000000, 4.000000
74.000000, 0.000000, 4216.410156, 4228.205078, 4184.615234, 4199.487305, 4212.307617, 4172.820313, 4173.846191, 4170.769043, 4163.589844, 4189.743652, 4186.153809, 4203.589844, 4202.051270, 4189.230469, 3177.000000, 8241.000000, 8113.000000, 0.000000, 0.000000, 0.000000, 15765.000000, 236.410248, 4.000000, 4.000000, 4.000000, 4.000000, 4.000000, 4.000000, 4.000000, 4.000000, 4.000000, 4.000000, 4.000000, 4.000000, 4.000000, 4.000000, 4.000000, 4.000000
75.000000, 0.000000, 4214.871582, 4237.436035, 4186.153809, 4193.333008, 4219.487305, 4181.025391, 4178.974121, 4167.179199, 4158.974121, 4190.256348, 4184.102539, 4205.641113, 4197.436035, 4188.717773, 2328.000000, 8251.000000, 8110.000000, 0.000000, 0.000000, 0.000000, 15765.000000, 244.615372, 4.000000, 4.000000, 4.000000, 4.000000, 4.000000, 4.000000, 4.000000, 4.000000, 4.000000, 4.000000, 4.000000, 4.000000, 4.000000, 4.000000, 4.000000, 4.000000
76.000000, 0.000000, 4216.922852, 4246.153809, 4191.794922, 4192.820313, 4233.846191, 4183.589844, 4170.256348, 4168.717773, 4161.025391, 4198.974121, 4192.820313, 4214.871582, 4207.692383, 4194.871582, 3471.000000, 8251.000000, 8110.000000, 0.000000, 0.000000, 0.000000, 15765.000000, 252.307693, 4.000000, 4.000000, 4.000000, 4.000000, 4.000000, 4.000000, 4.000000, 4.000000, 4.000000, 4.000000, 4.000000, 4.000000, 4.000000, 4.000000, 4.000000, 4.000000
77.000000, 0.000000, 4211.794922, 4248.205078, 4184.102539, 4193.846191, 4220.512695, 4173.846191, 4170.769043, 4169.743652, 4163.076660, 4198.461426, 4190.256348, 4204.615234, 4206.666504, 4190.256348, 2435.000000, 8245.000000, 8117.000000, 0.000000, 0.000000, 0.000000, 15765.000000, 260.512817, 4.000000, 4.000000, 4.000000, 4.000000, 4.000000, 4.000000, 4.000000, 4.000000, 4.000000, 4.000000, 4.000000, 4.000000, 4.000000, 4.000000, 4.000000, 4.000000
78.000000, 0.000000, 4200.000000, 4249.230469, 4174.871582, 4181.538574, 4207.179199, 4173.846191, 4182.563965, 4176.410156, 4165.641113, 4190.769043, 4184.102539, 4195.384277, 4200.512695, 4185.641113, 3177.000000, 8245.000000, 8117.000000, 0.000000, 0.000000, 0.000000, 15765.000000, 268.205109, 4.000000, 4.000000, 4.000000, 4.000000, 4.000000, 4.000000, 4.000000, 4.000000, 4.000000, 4.000000, 4.000000, 4.000000, 4.000000, 4.000000, 4.000000, 4.000000
79.000000, 0.000000, 4202.051270, 4258.974121, 4182.563965, 4170.769043, 4234.358887, 4189.743652, 4188.717773, 4188.205078, 4173.846191, 4202.051270, 4195.384277, 4204.615234, 4207.179199, 4191.281738, 2328.000000, 8244.000000, 8116.000000, 0.000000, 0.000000, 0.000000, 15765.000000, 275.897430, 4.000000, 4.000000, 4.000000, 4.000000, 4.000000, 4.000000, 4.000000, 4.000000, 4.000000, 4.000000, 4.000000, 4.000000, 4.000000, 4.000000, 4.000000, 4.000000
80.000000, 0.000000, 4213.846191, 4269.743652, 4193.333008, 4178.461426, 4263.589844, 4194.358887, 4183.589844, 4185.127930, 4176.410156, 4211.794922, 4199.487305, 4214.358887, 4206.153809, 4195.897461, 3471.000000, 8244.000000, 8116.000000, 0.000000, 0.000000, 0.000000, 15765.000000, 283.589722, 4.000000, 4.000000, 4.000000, 4.000000, 4.000000, 4.000000, 4.000000, 4.000000, 4.000000, 4.000000, 4.000000, 4.000000, 4.000000, 4.000000, 4.000000, 4.000000
81.000000, 0.000000, 4209.230469, 4267.692383, 4187.179199, 4181.025391, 4261.025391, 4187.692383, 4180.512695, 4174.871582, 4164.102539, 4194.871582, 4184.615234, 4209.743652, 4197.436035, 4194.871582, 2435.000000, 8232.000000, 8118.000000, 0.000000, 0.000000, 0.000000, 15765.000000, 291.794861, 4.000000, 4.000000, 4.000000, 4.000000, 4.000000, 4.000000, 4.000000, 4.000000, 4.000000, 4.000000, 4.000000, 4.000000, 4.000000, 4.000000, 4.000000, 4.000000
82.000000, 0.000000, 4204.615234, 4267.692383, 4180.000000, 4180.000000, 4262.051270, 4188.205078, 4185.127930, 4176.922852, 4163.076660, 4186.666504, 4182.051270, 4201.538574, 4199.487305, 4187.692383, 3177.000000, 8232.000000, 8118.000000, 0.000000, 0.000000, 0.000000, 15765.000000, 299.487183, 4.000000, 4.000000, 4.000000, 4.000000, 4.000000, 4.000000, 4.000000, 4.000000, 4.000000, 4.000000, 4.000000, 4.000000, 4.000000, 4.000000, 4.000000, 4.000000
83.000000, 0.000000, 4207.692383, 4276.922852, 4183.076660, 4183.076660, 4271.794922, 4189.230469, 4185.641113, 4180.512695, 4167.179199, 4197.436035, 4186.153809, 4206.666504, 4205.127930, 4188.717773, 2328.000000, 8226.000000, 8122.000000, 0.000000, 0.000000, 0.000000, 15765.000000, 307.692291, 4.000000, 4.000000, 4.000000, 4.000000, 4.000000, 4.000000, 4.000000, 4.000000, 4.000000, 4.000000, 4.000000, 4.000000, 4.000000, 4.000000, 4.000000, 4.000000
84.000000, 0.000000, 4203.589844, 4280.512695, 4181.538574, 4177.948730, 4265.127930, 4184.102539, 4173.333008, 4169.743652, 4157.436035, 4198.974121, 4180.512695, 4205.127930, 4200.512695, 4191.794922, 3471.000000, 8226.000000, 8122.000000, 0.000000, 0.000000, 0.000000, 15765.000000, 315.384613, 4.000000, 4.000000, 4.000000, 4.000000, 4.000000, 4.000000, 4.000000, 4.000000, 4.000000, 4.000000, 4.000000, 4.000000, 4.000000, 4.000000, 4.000000, 4.000000
85.000000, 0.000000, 4201.538574, 4275.384277, 4173.846191, 4168.205078, 4264.615234, 4186.153809, 4167.179199, 4164.615234, 4151.281738, 4191.794922, 4176.922852, 4198.974121, 4195.897461, 4186.666504, 2435.000000, 8225.000000, 8131.000000, 0.000000, 0.000000, 0.000000, 15765.000000, 323.076904, 4.000000, 4.000000, 4.000000, 4.000000, 4.000000, 4.000000, 4.000000, 4.000000, 4.000000, 4.000000, 4.000000, 4.000000, 4.000000, 4.000000, 4.000000, 4.000000
86.000000, 0.000000, 4206.666504, 4285.127930, 4181.538574, 4176.922852, 4287.179199, 4196.922852, 4181.025391, 4175.897461, 4162.563965, 4196.922852, 4182.563965, 4209.743652, 4206.666504, 4196.922852, 3177.000000, 8225.000000, 8131.000000, 0.000000, 0.000000, 0.000000, 15765.000000, 330.769226, 4.000000, 4.000000, 4.000000, 4.000000, 4.000000, 4.000000, 4.000000, 4.000000, 4.000000, 4.000000, 4.000000, 4.000000, 4.000000, 4.000000, 4.000000, 4.000000
87.000000, 0.000000, 4212.307617, 4305.127930, 4189.743652, 4191.794922, 4290.256348, 4197.948730, 4192.820313, 4187.179199, 4172.820313, 4209.230469, 4190.769043, 4216.410156, 4215.897461, 4204.615234, 2328.000000, 8216.000000, 8138.000000, 0.000000, 0.000000, 0.000000, 15765.000000, 338.974365, 4.000000, 4.000000, 4.000000, 4.000000, 4.000000, 4.000000, 4.000000, 4.000000, 4.000000, 4.000000, 4.000000, 4.000000, 4.000000, 4.000000, 4.000000, 4.000000
88.000000, 0.000000, 4209.743652, 4297.948730, 4181.538574, 4182.051270, 4263.589844, 4186.153809, 4182.563965, 4186.666504, 4168.205078, 4206.666504, 4185.127930, 4211.281738, 4207.179199, 4192.820313, 3471.000000, 8216.000000, 8138.000000, 0.000000, 0.000000, 0.000000, 15765.000000, 346.666656, 4.000000, 4.000000, 4.000000, 4.000000, 4.000000, 4.000000, 4.000000, 4.000000, 4.000000, 4.000000, 4.000000, 4.000000, 4.000000, 4.000000, 4.000000, 4.000000
89.000000, 0.000000, 4201.538574, 4290.256348, 4177.948730, 4173.846191, 4266.666504, 4181.538574, 4173.846191, 4178.461426, 4161.025391, 4194.871582, 4172.820313, 4204.102539, 4198.974121, 4185.641113, 2435.000000, 8215.000000, 8141.000000, 0.000000, 0.000000, 0.000000, 15765.000000, 354.871796, 4.000000, 4.000000, 4.000000, 4.000000, 4.000000, 4.000000, 4.000000, 4.000000, 4.000000, 4.000000, 4.000000, 4.000000, 4.000000, 4.000000, 4.000000, 4.000000
90.000000, 0.000000, 4200.000000, 4314.358887, 4180.000000, 4183.589844, 4297.436035, 4186.153809, 4180.000000, 4177.948730, 4162.563965, 4193.846191, 4175.384277, 4205.641113, 4202.563965, 4191.281738, 3177.000000, 8215.000000, 8141.000000, 0.000000, 0.000000, 0.000000, 15765.000000, 362.564087, 4.000000, 4.000000, 4.000000, 4.000000, 4.000000, 4.000000, 4.000000, 4.000000, 4.000000, 4.000000, 4.000000, 4.000000, 4.000000, 4.000000, 4.000000, 4.000000
91.000000, 0.000000, 4201.538574, 4329.230469, 4179.487305, 4188.205078, 4301.025391, 4191.281738, 4186.153809, 4184.615234, 4167.179199, 4200.512695, 4182.051270, 4211.281738, 4209.230469, 4198.461426, 2328.000000, 8207.000000, 8146.000000, 0.000000, 0.000000, 0.000000, 15765.000000, 370.256409, 4.000000, 4.000000, 4.000000, 4.000000, 4.000000, 4.000000, 4.000000, 4.000000, 4.000000, 4.000000, 4.000000, 4.000000, 4.000000, 4.000000, 4.000000, 4.000000
92.000000, 0.000000, 4201.538574, 4322.563965, 4179.487305, 4182.563965, 4291.794922, 4198.461426, 4184.102539, 4187.179199, 4168.717773, 4206.666504, 4183.076660, 4207.179199, 4214.358887, 4191.281738, 3471.000000, 8207.000000, 8146.000000, 0.000000, 0.000000, 0.000000, 15765.000000, 377.948700, 4.000000, 4.000000, 4.000000, 4.000000, 4.000000, 4.000000, 4.000000, 4.000000, 4.000000, 4.000000, 4.000000, 4.000000, 4.000000, 4.000000, 4.000000, 4.000000
93.000000, 0.000000, 4200.000000, 4324.102539, 4182.051270, 4185.641113, 4297.436035, 4196.922852, 4177.948730, 4181.538574, 4163.589844, 4205.127930, 4182.563965, 4205.641113, 4215.384277, 4188.717773, 2435.000000, 8206.000000, 8149.000000, 0.000000, 0.000000, 0.000000, 15765.000000, 386.153839, 4.000000, 4.000000, 4.000000, 4.000000, 4.000000, 4.000000, 4.000000, 4.000000, 4.000000, 4.000000, 4.000000, 4.000000, 4.000000, 4.000000, 4.000000, 4.000000
94.000000, 0.000000, 4195.384277, 4326.666504, 4180.512695, 4188.717773, 4296.922852, 4188.205078, 4180.512695, 4174.871582, 4157.948730, 4202.051270, 4179.487305, 4205.127930, 4211.281738, 4192.820313, 3177.000000, 8206.000000, 8149.000000, 0.000000, 0.000000, 0.000000, 15765.000000, 393.846130, 4.000000, 4.000000, 4.000000, 4.000000, 4.000000, 4.000000, 4.000000, 4.000000, 4.000000, 4.000000, 4.000000, 4.000000, 4.000000, 4.000000, 4.000000, 4.000000
95.000000, 0.000000, 4191.281738, 4315.897461, 4173.846191, 4174.871582, 4277.436035, 4186.153809, 4181.538574, 4173.333008, 4154.358887, 4199.487305, 4176.410156, 4201.538574, 4212.820313, 4187.179199, 2328.000000, 8208.000000, 8146.000000, 0.000000, 0.000000, 0.000000, 15765.000000, 402.051270, 4.000000, 4.000000, 4.000000, 4.000000, 4.000000, 4.000000, 4.000000, 4.000000, 4.000000, 4.000000, 4.000000, 4.000000, 4.000000, 4.000000, 4.000000, 4.000000
96.000000, 0.000000, 4192.307617, 4315.384277, 4174.871582, 4169.230469, 4268.205078, 4181.538574, 4174.871582, 4169.743652, 4150.256348, 4195.897461, 4180.512695, 4205.127930, 4218.461426, 4190.769043, 3471.000000, 8208.000000, 8146.000000, 0.000000, 0.000000, 0.000000, 15765.000000, 409.743591, 4.000000, 4.000000, 4.000000, 4.000000, 4.000000, 4.000000, 4.000000, 4.000000, 4.000000, 4.000000, 4.000000, 4.000000, 4.000000, 4.000000, 4.000000, 4.000000
97.000000, 0.000000, 4197.436035, 4330.256348, 4180.000000, 4181.538574, 4284.102539, 4173.333008, 4170.769043, 4166.666504, 4150.769043, 4201.025391, 4184.615234, 4204.615234, 4218.461426, 4194.358887, 2435.000000, 8209.000000, 8145.000000, 0.000000, 0.000000, 0.000000, 15765.000000, 417.948700, 4.000000, 4.000000, 4.000000, 4.000000, 4.000000, 4.000000, 4.000000, 4.000000, 4.000000, 4.000000, 4.000000, 4.000000, 4.000000, 4.000000, 4.000000, 4.000000
98.000000, 0.000000, 4201.538574, 4336.922852, 4185.127930, 4186.666504, 4301.025391, 4177.436035, 4173.846191, 4171.281738, 4158.974121, 4209.743652, 4187.179199, 4211.281738, 4222.563965, 4195.897461, 3177.000000, 8209.000000, 8145.000000, 0.000000, 0.000000, 0.000000, 15765.000000, 425.641022, 4.000000, 4.000000, 4.000000, 4.000000, 4.000000, 4.000000, 4.000000, 4.000000, 4.000000, 4.000000, 4.000000, 4.000000, 4.000000, 4.000000, 4.000000, 4.000000
99.000000, 0.000000, 4204.615234, 4337.436035, 4190.769043, 4184.102539, 4299.487305, 4186.153809, 4178.974121, 4182.563965, 4171.281738, 4215.897461, 4195.897461, 4224.102539, 4233.333008, 4202.563965, 2328.000000, 8211.000000, 8149.000000, 0.000000, 0.000000, 0.000000, 15765.000000, 433.333313, 4.000000, 4.000000, 4.000000, 4.000000, 4.000000, 4.000000, 4.000000, 4.000000, 4.000000, 4.000000, 4.000000, 4.000000, 4.000000, 4.000000, 4.000000, 4.000000
100.000000, 0.000000, 4213.333008, 4342.563965, 4192.307617, 4187.692383, 4295.897461, 4190.256348, 4183.076660, 4187.692383, 4181.025391, 4224.615234, 4206.153809, 4226.153809, 4243.589844, 4201.025391, 3471.000000, 8211.000000, 8149.000000, 0.000000, 0.000000, 0.000000, 15765.000000, 441.538452, 4.000000, 4.000000, 4.000000, 4.000000, 4.000000, 4.000000, 4.000000, 4.000000, 4.000000, 4.000000, 4.000000, 4.000000, 4.000000, 4.000000, 4.000000, 4.000000
101.000000, 0.000000, 4215.384277, 4343.076660, 4194.871582, 4188.717773, 4295.897461, 4195.384277, 4186.666504, 4186.153809, 4181.538574, 4233.846191, 4213.333008, 4230.256348, 4249.743652, 4200.512695, 2435.000000, 8209.000000, 8153.000000, 0.000000, 0.000000, 0.000000, 15765.000000, 449.230743, 4.000000, 4.000000, 4.000000, 4.000000, 4.000000, 4.000000, 4.000000, 4.000000, 4.000000, 4.000000, 4.000000, 4.000000, 4.000000, 4.000000, 4.000000, 4.000000
102.000000, 0.000000, 4210.256348, 4333.333008, 4192.820313, 4184.615234, 4295.384277, 4196.410156, 4184.615234, 4187.179199, 4183.076660, 4235.897461, 4211.281738, 4225.641113, 4247.692383, 4198.461426, 3177.000000, 8209.000000, 8153.000000, 0.000000, 0.000000, 0.000000, 15765.000000, 456.923065, 4.000000, 4.000000, 4.000000, 4.000000, 4.000000, 4.000000, 4.000000, 4.000000, 4.000000, 4.000000, 4.000000, 4.000000, 4.000000, 4.000000, 4.000000, 4.000000
103.000000, 0.000000, 4210.769043, 4336.922852, 4188.717773, 4187.692383, 4297.948730, 4195.897461, 4185.641113, 4190.256348, 4188.205078, 4231.281738, 4200.512695, 4214.358887, 4233.333008, 4193.846191, 2328.000000, 8210.000000, 8149.000000, 0.000000, 0.000000, 0.000000, 15765.000000, 465.128204, 4.000000, 4.000000, 4.000000, 4.000000, 4.000000, 4.000000, 4.000000, 4.000000, 4.000000, 4.000000, 4.000000, 4.000000, 4.000000, 4.000000, 4.000000, 4.000000
104.000000, 0.000000, 4209.743652, 4347.692383, 4184.102539, 4187.692383, 4286.666504, 4194.871582, 4187.692383, 4188.205078, 4183.589844, 4227.692383, 4194.871582, 4211.281738, 4227.179199, 4194.871582, 3471.000000, 8210.000000, 8149.000000, 0.000000, 0.000000, 0.000000, 15765.000000, 472.820496, 4.000000, 4.000000, 4.000000, 4.000000, 4.000000, 4.000000, 4.000000, 4.000000, 4.000000, 4.000000, 4.000000, 4.000000, 4.000000, 4.000000, 4.000000, 4.000000
105.000000, 0.000000, 4205.127930, 4344.102539, 4181.025391, 4184.615234, 4276.922852, 4192.307617, 4185.127930, 4183.589844, 4174.358887, 4229.743652, 4198.461426, 4209.743652, 4240.000000, 4190.769043, 2435.000000, 8203.000000, 8146.000000, 0.000000, 0.000000, 0.000000, 15765.000000, 481.025635, 4.000000, 4.000000, 4.000000, 4.000000, 4.000000, 4.000000, 4.000000, 4.000000, 4.000000, 4.000000, 4.000000, 4.000000, 4.000000, 4.000000, 4.000000, 4.000000
106.000000, 0.000000, 4206.153809, 4333.333008, 4187.179199, 4190.256348, 4295.384277, 4191.794922, 4185.641113, 4184.615234, 4179.487305, 4230.256348, 4201.538574, 4213.846191, 4249.230469, 4191.281738, 3177.000000, 8203.000000, 8146.000000, 0.000000, 0.000000, 0.000000, 15765.000000, 488.717926, 4.000000, 4.000000, 4.000000, 4.000000, 4.000000, 4.000000, 4.000000, 4.000000, 4.000000, 4.000000, 4.000000, 4.000000, 4.000000, 4.000000, 4.000000, 4.000000
107.000000, 0.000000, 4207.179199, 4337.436035, 4190.769043, 4195.897461, 4308.717773, 4193.333008, 4187.179199, 4188.717773, 4184.102539, 4223.076660, 4203.076660, 4213.333008, 4247.692383, 4195.384277, 2328.000000, 8202.000000, 8142.000000, 0.000000, 0.000000, 0.000000, 15765.000000, 496.923065, 4.000000, 4.000000, 4.000000, 4.000000, 4.000000, 4.000000, 4.000000, 4.000000, 4.000000, 4.000000, 4.000000, 4.000000, 4.000000, 4.000000, 4.000000, 4.000000
108.000000, 0.000000, 4207.179199, 4350.769043, 4187.179199, 4198.974121, 4299.487305, 4195.897461, 4186.153809, 4184.102539, 4173.846191, 4220.000000, 4203.589844, 4211.794922, 4249.743652, 4193.333008, 3471.000000, 8202.000000, 8142.000000, 0.000000, 0.000000, 0.000000, 15765.000000, 504.615387, 4.000000, 4.000000, 4.000000, 4.000000, 4.000000, 4.000000, 4.000000, 4.000000, 4.000000, 4.000000, 4.000000, 4.000000, 4.000000, 4.000000, 4.000000, 4.000000
109.000000, 0.000000, 4206.666504, 4350.769043, 4182.563965, 4196.922852, 4292.307617, 4196.922852, 4183.076660, 4174.358887, 4168.205078, 4223.076660, 4203.076660, 4211.281738, 4251.794922, 4191.794922, 2435.000000, 8201.000000, 8137.000000, 0.000000, 0.000000, 0.000000, 15765.000000, 512.307678, 4.000000, 4.000000, 4.000000, 4.000000, 4.000000, 4.000000, 4.000000, 4.000000, 4.000000, 4.000000, 4.000000, 4.000000, 4.000000, 4.000000, 4.000000, 4.000000
110.000000, 0.000000, 4203.076660, 4343.076660, 4180.512695, 4187.179199, 4288.717773, 4192.820313, 4182.051270, 4171.281738, 4172.307617, 4221.538574, 4201.538574, 4204.615234, 4248.717773, 4189.230469, 3177.000000, 8201.000000, 8137.000000, 0.000000, 0.000000, 0.000000, 15765.000000, 520.000000, 4.000000, 4.000000, 4.000000, 4.000000, 4.000000, 4.000000, 4.000000, 4.000000, 4.000000, 4.000000, 4.000000, 4.000000, 4.000000, 4.000000, 4.000000, 4.000000
111.000000, 0.000000, 4198.974121, 4345.127930, 4185.127930, 4188.717773, 4277.436035, 4185.641113, 4182.051270, 4171.281738, 4168.205078, 4216.410156, 4200.000000, 4206.666504, 4247.179199, 4192.307617, 2328.000000, 8207.000000, 8130.000000, 0.000000, 0.000000, 0.000000, 15765.000000, 528.205139, 4.000000, 4.000000, 4.000000, 4.000000, 4.000000, 4.000000, 4.000000, 4.000000, 4.000000, 4.000000, 4.000000, 4.000000, 4.000000, 4.000000, 4.000000, 4.000000
112.000000, 0.000000, 4200.512695, 4352.820313, 4192.307617, 4199.487305, 4273.846191, 4186.666504, 4183.076660, 4167.179199, 4163.076660, 4215.897461, 4203.589844, 4210.256348, 4250.256348, 4193.333008, 3471.000000, 8207.000000, 8130.000000, 0.000000, 0.000000, 0.000000, 15765.000000, 535.897400, 4.000000, 4.000000, 4.000000, 4.000000, 4.000000, 4.000000, 4.000000, 4.000000, 4.000000, 4.000000, 4.000000, 4.000000, 4.000000, 4.000000, 4.000000, 4.000000
113.000000, 0.000000, 4206.666504, 4349.743652, 4192.820313, 4196.922852, 4287.179199, 4196.922852, 4186.666504, 4175.384277, 4173.846191, 4223.076660, 4206.666504, 4212.820313, 4256.922852, 4190.256348, 2435.000000, 8212.000000, 8133.000000, 0.000000, 0.000000, 0.000000, 15765.000000, 544.102539, 4.000000, 4.000000, 4.000000, 4.000000, 4.000000, 4.000000, 4.000000, 4.000000, 4.000000, 4.000000, 4.000000, 4.000000, 4.000000, 4.000000, 4.000000, 4.000000
114.000000, 0.000000, 4204.102539, 4338.974121, 4187.692383, 4193.333008, 4291.281738, 4203.589844, 4187.179199, 4187.179199, 4180.000000, 4224.615234, 4203.589844, 4214.358887, 4261.538574, 4194.871582, 3177.000000, 8212.000000, 8133.000000, 0.000000, 0.000000, 0.000000, 15765.000000, 551.794861, 4.000000, 4.000000, 4.000000, 4.000000, 4.000000, 4.000000, 4.000000, 4.000000, 4.000000, 4.000000, 4.000000, 4.000000, 4.000000, 4.000000, 4.000000, 4.000000
115.000000, 0.000000, 4196.410156, 4343.589844, 4185.127930, 4205.127930, 4274.358887, 4199.487305, 4182.563965, 4176.922852, 4166.666504, 4219.487305, 4201.025391, 4208.205078, 4261.538574, 4191.281738, 2328.000000, 8218.000000, 8128.000000, 0.000000, 0.000000, 0.000000, 15765.000000, 560.000000, 4.000000, 4.000000, 4.000000, 4.000000, 4.000000, 4.000000, 4.000000, 4.000000, 4.000000, 4.000000, 4.000000, 4.000000, 4.000000, 4.000000, 4.000000, 4.000000
116.000000, 0.000000, 4193.846191, 4354.871582, 4187.179199, 4202.563965, 4267.179199, 4194.871582, 4179.487305, 4165.127930, 4160.512695, 4214.358887, 4197.948730, 4209.743652, 4255.384277, 4186.666504, 3471.000000, 8218.000000, 8128.000000, 0.000000, 0.000000, 0.000000, 15765.000000, 567.692322, 4.000000, 4.000000, 4.000000, 4.000000, 4.000000, 4.000000, 4.000000, 4.000000, 4.000000, 4.000000, 4.000000, 4.000000, 4.000000, 4.000000, 4.000000, 4.000000
117.000000, 0.000000, 4194.871582, 4348.717773, 4190.769043, 4188.717773, 4282.563965, 4198.461426, 4180.000000, 4176.410156, 4180.000000, 4215.897461, 4196.922852, 4215.897461, 4253.846191, 4192.820313, 2435.000000, 8220.000000, 8126.000000, 0.000000, 0.000000, 0.000000, 15765.000000, 575.384583, 4.000000, 4.000000, 4.000000, 4.000000, 4.000000, 4.000000, 4.000000, 4.000000, 4.000000, 4.000000, 4.000000, 4.000000, 4.000000, 4.000000, 4.000000, 4.000000
118.000000, 0.000000, 4203.589844, 4338.974121, 4194.871582, 4196.410156, 4282.563965, 4197.948730, 4184.102539, 4187.692383, 4191.281738, 4228.205078, 4211.281738, 4222.051270, 4271.281738, 4201.025391, 3177.000000, 8220.000000, 8126.000000, 0.000000, 0.000000, 0.000000, 15765.000000, 583.589722, 4.000000, 4.000000, 4.000000, 4.000000, 4.000000, 4.000000, 4.000000, 4.000000, 4.000000, 4.000000, 4.000000, 4.000000, 4.000000, 4.000000, 4.000000, 4.000000
119.000000, 0.000000, 4210.256348, 4355.897461, 4198.461426, 4209.230469, 4257.948730, 4187.179199, 4191.281738, 4185.641113, 4185.127930, 4231.281738, 4221.025391, 4229.743652, 4284.102539, 4205.127930, 2328.000000, 8232.000000, 8131.000000, 0.000000, 0.000000, 0.000000, 15765.000000, 591.282043, 4.000000, 4.000000, 4.000000, 4.000000, 4.000000, 4.000000, 4.000000, 4.000000, 4.000000, 4.000000, 4.000000, 4.000000, 4.000000, 4.000000, 4.000000, 4.000000
120.000000, 0.000000, 4210.256348, 4368.717773, 4196.922852, 4211.281738, 4252.820313, 4185.127930, 4196.922852, 4186.153809, 4185.641113, 4226.153809, 4213.846191, 4226.153809, 4271.794922, 4197.436035, 3471.000000, 8232.000000, 8131.000000, 0.000000, 0.000000, 0.000000, 15765.000000, 598.974365, 4.000000, 4.000000, 4.000000, 4.000000, 4.000000, 4.000000, 4.000000, 4.000000, 4.000000, 4.000000, 4.000000, 4.000000, 4.000000, 4.000000, 4.000000, 4.000000
121.000000, 0.000000, 4205.127930, 4341.025391, 4192.307617, 4205.127930, 4261.538574, 4192.307617, 4202.563965, 4185.127930, 4183.589844, 4225.127930, 4210.256348, 4223.076660, 4257.436035, 4193.846191, 2435.000000, 8237.000000, 8137.000000, 0.000000, 0.000000, 0.000000, 15765.000000, 607.179443, 4.000000, 4.000000, 4.000000, 4.000000, 4.000000, 4.000000, 4.000000, 4.000000, 4.000000, 4.000000, 4.000000, 4.000000, 4.000000, 4.000000, 4.000000, 4.000000
122.000000, 0.000000, 4202.563965, 4327.692383, 4188.205078, 4188.205078, 4264.102539, 4196.410156, 4202.051270, 4182.563965, 4181.538574, 4226.666504, 4214.358887, 4226.153809, 4266.153809, 4202.563965, 3177.000000, 8237.000000, 8137.000000, 0.000000, 0.000000, 0.000000, 15765.000000, 614.871765, 4.000000, 4.000000, 4.000000, 4.000000, 4.000000, 4.000000, 4.000000, 4.000000, 4.000000, 4.000000, 4.000000, 4.000000, 4.000000, 4.000000, 4.000000, 4.000000
123.000000, 0.000000, 4200.000000, 4345.127930, 4180.512695, 4173.846191, 4262.051270, 4195.384277, 4188.717773, 4187.179199, 4188.205078, 4220.000000, 4207.692383, 4224.615234, 4267.692383, 4196.922852, 2328.000000, 8235.000000, 8141.000000, 0.000000, 0.000000, 0.000000, 15765.000000, 623.076904, 4.000000, 4.000000, 4.000000, 4.000000, 4.000000, 4.000000, 4.000000, 4.000000, 4.000000, 4.000000, 4.000000, 4.000000, 4.000000, 4.000000, 4.000000, 4.000000
124.000000, 0.000000, 4183.589844, 4335.384277, 4178.461426, 4176.922852, 4260.000000, 4197.948730, 4184.615234, 4185.641113, 4178.461426, 4209.230469, 4191.794922, 4213.333008, 4246.666504, 4184.102539, 3471.000000, 8235.000000, 8141.000000, 0.000000, 0.000000, 0.000000, 15765.000000, 631.282043, 4.000000, 4.000000, 4.000000, 4.000000, 4.000000, 4.000000, 4.000000, 4.000000, 4.000000, 4.000000, 4.000000, 4.000000, 4.000000, 4.000000, 4.000000, 4.000000
125.000000, 0.000000, 4178.974121, 4333.846191, 4187.179199, 4188.205078, 4272.307617, 4210.256348, 4200.512695, 4183.589844, 4174.871582, 4213.333008, 4194.871582, 4204.102539, 4250.769043, 4183.076660, 2435.000000, 8240.000000, 8125.000000, 0.000000, 0.000000, 0.000000, 15765.000000, 638.974365, 4.000000, 4.000000, 4.000000, 4.000000, 4.000000, 4.000000, 4.000000, 4.000000, 4.000000, 4.000000, 4.000000, 4.000000, 4.000000, 4.000000, 4.000000, 4.000000
126.000000, 0.000000, 4195.384277, 4367.179199, 4195.384277, 4188.717773, 4278.974121, 4215.384277, 4210.769043, 4196.410156, 4192.820313, 4225.641113, 4205.641113, 4212.307617, 4278.461426, 4194.871582, 3177.000000, 8240.000000, 8125.000000, 0.000000, 0.000000, 0.000000, 15765.000000, 647.179443, 4.000000, 4.000000, 4.000000, 4.000000, 4.000000, 4.000000, 4.000000, 4.000000, 4.000000, 4.000000, 4.000000, 4.000000, 4.000000, 4.000000, 4.000000, 4.000000
127.000000, 0.000000, 4197.948730, 4383.076660, 4194.871582, 4177.948730, 4265.641113, 4202.563965, 4204.102539, 4207.179199, 4193.846191, 4229.743652, 4203.076660, 4215.384277, 4281.538574, 4197.948730, 55.000000, 8232.000000, 8114.000000, 0.000000, 0.000000, 0.000000, 15765.000000, 654.871765, 4.000000, 4.000000, 4.000000, 4.000000, 4.000000, 4.000000, 4.000000, 4.000000, 4.000000, 4.000000, 4.000000, 4.000000, 4.000000, 4.000000, 4.000000, 4.000000
0.000000, 0.000000, 4191.281738, 4395.384277, 4190.769043, 4179.487305, 4257.436035, 4189.743652, 4193.846191, 4196.410156, 4180.512695, 4225.127930, 4203.589844, 4209.743652, 4274.871582, 4187.692383, 3244.000000, 8232.000000, 8114.000000, 0.000000, 0.000000, 0.000000, 15765.000000, 663.076904, 4.000000, 4.000000, 4.000000, 4.000000, 4.000000, 4.000000, 4.000000, 4.000000, 4.000000, 4.000000, 4.000000, 4.000000, 4.000000, 4.000000, 4.000000, 4.000000
1.000000, 0.000000, 4194.358887, 4426.666504, 4187.179199, 4187.179199, 4252.820313, 4187.179199, 4187.179199, 4186.153809, 4176.922852, 4221.538574, 4213.333008, 4215.897461, 4281.025391, 4190.769043, 3529.000000, 8228.000000, 8112.000000, 0.000000, 0.000000, 0.000000, 15765.000000, 670.769226, 4.000000, 4.000000, 4.000000, 4.000000, 4.000000, 4.000000, 4.000000, 4.000000, 4.000000, 4.000000, 4.000000, 4.000000, 4.000000, 4.000000, 4.000000, 4.000000
2.000000, 0.000000, 4190.256348, 4446.666504, 4180.512695, 4181.538574, 4245.641113, 4186.666504, 4184.615234, 4185.127930, 4174.871582, 4220.000000, 4210.769043, 4212.307617, 4273.846191, 4188.717773, 2898.000000, 8228.000000, 8112.000000, 0.000000, 0.000000, 0.000000, 15765.000000, 678.974365, 4.000000, 4.000000, 4.000000, 4.000000, 4.000000, 4.000000, 4.000000, 4.000000, 4.000000, 4.000000, 4.000000, 4.000000, 4.000000, 4.000000, 4.000000, 4.000000
3.000000, 0.000000, 4177.948730, 4454.871582, 4175.897461, 4174.358887, 4258.974121, 4184.102539, 4180.000000, 4176.410156, 4167.179199, 4209.743652, 4194.358887, 4201.538574, 4257.948730, 4180.000000, 3533.000000, 8225.000000, 8111.000000, 0.000000, 0.000000, 0.000000, 15765.000000, 687.179443, 4.000000, 4.000000, 4.000000, 4.000000, 4.000000, 4.000000, 4.000000, 4.000000, 4.000000, 4.000000, 4.000000, 4.000000, 4.000000, 4.000000, 4.000000, 4.000000
4.000000, 0.000000, 4171.794922, 4471.281738, 4180.000000, 4177.436035, 4277.948730, 4184.615234, 4173.846191, 4168.205078, 4164.615234, 4203.589844, 4188.717773, 4203.589844, 4260.000000, 4184.102539, 3504.000000, 8225.000000, 8111.000000, 0.000000, 0.000000, 0.000000, 15765.000000, 694.871765, 4.000000, 4.000000, 4.000000, 4.000000, 4.000000, 4.000000, 4.000000, 4.000000, 4.000000, 4.000000, 4.000000, 4.000000, 4.000000, 4.000000, 4.000000, 4.000000
5.000000, 0.000000, 4168.205078, 4478.974121, 4183.076660, 4176.922852, 4271.281738, 4188.205078, 4175.897461, 4167.179199, 4158.461426, 4196.410156, 4185.641113, 4203.589844, 4257.948730, 4183.076660, 3527.000000, 8220.000000, 8102.000000, 0.000000, 0.000000, 0.000000, 15765.000000, 703.076904, 4.000000, 4.000000, 4.000000, 4.000000, 4.000000, 4.000000, 4.000000, 4.000000, 4.000000, 4.000000, 4.000000, 4.000000, 4.000000, 4.000000, 4.000000, 4.000000
6.000000, 0.000000, 4159.487305, 4474.871582, 4180.512695, 4165.641113, 4262.563965, 4193.846191, 4184.615234, 4166.666504, 4148.717773, 4181.538574, 4172.820313, 4200.512695, 4243.589844, 4180.512695, 3414.000000, 8220.000000, 8102.000000, 0.000000, 0.000000, 0.000000, 15765.000000, 710.769226, 4.000000, 4.000000, 4.000000, 4.000000, 4.000000, 4.000000, 4.000000, 4.000000, 4.000000, 4.000000, 4.000000, 4.000000, 4.000000, 4.000000, 4.000000, 4.000000
7.000000, 0.000000, 4155.384277, 4477.948730, 4176.922852, 4156.410156, 4261.025391, 4203.076660, 4195.897461, 4172.820313, 4154.358887, 4180.512695, 4166.666504, 4197.436035, 4242.563965, 4180.512695, 3192.000000, 8214.000000, 8100.000000, 0.000000, 0.000000, 0.000000, 15765.000000, 718.974365, 4.000000, 4.000000, 4.000000, 4.000000, 4.000000, 4.000000, 4.000000, 4.000000, 4.000000, 4.000000, 4.000000, 4.000000, 4.000000, 4.000000, 4.000000, 4.000000
8.000000, 0.000000, 4161.025391, 4486.153809, 4177.948730, 4155.897461, 4251.794922, 4216.410156, 4211.281738, 4187.179199, 4173.333008, 4195.897461, 4174.871582, 4203.589844, 4251.794922, 4183.076660, 3527.000000, 8214.000000, 8100.000000, 0.000000, 0.000000, 0.000000, 15765.000000, 726.666626, 4.000000, 4.000000, 4.000000, 4.000000, 4.000000, 4.000000, 4.000000, 4.000000, 4.000000, 4.000000, 4.000000, 4.000000, 4.000000, 4.000000, 4.000000, 4.000000
9.000000, 0.000000, 4162.051270, 4492.307617, 4182.051270, 4165.127930, 4243.589844, 4217.436035, 4215.384277, 4195.897461, 4186.153809, 4209.230469, 4183.076660, 4209.743652, 4258.461426, 4188.205078, 3511.000000, 8207.000000, 8095.000000, 0.000000, 0.000000, 0.000000, 15765.000000, 734.871765, 4.000000, 4.000000, 4.000000, 4.000000, 4.000000, 4.000000, 4.000000, 4.000000, 4.000000, 4.000000, 4.000000, 4.000000, 4.000000, 4.000000, 4.000000, 4.000000
10.000000, 0.000000, 4165.641113, 4494.358887, 4189.743652, 4172.307617, 4238.974121, 4205.641113, 4206.666504, 4198.974121, 4189.743652, 4218.974121, 4188.205078, 4206.666504, 4268.717773, 4189.743652, 3167.000000, 8207.000000, 8095.000000, 0.000000, 0.000000, 0.000000, 15765.000000, 742.564087, 4.000000, 4.000000, 4.000000, 4.000000, 4.000000, 4.000000, 4.000000, 4.000000, 4.000000, 4.000000, 4.000000, 4.000000, 4.000000, 4.000000, 4.000000, 4.000000
11.000000, 0.000000, 4178.461426, 4500.000000, 4201.538574, 4176.410156, 4228.717773, 4202.563965, 4205.641113, 4203.076660, 4197.948730, 4230.256348, 4199.487305, 4216.410156, 4281.025391, 4194.871582, 2324.000000, 8206.000000, 8085.000000, 0.000000, 0.000000, 0.000000, 15765.000000, 750.769226, 4.000000, 4.000000, 4.000000, 4.000000, 4.000000, 4.000000, 4.000000, 4.000000, 4.000000, 4.000000, 4.000000, 4.000000, 4.000000, 4.000000, 4.000000, 4.000000
12.000000, 0.000000, 4178.461426, 4497.948730, 4203.589844, 4184.102539, 4218.974121, 4201.025391, 4205.641113, 4203.589844, 4205.641113, 4235.384277, 4204.615234, 4222.563965, 4281.538574, 4194.871582, 3461.000000, 8206.000000, 8085.000000, 0.000000, 0.000000, 0.000000, 15765.000000, 758.974365, 4.000000, 4.000000, 4.000000, 4.000000, 4.000000, 4.000000, 4.000000, 4.000000, 4.000000, 4.000000, 4.000000, 4.000000, 4.000000, 4.000000, 4.000000, 4.000000
13.000000, 0.000000, 4167.692383, 4479.487305, 4194.871582, 4184.102539, 4216.410156, 4191.794922, 4195.897461, 4201.025391, 4202.563965, 4232.820313, 4198.974121, 4218.974121, 4269.743652, 4189.743652, 2429.000000, 8202.000000, 8087.000000, 0.000000, 0.000000, 0.000000, 15765.000000, 766.666626, 4.000000, 4.000000, 4.000000, 4.000000, 4.000000, 4.000000, 4.000000, 4.000000, 4.000000, 4.000000, 4.000000, 4.000000, 4.000000, 4.000000, 4.000000, 4.000000
14.000000, 0.000000, 4167.692383, 4470.769043, 4193.333008, 4182.563965, 4213.333008, 4185.127930, 4187.179199, 4196.410156, 4194.871582, 4225.641113, 4196.410156, 4218.461426, 4263.076660, 4192.307617, 3167.000000, 8202.000000, 8087.000000, 0.000000, 0.000000, 0.000000, 15765.000000, 774.871765, 4.000000, 4.000000, 4.000000, 4.000000, 4.000000, 4.000000, 4.000000, 4.000000, 4.000000, 4.000000, 4.000000, 4.000000, 4.000000, 4.000000, 4.000000, 4.000000
15.000000, 0.000000, 4174.871582, 4467.692383, 4190.769043, 4185.641113, 4203.076660, 4188.717773, 4187.179199, 4187.692383, 4189.743652, 4220.000000, 4201.538574, 4216.410156, 4264.102539, 4187.692383, 2324.000000, 8201.000000, 8084.000000, 0.000000, 0.000000, 0.000000, 15765.000000, 782.564087, 4.000000, 4.000000, 4.000000, 4.000000, 4.000000, 4.000000, 4.000000, 4.000000, 4.000000, 4.000000, 4.000000, 4.000000, 4.000000, 4.000000, 4.000000, 4.000000
16.000000, 0.000000, 4171.281738, 4454.358887, 4184.615234, 4180.512695, 4197.948730, 4191.794922, 4186.666504, 4179.487305, 4185.127930, 4217.436035, 4196.922852, 4211.281738, 4262.563965, 4186.153809, 0.000000, 8201.000000, 8084.000000, 0.000000, 0.000000, 0.000000, 15765.000000, 790.769226, 4.000000, 4.000000, 4.000000, 4.000000, 4.000000, 4.000000, 4.000000, 4.000000, 4.000000, 4.000000, 4.000000, 4.000000, 4.000000, 4.000000, 4.000000, 4.000000
17.000000, 0.000000, 4168.205078, 4453.333008, 4184.102539, 4180.512695, 4206.153809, 4190.256348, 4183.589844, 4176.922852, 4182.051270, 4215.897461, 4187.179199, 4202.563965, 4259.487305, 4188.717773, 0.000000, 8202.000000, 8078.000000, 0.000000, 0.000000, 0.000000, 15765.000000, 798.461548, 4.000000, 4.000000, 4.000000, 4.000000, 4.000000, 4.000000, 4.000000, 4.000000, 4.000000, 4.000000, 4.000000, 4.000000, 4.000000, 4.000000, 4.000000, 4.000000
18.000000, 0.000000, 4172.307617, 4457.948730, 4188.717773, 4188.717773, 4201.538574, 4186.666504, 4183.076660, 4180.512695, 4184.102539, 4216.922852, 4191.281738, 4202.563965, 4263.076660, 4188.205078, 0.000000, 8202.000000, 8078.000000, 0.000000, 0.000000, 0.000000, 15765.000000, 806.666626, 4.000000, 4.000000, 4.000000, 4.000000, 4.000000, 4.000000, 4.000000, 4.000000, 4.000000, 4.000000, 4.000000, 4.000000, 4.000000, 4.000000, 4.000000, 4.000000
19.000000, 0.000000, 4170.769043, 4443.589844, 4189.230469, 4185.127930, 4184.615234, 4184.102539, 4185.127930, 4184.102539, 4189.230469, 4223.076660, 4200.512695, 4206.666504, 4268.717773, 4191.794922, 0.000000, 8201.000000, 8073.000000, 0.000000, 0.000000, 0.000000, 15765.000000, 814.871765, 4.000000, 4.000000, 4.000000, 4.000000, 4.000000, 4.000000, 4.000000, 4.000000, 4.000000, 4.000000, 4.000000, 4.000000, 4.000000, 4.000000, 4.000000, 4.000000
20.000000, 0.000000, 4169.743652, 4433.846191, 4185.641113, 4183.589844, 4183.076660, 4184.102539, 4192.820313, 4184.102539, 4194.871582, 4229.743652, 4201.538574, 4202.563965, 4268.205078, 4189.230469, 0.000000, 8201.000000, 8073.000000, 0.000000, 0.000000, 0.000000, 15765.000000, 822.564087, 4.000000, 4.000000, 4.000000, 4.000000, 4.000000, 4.000000, 4.000000, 4.000000, 4.000000, 4.000000, 4.000000, 4.000000, 4.000000, 4.000000, 4.000000, 4.000000
21.000000, 0.000000, 4175.897461, 4442.051270, 4190.256348, 4193.333008, 4187.692383, 4184.615234, 4202.051270, 4186.153809, 4200.512695, 4235.384277, 4206.666504, 4209.230469, 4270.256348, 4190.256348, 0.000000, 8204.000000, 8083.000000, 0.000000, 0.000000, 0.000000, 15765.000000, 830.769226, 4.000000, 4.000000, 4.000000, 4.000000, 4.000000, 4.000000, 4.000000, 4.000000, 4.000000, 4.000000, 4.000000, 4.000000, 4.000000, 4.000000, 4.000000, 4.000000
22.000000, 0.000000, 4181.025391, 4444.102539, 4198.974121, 4199.487305, 4186.666504, 4187.179199, 4201.538574, 4189.230469, 4203.076660, 4235.384277, 4213.846191, 4216.410156, 4267.179199, 4193.333008, 0.000000, 8204.000000, 8083.000000, 0.000000, 0.000000, 0.000000, 15765.000000, 838.461548, 4.000000, 4.000000, 4.000000, 4.000000, 4.000000, 4.000000, 4.000000, 4.000000, 4.000000, 4.000000, 4.000000, 4.000000, 4.000000, 4.000000, 4.000000, 4.000000
23.000000, 0.000000, 4179.487305, 4433.333008, 4197.948730, 4201.538574, 4185.641113, 4188.717773, 4198.974121, 4186.153809, 4194.871582, 4224.102539, 4203.589844, 4210.769043, 4250.769043, 4184.615234, 0.000000, 8193.000000, 8092.000000, 0.000000, 0.000000, 0.000000, 15765.000000, 846.666626, 4.000000, 4.000000, 4.000000, 4.000000, 4.000000, 4.000000, 4.000000, 4.000000, 4.000000, 4.000000, 4.000000, 4.000000, 4.000000, 4.000000, 4.000000, 4.000000
24.000000, 0.000000, 4172.307617, 4427.179199, 4193.846191, 4198.461426, 4183.076660, 4187.692383, 4201.538574, 4181.025391, 4185.641113, 4214.871582, 4189.743652, 4208.205078, 4236.410156, 4183.076660, 0.000000, 8193.000000, 8092.000000, 0.000000, 0.000000, 0.000000, 15765.000000, 854.358948, 4.000000, 4.000000, 4.000000, 4.000000, 4.000000, 4.000000, 4.000000, 4.000000, 4.000000, 4.000000, 4.000000, 4.000000, 4.000000, 4.000000, 4.000000, 4.000000
25.000000, 0.000000, 4167.179199, 4420.000000, 4193.846191, 4187.179199, 4178.974121, 4188.717773, 4193.846191, 4176.922852, 4187.179199, 4212.820313, 4187.692383, 4208.205078, 4230.256348, 4185.641113, 0.000000, 8195.000000, 8111.000000, 0.000000, 0.000000, 0.000000, 15765.000000, 862.564087, 4.000000, 4.000000, 4.000000, 4.000000, 4.000000, 4.000000, 4.000000, 4.000000, 4.000000, 4.000000, 4.000000, 4.000000, 4.000000, 4.000000, 4.000000, 4.000000
26.000000, 0.000000, 4165.127930, 4402.051270, 4192.307617, 4179.487305, 4174.871582, 4187.692383, 4176.410156, 4169.743652, 4183.076660, 4204.615234, 4187.692383, 4208.205078, 4219.487305, 4184.615234, 0.000000, 8195.000000, 8111.000000, 0.000000, 0.000000, 0.000000, 15765.000000, 870.769226, 4.000000, 4.000000, 4.000000, 4.000000, 4.000000, 4.000000, 4.000000, 4.000000, 4.000000, 4.000000, 4.000000, 4.000000, 4.000000, 4.000000, 4.000000, 4.000000
27.000000, 0.000000, 4157.948730, 4387.179199, 4184.615234, 4181.025391, 4171.794922, 4183.589844, 4174.358887, 4157.948730, 4170.256348, 4195.384277, 4180.000000, 4203.589844, 4208.205078, 4181.538574, 0.000000, 8195.000000, 8125.000000, 0.000000, 0.000000, 0.000000, 15765.000000, 878.461487, 4.000000, 4.000000, 4.000000, 4.000000, 4.000000, 4.000000, 4.000000, 4.000000, 4.000000, 4.000000, 4.000000, 4.000000, 4.000000, 4.000000, 4.000000, 4.000000
28.000000, 0.000000, 4155.897461, 4389.230469, 4182.563965, 4186.666504, 4178.461426, 4186.153809, 4184.102539, 4155.897461, 4170.256348, 4202.051270, 4172.307617, 4196.410156, 4208.717773, 4179.487305, 0.000000, 8195.000000, 8125.000000, 0.000000, 0.000000, 0.000000, 15765.000000, 886.153809, 4.000000, 4.000000, 4.000000, 4.000000, 4.000000, 4.000000, 4.000000, 4.000000, 4.000000, 4.000000, 4.000000, 4.000000, 4.000000, 4.000000, 4.000000, 4.000000
29.000000, 0.000000, 4156.922852, 4387.692383, 4189.230469, 4189.743652, 4181.025391, 4191.281738, 4187.692383, 4160.512695, 4171.794922, 4201.538574, 4168.717773, 4196.922852, 4209.743652, 4186.153809, 0.000000, 8196.000000, 8128.000000, 0.000000, 0.000000, 0.000000, 15765.000000, 894.358948, 4.000000, 4.000000, 4.000000, 4.000000, 4.000000, 4.000000, 4.000000, 4.000000, 4.000000, 4.000000, 4.000000, 4.000000, 4.000000, 4.000000, 4.000000, 4.000000
30.000000, 0.000000, 4155.897461, 4371.794922, 4188.717773, 4187.692383, 4170.769043, 4187.692383, 4185.641113, 4154.358887, 4161.025391, 4190.256348, 4168.717773, 4192.307617, 4209.230469, 4185.641113, 0.000000, 8196.000000, 8128.000000, 0.000000, 0.000000, 0.000000, 15765.000000, 902.051270, 4.000000, 4.000000, 4.000000, 4.000000, 4.000000, 4.000000, 4.000000, 4.000000, 4.000000, 4.000000, 4.000000, 4.000000, 4.000000, 4.000000, 4.000000, 4.000000
31.000000, 0.000000, 4160.512695, 4365.641113, 4188.205078, 4190.769043, 4171.281738, 4183.076660, 4181.025391, 4148.717773, 4161.025391, 4193.846191, 4171.794922, 4188.717773, 4214.871582, 4187.179199, 0.000000, 8192.000000, 8126.000000, 0.000000, 0.000000, 0.000000, 15765.000000, 910.256409, 4.000000, 4.000000, 4.000000, 4.000000, 4.000000, 4.000000, 4.000000, 4.000000, 4.000000, 4.000000, 4.000000, 4.000000, 4.000000, 4.000000, 4.000000, 4.000000
32.000000, 0.000000, 4163.589844, 4370.769043, 4197.436035, 4198.974121, 4180.512695, 4185.641113, 4173.846191, 4146.666504, 4166.666504, 4198.974121, 4173.846191, 4192.820313, 4217.436035, 4193.333008, 0.000000, 8192.000000, 8126.000000, 0.000000, 0.000000, 0.000000, 15765.000000, 918.461487, 4.000000, 4.000000, 4.000000, 4.000000, 4.000000, 4.000000, 4.000000, 4.000000, 4.000000, 4.000000, 4.000000, 4.000000, 4.000000, 4.000000, 4.000000, 4.000000
33.000000, 0.000000, 4158.974121, 4357.435547, 4192.820313, 4193.846191, 4175.897461, 4184.615234, 4169.743652, 4141.025391, 4159.487305, 4191.281738, 4167.179199, 4188.717773, 4207.692383, 4186.666504, 0.000000, 8190.000000, 8126.000000, 0.000000, 0.000000, 0.000000, 15765.000000, 926.153809, 4.000000, 4.000000, 4.000000, 4.000000, 4.000000, 4.000000, 4.000000, 4.000000, 4.000000, 4.000000, 4.000000, 4.000000, 4.000000, 4.000000, 4.000000, 4.000000
34.000000, 0.000000, 4148.717773, 4338.461426, 4180.512695, 4180.512695, 4164.615234, 4178.461426, 4168.205078, 4136.922852, 4147.692383, 4175.897461, 4152.307617, 4182.051270, 4197.436035, 4182.563965, 0.000000, 8190.000000, 8126.000000, 0.000000, 0.000000, 0.000000, 15765.000000, 934.358948, 4.000000, 4.000000, 4.000000, 4.000000, 4.000000, 4.000000, 4.000000, 4.000000, 4.000000, 4.000000, 4.000000, 4.000000, 4.000000, 4.000000, 4.000000, 4.000000
35.000000, 0.000000, 4147.179199, 4338.974121, 4182.051270, 4184.102539, 4170.769043, 4181.538574, 4166.666504, 4135.897461, 4144.615234, 4170.256348, 4148.717773, 4180.000000, 4199.487305, 4184.615234, 0.000000, 8190.000000, 8134.000000, 0.000000, 0.000000, 0.000000, 15765.000000, 942.051270, 4.000000, 4.000000, 4.000000, 4.000000, 4.000000, 4.000000, 4.000000, 4.000000, 4.000000, 4.000000, 4.000000, 4.000000, 4.000000, 4.000000, 4.000000, 4.000000
36.000000, 0.000000, 4155.384277, 4340.512695, 4188.205078, 4195.384277, 4181.538574, 4187.179199, 4167.692383, 4133.846191, 4146.666504, 4176.410156, 4160.000000, 4188.205078, 4205.641113, 4187.179199, 0.000000, 8190.000000, 8134.000000, 0.000000, 0.000000, 0.000000, 15765.000000, 949.743591, 4.000000, 4.000000, 4.000000, 4.000000, 4.000000, 4.000000, 4.000000, 4.000000, 4.000000, 4.000000, 4.000000, 4.000000, 4.000000, 4.000000, 4.000000, 4.000000
37.000000, 0.000000, 4160.000000, 4333.333008, 4190.256348, 4198.974121, 4176.410156, 4181.538574, 4169.230469, 4135.897461, 4150.769043, 4183.076660, 4162.563965, 4193.333008, 4210.769043, 4191.794922, 0.000000, 8191.000000, 8134.000000, 0.000000, 0.000000, 0.000000, 15765.000000, 957.948669, 4.000000, 4.000000, 4.000000, 4.000000, 4.000000, 4.000000, 4.000000, 4.000000, 4.000000, 4.000000, 4.000000, 4.000000, 4.000000, 4.000000, 4.000000, 4.000000
38.000000, 0.000000, 4162.563965, 4330.769043, 4190.769043, 4201.538574, 4171.794922, 4175.384277, 4167.179199, 4144.615234, 4161.025391, 4187.692383, 4163.076660, 4192.307617, 4218.974121, 4190.769043, 0.000000, 8191.000000, 8134.000000, 0.000000, 0.000000, 0.000000, 15765.000000, 965.640991, 4.000000, 4.000000, 4.000000, 4.000000, 4.000000, 4.000000, 4.000000, 4.000000, 4.000000, 4.000000, 4.000000, 4.000000, 4.000000, 4.000000, 4.000000, 4.000000
39.000000, 0.000000, 4163.076660, 4324.102539, 4189.743652, 4196.922852, 4177.436035, 4171.794922, 4168.205078, 4147.692383, 4172.307617, 4193.333008, 4169.230469, 4200.512695, 4225.127930, 4191.281738, 0.000000, 8188.000000, 8140.000000, 0.000000, 0.000000, 0.000000, 15765.000000, 973.846130, 4.000000, 4.000000, 4.000000, 4.000000, 4.000000, 4.000000, 4.000000, 4.000000, 4.000000, 4.000000, 4.000000, 4.000000, 4.000000, 4.000000, 4.000000, 4.000000
40.000000, 0.000000, 4158.974121, 4312.820313, 4187.692383, 4190.769043, 4168.205078, 4169.230469, 4169.743652, 4150.256348, 4180.000000, 4200.512695, 4172.307617, 4197.948730, 4226.153809, 4190.769043, 0.000000, 8188.000000, 8140.000000, 0.000000, 0.000000, 0.000000, 15765.000000, 982.051270, 4.000000, 4.000000, 4.000000, 4.000000, 4.000000, 4.000000, 4.000000, 4.000000, 4.000000, 4.000000, 4.000000, 4.000000, 4.000000, 4.000000, 4.000000, 4.000000
41.000000, 0.000000, 4162.051270, 4310.769043, 4193.846191, 4195.384277, 4161.025391, 4176.922852, 4170.769043, 4161.538574, 4189.743652, 4208.717773, 4181.025391, 4195.897461, 4231.794922, 4192.820313, 0.000000, 8193.000000, 8141.000000, 0.000000, 0.000000, 0.000000, 15765.000000, 989.743591, 4.000000, 4.000000, 4.000000, 4.000000, 4.000000, 4.000000, 4.000000, 4.000000, 4.000000, 4.000000, 4.000000, 4.000000, 4.000000, 4.000000, 4.000000, 4.000000
42.000000, 0.000000, 4172.307617, 4310.256348, 4203.589844, 4205.127930, 4178.461426, 4186.666504, 4178.974121, 4174.358887, 4203.589844, 4215.384277, 4195.897461, 4207.179199, 4239.487305, 4200.512695, 0.000000, 8193.000000, 8141.000000, 0.000000, 0.000000, 0.000000, 15765.000000, 997.948669, 4.000000, 4.000000, 4.000000, 4.000000, 4.000000, 4.000000, 4.000000, 4.000000, 4.000000, 4.000000, 4.000000, 4.000000, 4.000000, 4.000000, 4.000000, 4.000000
43.000000, 0.000000, 4171.794922, 4302.563965, 4195.897461, 4205.641113, 4183.076660, 4184.102539, 4187.179199, 4172.307617, 4207.692383, 4212.307617, 4194.871582, 4208.205078, 4233.846191, 4193.846191, 0.000000, 8192.000000, 8145.000000, 0.000000, 0.000000, 0.000000, 15766.000000, 5.641026, 4.000000, 4.000000, 4.000000, 4.000000, 4.000000, 4.000000, 4.000000, 4.000000, 4.000000, 4.000000, 4.000000, 4.000000, 4.000000, 4.000000, 4.000000, 4.000000
44.000000, 0.000000, 4161.025391, 4292.307617, 4186.666504, 4193.846191, 4165.127930, 4180.000000, 4186.666504, 4168.717773, 4200.512695, 4211.794922, 4183.589844, 4207.179199, 4225.641113, 4188.205078, 0.000000, 8192.000000, 8145.000000, 0.000000, 0.000000, 0.000000, 15766.000000, 13.333333, 4.000000, 4.000000, 4.000000, 4.000000, 4.000000, 4.000000, 4.000000, 4.000000, 4.000000, 4.000000, 4.000000, 4.000000, 4.000000, 4.000000, 4.000000, 4.000000
45.000000, 0.000000, 4157.948730, 4290.769043, 4187.692383, 4184.615234, 4165.127930, 4183.076660, 4183.589844, 4176.410156, 4202.563965, 4217.948730, 4186.153809, 4206.153809, 4231.794922, 4192.820313, 0.000000, 8197.000000, 8137.000000, 0.000000, 0.000000, 0.000000, 15766.000000, 21.538462, 4.000000, 4.000000, 4.000000, 4.000000, 4.000000, 4.000000, 4.000000, 4.000000, 4.000000, 4.000000, 4.000000, 4.000000, 4.000000, 4.000000, 4.000000, 4.000000
46.000000, 0.000000, 4163.076660, 4293.846191, 4189.743652, 4189.230469, 4173.333008, 4176.922852, 4179.487305, 4180.512695, 4212.820313, 4216.922852, 4195.897461, 4206.666504, 4235.384277, 4193.333008, 0.000000, 8197.000000, 8137.000000, 0.000000, 0.000000, 0.000000, 15766.000000, 29.230768, 4.000000, 4.000000, 4.000000, 4.000000, 4.000000, 4.000000, 4.000000, 4.000000, 4.000000, 4.000000, 4.000000, 4.000000, 4.000000, 4.000000, 4.000000, 4.000000
47.000000, 0.000000, 4161.538574, 4290.256348, 4191.281738, 4194.871582, 4168.717773, 4168.205078, 4181.025391, 4181.025391, 4215.897461, 4214.871582, 4198.974121, 4213.846191, 4229.230469, 4192.820313, 0.000000, 8199.000000, 8128.000000, 0.000000, 0.000000, 0.000000, 15766.000000, 37.435898, 4.000000, 4.000000, 4.000000, 4.000000, 4.000000, 4.000000, 4.000000, 4.000000, 4.000000, 4.000000, 4.000000, 4.000000, 4.000000, 4.000000, 4.000000, 4.000000
48.000000, 0.000000, 4160.000000, 4288.717773, 4192.307617, 4192.820313, 4167.179199, 4172.307617, 4186.153809, 4179.487305, 4209.743652, 4217.948730, 4198.461426, 4212.307617, 4229.230469, 4186.666504, 0.000000, 8199.000000, 8128.000000, 0.000000, 0.000000, 0.000000, 15766.000000, 45.128204, 4.000000, 4.000000, 4.000000, 4.000000, 4.000000, 4.000000, 4.000000, 4.000000, 4.000000, 4.000000, 4.000000, 4.000000, 4.000000, 4.000000, 4.000000, 4.000000
49.000000, 0.000000, 4162.051270, 4292.307617, 4191.281738, 4196.410156, 4167.692383, 4176.922852, 4186.666504, 4173.333008, 4202.563965, 4215.897461, 4198.974121, 4210.769043, 4233.846191, 4186.666504, 0.000000, 8200.000000, 8127.000000, 0.000000, 0.000000, 0.000000, 15766.000000, 53.333332, 4.000000, 4.000000, 4.000000, 4.000000, 4.000000, 4.000000, 4.000000, 4.000000, 4.000000, 4.000000, 4.000000, 4.000000, 4.000000, 4.000000, 4.000000, 4.000000
50.000000, 0.000000, 4160.512695, 4288.717773, 4189.230469, 4200.512695, 4164.615234, 4177.436035, 4183.589844, 4172.307617, 4202.563965, 4212.307617, 4197.948730, 4209.743652, 4232.820313, 4189.743652, 0.000000, 8200.000000, 8127.000000, 0.000000, 0.000000, 0.000000, 15766.000000, 61.025639, 4.000000, 4.000000, 4.000000, 4.000000, 4.000000, 4.000000, 4.000000, 4.000000, 4.000000, 4.000000, 4.000000, 4.000000, 4.000000, 4.000000, 4.000000, 4.000000
51.000000, 0.000000, 4161.538574, 4276.922852, 4195.897461, 4197.436035, 4166.666504, 4182.563965, 4185.641113, 4172.307617, 4202.051270, 4208.717773, 4193.846191, 4208.205078, 4229.743652, 4188.205078, 0.000000, 8208.000000, 8119.000000, 0.000000, 0.000000, 0.000000, 15766.000000, 68.717949, 4.000000, 4.000000, 4.000000, 4.000000, 4.000000, 4.000000, 4.000000, 4.000000, 4.000000, 4.000000, 4.000000, 4.000000, 4.000000, 4.000000, 4.000000, 4.000000
52.000000, 0.000000, 4171.281738, 4276.410156, 4211.281738, 4210.769043, 4173.846191, 4183.076660, 4185.641113, 4171.794922, 4203.076660, 4208.717773, 4196.922852, 4213.846191, 4233.333008, 4197.948730, 0.000000, 8208.000000, 8119.000000, 0.000000, 0.000000, 0.000000, 15766.000000, 76.410255, 4.000000, 4.000000, 4.000000, 4.000000, 4.000000, 4.000000, 4.000000, 4.000000, 4.000000, 4.000000, 4.000000, 4.000000, 4.000000, 4.000000, 4.000000, 4.000000
53.000000, 0.000000, 4180.000000, 4279.487305, 4214.871582, 4222.563965, 4172.307617, 4173.846191, 4182.051270, 4180.512695, 4216.410156, 4220.000000, 4208.205078, 4216.922852, 4239.487305, 4201.538574, 0.000000, 8207.000000, 8115.000000, 0.000000, 0.000000, 0.000000, 15766.000000, 84.615379, 4.000000, 4.000000, 4.000000, 4.000000, 4.000000, 4.000000, 4.000000, 4.000000, 4.000000, 4.000000, 4.000000, 4.000000, 4.000000, 4.000000, 4.000000, 4.000000
54.000000, 0.000000, 4176.922852, 4264.615234, 4205.127930, 4205.641113, 4166.666504, 4174.871582, 4192.820313, 4184.102539, 4218.461426, 4217.436035, 4204.102539, 4216.410156, 4236.922852, 4193.846191, 0.000000, 8207.000000, 8115.000000, 0.000000, 0.000000, 0.000000, 15766.000000, 92.820511, 4.000000, 4.000000, 4.000000, 4.000000, 4.000000, 4.000000, 4.000000, 4.000000, 4.000000, 4.000000, 4.000000, 4.000000, 4.000000, 4.000000, 4.000000, 4.000000
55.000000, 0.000000, 4168.205078, 4244.102539, 4197.436035, 4191.281738, 4170.256348, 4185.127930, 4202.563965, 4172.820313, 4204.102539, 4199.487305, 4188.717773, 4210.769043, 4230.769043, 4188.717773, 0.000000, 8207.000000, 8116.000000, 0.000000, 0.000000, 0.000000, 15766.000000, 100.512817, 4.000000, 4.000000, 4.000000, 4.000000, 4.000000, 4.000000, 4.000000, 4.000000, 4.000000, 4.000000, 4.000000, 4.000000, 4.000000, 4.000000, 4.000000, 4.000000
56.000000, 0.000000, 4167.179199, 4234.358887, 4197.436035, 4197.948730, 4172.307617, 4188.205078, 4193.333008, 4170.256348, 4201.538574, 4198.974121, 4186.666504, 4207.692383, 4232.820313, 4190.256348, 0.000000, 8207.000000, 8116.000000, 0.000000, 0.000000, 0.000000, 15766.000000, 108.205124, 4.000000, 4.000000, 4.000000, 4.000000, 4.000000, 4.000000, 4.000000, 4.000000, 4.000000, 4.000000, 4.000000, 4.000000, 4.000000, 4.000000, 4.000000, 4.000000
57.000000, 0.000000, 4163.589844, 4231.281738, 4197.948730, 4195.897461, 4170.769043, 4183.589844, 4182.563965, 4173.846191, 4203.076660, 4200.512695, 4188.717773, 4206.666504, 4233.846191, 4192.820313, 0.000000, 8209.000000, 8118.000000, 0.000000, 0.000000, 0.000000, 15766.000000, 115.897430, 4.000000, 4.000000, 4.000000, 4.000000, 4.000000, 4.000000, 4.000000, 4.000000, 4.000000, 4.000000, 4.000000, 4.000000, 4.000000, 4.000000, 4.000000, 4.000000
58.000000, 0.000000, 4158.974121, 4230.769043, 4192.820313, 4185.127930, 4167.692383, 4182.563965, 4182.563965, 4168.205078, 4194.358887, 4188.717773, 4183.589844, 4196.922852, 4228.717773, 4185.127930, 0.000000, 8209.000000, 8118.000000, 0.000000, 0.000000, 0.000000, 15766.000000, 124.102562, 4.000000, 4.000000, 4.000000, 4.000000, 4.000000, 4.000000, 4.000000, 4.000000, 4.000000, 4.000000, 4.000000, 4.000000, 4.000000, 4.000000, 4.000000, 4.000000
59.000000, 0.000000, 4163.076660, 4234.358887, 4192.307617, 4192.820313, 4158.461426, 4184.615234, 4184.615234, 4168.205078, 4194.358887, 4188.717773, 4182.563965, 4201.538574, 4229.230469, 4185.641113, 0.000000, 8207.000000, 8122.000000, 0.000000, 0.000000, 0.000000, 15766.000000, 131.794876, 4.000000, 4.000000, 4.000000, 4.000000, 4.000000, 4.000000, 4.000000, 4.000000, 4.000000, 4.000000, 4.000000, 4.000000, 4.000000, 4.000000, 4.000000, 4.000000
60.000000, 0.000000, 4164.102539, 4230.256348, 4195.897461, 4198.974121, 4157.436035, 4180.512695, 4182.563965, 4170.256348, 4200.512695, 4196.410156, 4183.589844, 4207.692383, 4227.179199, 4193.333008, 0.000000, 8207.000000, 8122.000000, 0.000000, 0.000000, 0.000000, 15766.000000, 139.487183, 4.000000, 4.000000, 4.000000, 4.000000, 4.000000, 4.000000, 4.000000, 4.000000, 4.000000, 4.000000, 4.000000, 4.000000, 4.000000, 4.000000, 4.000000, 4.000000
61.000000, 0.000000, 4163.076660, 4223.076660, 4195.384277, 4189.743652, 4172.307617, 4180.512695, 4184.615234, 4168.717773, 4201.538574, 4197.436035, 4186.666504, 4202.563965, 4226.153809, 4191.281738, 0.000000, 8208.000000, 8126.000000, 0.000000, 0.000000, 0.000000, 15766.000000, 147.692307, 4.000000, 4.000000, 4.000000, 4.000000, 4.000000, 4.000000, 4.000000, 4.000000, 4.000000, 4.000000, 4.000000, 4.000000, 4.000000, 4.000000, 4.000000, 4.000000
62.000000, 0.000000, 4162.563965, 4222.051270, 4197.948730, 4186.666504, 4173.333008, 4181.538574, 4186.153809, 4172.307617, 4210.256348, 4198.974121, 4191.794922, 4206.666504, 4229.743652, 4193.333008, 0.000000, 8208.000000, 8126.000000, 0.000000, 0.000000, 0.000000, 15766.000000, 155.897430, 4.000000, 4.000000, 4.000000, 4.000000, 4.000000, 4.000000, 4.000000, 4.000000, 4.000000, 4.000000, 4.000000, 4.000000, 4.000000, 4.000000, 4.000000, 4.000000
63.000000, 0.000000, 4162.563965, 4218.974121, 4201.025391, 4198.461426, 4166.153809, 4180.512695, 4185.127930, 4175.897461, 4217.948730, 4201.538574, 4192.820313, 4208.717773, 4230.769043, 4192.820313, 0.000000, 8207.000000, 8139.000000, 0.000000, 0.000000, 0.000000, 15766.000000, 163.589737, 4.000000, 4.000000, 4.000000, 4.000000, 4.000000, 4.000000, 4.000000, 4.000000, 4.000000, 4.000000, 4.000000, 4.000000, 4.000000, 4.000000, 4.000000, 4.000000
64.000000, 0.000000, 4164.102539, 4208.205078, 4200.000000, 4202.563965, 4172.307617, 4177.948730, 4184.615234, 4177.436035, 4212.307617, 4201.025391, 4192.307617, 4207.179199, 4226.666504, 4191.281738, 3241.000000, 8207.000000, 8139.000000, 0.000000, 0.000000, 0.000000, 15766.000000, 171.794861, 4.000000, 4.000000, 4.000000, 4.000000, 4.000000, 4.000000, 4.000000, 4.000000, 4.000000, 4.000000, 4.000000, 4.000000, 4.000000, 4.000000, 4.000000, 4.000000
65.000000, 0.000000, 4158.461426, 4181.025391, 4198.974121, 4189.743652, 4167.179199, 4176.922852, 4187.179199, 4185.127930, 4211.281738, 4202.563965, 4191.794922, 4210.256348, 4221.538574, 4192.307617, 3520.000000, 8206.000000, 8156.000000, 0.000000, 0.000000, 0.000000, 15766.000000, 179.487183, 4.000000, 4.000000, 4.000000, 4.000000, 4.000000, 4.000000, 4.000000, 4.000000, 4.000000, 4.000000, 4.000000, 4.000000, 4.000000, 4.000000, 4.000000, 4.000000
66.000000, 0.000000, 4152.307617, 4161.538574, 4195.384277, 4182.051270, 4156.922852, 4178.974121, 4186.153809, 4191.794922, 4220.512695, 4204.102539, 4187.692383, 4209.230469, 4215.897461, 4187.179199, 2898.000000, 8206.000000, 8156.000000, 0.000000, 0.000000, 0.000000, 15766.000000, 187.692307, 4.000000, 4.000000, 4.000000, 4.000000, 4.000000, 4.000000, 4.000000, 4.000000, 4.000000, 4.000000, 4.000000, 4.000000, 4.000000, 4.000000, 4.000000, 4.000000
67.000000, 0.000000, 4151.794922, 4167.692383, 4193.333008, 4183.076660, 4162.051270, 4176.922852, 4178.461426, 4186.153809, 4214.871582, 4197.436035, 4183.589844, 4207.692383, 4214.871582, 4189.230469, 3543.000000, 8208.000000, 8173.000000, 0.000000, 0.000000, 0.000000, 15766.000000, 195.384613, 4.000000, 4.000000, 4.000000, 4.000000, 4.000000, 4.000000, 4.000000, 4.000000, 4.000000, 4.000000, 4.000000, 4.000000, 4.000000, 4.000000, 4.000000, 4.000000
68.000000, 0.000000, 4156.922852, 4177.948730, 4193.846191, 4188.717773, 4168.717773, 4177.436035, 4176.410156, 4181.025391, 4206.666504, 4192.307617, 4183.589844, 4204.102539, 4220.000000, 4189.743652, 3515.000000, 8208.000000, 8173.000000, 0.000000, 0.000000, 0.000000, 15766.000000, 203.076920, 4.000000, 4.000000, 4.000000, 4.000000, 4.000000, 4.000000, 4.000000, 4.000000, 4.000000, 4.000000, 4.000000, 4.000000, 4.000000, 4.000000, 4.000000, 4.000000
69.000000, 0.000000, 4156.922852, 4170.256348, 4193.846191, 4193.333008, 4167.179199, 4180.000000, 4177.436035, 4186.153809, 4211.281738, 4194.358887, 4177.436035, 4202.563965, 4214.871582, 4184.102539, 3528.000000, 8213.000000, 8201.000000, 0.000000, 0.000000, 0.000000, 15766.000000, 211.282043, 4.000000, 4.000000, 4.000000, 4.000000, 4.000000, 4.000000, 4.000000, 4.000000, 4.000000, 4.000000, 4.000000, 4.000000, 4.000000, 4.000000, 4.000000, 4.000000
70.000000, 0.000000, 4154.871582, 4159.487305, 4193.846191, 4192.307617, 4165.127930, 4178.461426, 4171.281738, 4184.615234, 4211.281738, 4196.922852, 4169.230469, 4202.563965, 4210.256348, 4189.743652, 3424.000000, 8213.000000, 8201.000000, 0.000000, 0.000000, 0.000000, 15766.000000, 218.974350, 4.000000, 4.000000, 4.000000, 4.000000, 4.000000, 4.000000, 4.000000, 4.000000, 4.000000, 4.000000, 4.000000, 4.000000, 4.000000, 4.000000, 4.000000, 4.000000
71.000000, 0.000000, 4160.512695, 4166.153809, 4193.846191, 4194.871582, 4166.153809, 4169.743652, 4164.615234, 4174.358887, 4205.641113, 4192.307617, 4172.307617, 4200.512695, 4217.948730, 4192.307617, 3192.000000, 8222.000000, 8218.000000, 0.000000, 0.000000, 0.000000, 15766.000000, 227.179489, 4.000000, 4.000000, 4.000000, 4.000000, 4.000000, 4.000000, 4.000000, 4.000000, 4.000000, 4.000000, 4.000000, 4.000000, 4.000000, 4.000000, 4.000000, 4.000000
72.000000, 0.000000, 4156.922852, 4162.563965, 4193.333008, 4195.897461, 4165.641113, 4172.820313, 4170.256348, 4167.179199, 4201.025391, 4185.641113, 4167.692383, 4197.948730, 4210.256348, 4186.153809, 3529.000000, 8222.000000, 8218.000000, 0.000000, 0.000000, 0.000000, 15766.000000, 234.871796, 4.000000, 4.000000, 4.000000, 4.000000, 4.000000, 4.000000, 4.000000, 4.000000, 4.000000, 4.000000, 4.000000, 4.000000, 4.000000, 4.000000, 4.000000, 4.000000
73.000000, 0.000000, 4145.127930, 4151.281738, 4187.692383, 4189.743652, 4167.692383, 4183.589844, 4177.436035, 4168.205078, 4196.410156, 4184.615234, 4154.871582, 4188.717773, 4197.948730, 4178.974121, 3517.000000, 8246.000000, 8246.000000, 0.000000, 0.000000, 0.000000, 15766.000000, 242.564102, 4.000000, 4.000000, 4.000000, 4.000000, 4.000000, 4.000000, 4.000000, 4.000000, 4.000000, 4.000000, 4.000000, 4.000000, 4.000000, 4.000000, 4.000000, 4.000000
74.000000, 0.000000, 4150.769043, 4158.461426, 4184.615234, 4190.769043, 4168.717773, 4182.563965, 4171.794922, 4166.666504, 4190.256348, 4182.051270, 4150.256348, 4187.692383, 4206.153809, 4181.025391, 3173.000000, 8246.000000, 8246.000000, 0.000000, 0.000000, 0.000000, 15766.000000, 250.769226, 4.000000, 4.000000, 4.000000, 4.000000, 4.000000, 4.000000, 4.000000, 4.000000, 4.000000, 4.000000, 4.000000, 4.000000, 4.000000, 4.000000, 4.000000, 4.000000
75.000000, 0.000000, 4157.436035, 4167.179199, 4192.307617, 4201.538574, 4169.743652, 4182.051270, 4167.179199, 4168.205078, 4195.384277, 4184.102539, 4155.897461, 4193.846191, 4217.948730, 4188.205078, 2323.000000, 8254.000000, 8263.000000, 0.000000, 0.000000, 0.000000, 15766.000000, 258.461517, 4.000000, 4.000000, 4.000000, 4.000000, 4.000000, 4.000000, 4.000000, 4.000000, 4.000000, 4.000000, 4.000000, 4.000000, 4.000000, 4.000000, 4.000000, 4.000000
76.000000, 0.000000, 4150.256348, 4158.974121, 4190.769043, 4204.102539, 4171.794922, 4185.641113, 4180.000000, 4172.820313, 4204.615234, 4189.230469, 4157.948730, 4188.205078, 4210.256348, 4180.000000, 3469.000000, 8254.000000, 8263.000000, 0.000000, 0.000000, 0.000000, 15766.000000, 266.153839, 4.000000, 4.000000, 4.000000, 4.000000, 4.000000, 4.000000, 4.000000, 4.000000, 4.000000, 4.000000, 4.000000, 4.000000, 4.000000, 4.000000, 4.000000, 4.000000
77.000000, 0.000000, 4143.589844, 4151.281738, 4181.025391, 4197.948730, 4169.743652, 4184.102539, 4191.281738, 4169.743652, 4198.974121, 4183.076660, 4148.205078, 4185.127930, 4201.025391, 4174.358887, 2433.000000, 8266.000000, 8270.000000, 0.000000, 0.000000, 0.000000, 15766.000000, 274.358978, 4.000000, 4.000000, 4.000000, 4.000000, 4.000000, 4.000000, 4.000000, 4.000000, 4.000000, 4.000000, 4.000000, 4.000000, 4.000000, 4.000000, 4.000000, 4.000000
78.000000, 0.000000, 4142.051270, 4152.307617, 4177.948730, 4198.974121, 4170.256348, 4180.512695, 4182.051270, 4170.769043, 4194.871582, 4180.512695, 4140.000000, 4181.025391, 4204.615234, 4176.410156, 3173.000000, 8266.000000, 8270.000000, 0.000000, 0.000000, 0.000000, 15766.000000, 282.051270, 4.000000, 4.000000, 4.000000, 4.000000, 4.000000, 4.000000, 4.000000, 4.000000, 4.000000, 4.000000, 4.000000, 4.000000, 4.000000, 4.000000, 4.000000, 4.000000
79.000000, 0.000000, 4137.436035, 4143.076660, 4178.974121, 4203.589844, 4170.769043, 4181.538574, 4170.256348, 4186.153809, 4207.179199, 4188.717773, 4141.025391, 4177.436035, 4203.589844, 4171.794922, 2323.000000, 8282.000000, 8294.000000, 0.000000, 0.000000, 0.000000, 15766.000000, 290.256409, 4.000000, 4.000000, 4.000000, 4.000000, 4.000000, 4.000000, 4.000000, 4.000000, 4.000000, 4.000000, 4.000000, 4.000000, 4.000000, 4.000000, 4.000000, 4.000000
80.000000, 0.000000, 4126.666504, 4128.717773, 4176.922852, 4198.461426, 4169.743652, 4184.102539, 4170.256348, 4186.666504, 4207.692383, 4186.153809, 4136.410156, 4175.384277, 4198.974121, 4168.717773, 3469.000000, 8282.000000, 8294.000000, 0.000000, 0.000000, 0.000000, 15766.000000, 297.948700, 4.000000, 4.000000, 4.000000, 4.000000, 4.000000, 4.000000, 4.000000, 4.000000, 4.000000, 4.000000, 4.000000, 4.000000, 4.000000, 4.000000, 4.000000, 4.000000
81.000000, 0.000000, 4122.051270, 4120.512695, 4173.333008, 4191.281738, 4173.846191, 4184.615234, 4176.922852, 4172.307617, 4192.820313, 4177.436035, 4128.205078, 4169.230469, 4201.025391, 4168.717773, 2433.000000, 8288.000000, 8305.000000, 0.000000, 0.000000, 0.000000, 15766.000000, 306.153839, 4.000000, 4.000000, 4.000000, 4.000000, 4.000000, 4.000000, 4.000000, 4.000000, 4.000000, 4.000000, 4.000000, 4.000000, 4.000000, 4.000000, 4.000000, 4.000000
82.000000, 0.000000, 4126.666504, 4115.384277, 4175.897461, 4193.333008, 4167.179199, 4183.076660, 4180.512695, 4175.897461, 4190.256348, 4177.948730, 4132.820313, 4174.871582, 4202.051270, 4173.846191, 3173.000000, 8288.000000, 8305.000000, 0.000000, 0.000000, 0.000000, 15766.000000, 313.846161, 4.000000, 4.000000, 4.000000, 4.000000, 4.000000, 4.000000, 4.000000, 4.000000, 4.000000, 4.000000, 4.000000, 4.000000, 4.000000, 4.000000, 4.000000, 4.000000
83.000000, 0.000000, 4128.717773, 4114.358887, 4179.487305, 4201.538574, 4156.922852, 4184.102539, 4183.589844, 4187.179199, 4199.487305, 4183.076660, 4141.025391, 4182.051270, 4203.589844, 4176.922852, 2323.000000, 8296.000000, 8304.000000, 0.000000, 0.000000, 0.000000, 15766.000000, 321.538452, 4.000000, 4.000000, 4.000000, 4.000000, 4.000000, 4.000000, 4.000000, 4.000000, 4.000000, 4.000000, 4.000000, 4.000000, 4.000000, 4.000000, 4.000000, 4.000000
84.000000, 0.000000, 4130.256348, 4118.461426, 4181.025391, 4207.179199, 4174.871582, 4193.846191, 4192.307617, 4187.692383, 4207.179199, 4190.256348, 4146.153809, 4184.102539, 4209.743652, 4175.897461, 3469.000000, 8296.000000, 8304.000000, 0.000000, 0.000000, 0.000000, 15766.000000, 329.743591, 4.000000, 4.000000, 4.000000, 4.000000, 4.000000, 4.000000, 4.000000, 4.000000, 4.000000, 4.000000, 4.000000, 4.000000, 4.000000, 4.000000, 4.000000, 4.000000
85.000000, 0.000000, 4136.922852, 4118.461426, 4183.589844, 4211.281738, 4192.820313, 4201.025391, 4195.897461, 4194.871582, 4215.384277, 4197.436035, 4154.871582, 4188.717773, 4217.948730, 4185.641113, 2433.000000, 8288.000000, 8303.000000, 0.000000, 0.000000, 0.000000, 15766.000000, 337.435883, 4.000000, 4.000000, 4.000000, 4.000000, 4.000000, 4.000000, 4.000000, 4.000000, 4.000000, 4.000000, 4.000000, 4.000000, 4.000000, 4.000000, 4.000000, 4.000000
86.000000, 0.000000, 4140.000000, 4103.589844, 4181.538574, 4208.717773, 4178.461426, 4193.333008, 4186.153809, 4201.025391, 4220.512695, 4194.871582, 4160.512695, 4188.717773, 4218.461426, 4184.615234, 3173.000000, 8288.000000, 8303.000000, 0.000000, 0.000000, 0.000000, 15766.000000, 345.641022, 4.000000, 4.000000, 4.000000, 4.000000, 4.000000, 4.000000, 4.000000, 4.000000, 4.000000, 4.000000, 4.000000, 4.000000, 4.000000, 4.000000, 4.000000, 4.000000
87.000000, 0.000000, 4133.846191, 4086.153809, 4176.410156, 4198.974121, 4166.666504, 4180.512695, 4188.205078, 4186.666504, 4206.666504, 4184.102539, 4153.846191, 4188.717773, 4208.717773, 4177.436035, 2323.000000, 8292.000000, 8304.000000, 0.000000, 0.000000, 0.000000, 15766.000000, 353.333313, 4.000000, 4.000000, 4.000000, 4.000000, 4.000000, 4.000000, 4.000000, 4.000000, 4.000000, 4.000000, 4.000000, 4.000000, 4.000000, 4.000000, 4.000000, 4.000000
88.000000, 0.000000, 4129.743652, 4089.743408, 4175.897461, 4195.897461, 4173.333008, 4183.076660, 4198.974121, 4165.641113, 4185.641113, 4173.333008, 4148.717773, 4184.102539, 4201.538574, 4178.461426, 3469.000000, 8292.000000, 8304.000000, 0.000000, 0.000000, 0.000000, 15766.000000, 361.025635, 4.000000, 4.000000, 4.000000, 4.000000, 4.000000, 4.000000, 4.000000, 4.000000, 4.000000, 4.000000, 4.000000, 4.000000, 4.000000, 4.000000, 4.000000, 4.000000
89.000000, 0.000000, 4133.846191, 4095.897217, 4178.461426, 4199.487305, 4172.820313, 4188.205078, 4191.794922, 4157.948730, 4182.051270, 4168.205078, 4152.820313, 4181.538574, 4201.538574, 4178.974121, 2433.000000, 8302.000000, 8290.000000, 0.000000, 0.000000, 0.000000, 15766.000000, 369.230774, 4.000000, 4.000000, 4.000000, 4.000000, 4.000000, 4.000000, 4.000000, 4.000000, 4.000000, 4.000000, 4.000000, 4.000000, 4.000000, 4.000000, 4.000000, 4.000000
90.000000, 0.000000, 4139.487305, 4087.692139, 4184.615234, 4198.974121, 4171.281738, 4183.589844, 4182.563965, 4167.179199, 4195.897461, 4170.256348, 4158.974121, 4190.769043, 4204.102539, 4184.102539, 3173.000000, 8302.000000, 8290.000000, 0.000000, 0.000000, 0.000000, 15766.000000, 376.923065, 4.000000, 4.000000, 4.000000, 4.000000, 4.000000, 4.000000, 4.000000, 4.000000, 4.000000, 4.000000, 4.000000, 4.000000, 4.000000, 4.000000, 4.000000, 4.000000
91.000000, 0.000000, 4150.769043, 4088.205078, 4189.230469, 4203.076660, 4170.256348, 4182.563965, 4187.179199, 4180.512695, 4204.102539, 4180.000000, 4165.641113, 4191.794922, 4210.769043, 4186.153809, 2323.000000, 8308.000000, 8285.000000, 0.000000, 0.000000, 0.000000, 15766.000000, 384.615387, 4.000000, 4.000000, 4.000000, 4.000000, 4.000000, 4.000000, 4.000000, 4.000000, 4.000000, 4.000000, 4.000000, 4.000000, 4.000000, 4.000000, 4.000000, 4.000000
92.000000, 0.000000, 4162.051270, 4099.487305, 4192.307617, 4213.333008, 4167.692383, 4185.641113, 4190.256348, 4183.076660, 4201.025391, 4183.076660, 4174.358887, 4192.820313, 4217.436035, 4188.717773, 3469.000000, 8308.000000, 8285.000000, 0.000000, 0.000000, 0.000000, 15766.000000, 392.820496, 4.000000, 4.000000, 4.000000, 4.000000, 4.000000, 4.000000, 4.000000, 4.000000, 4.000000, 4.000000, 4.000000, 4.000000, 4.000000, 4.000000, 4.000000, 4.000000
93.000000, 0.000000, 4166.153809, 4105.641113, 4197.948730, 4220.512695, 4178.461426, 4187.179199, 4198.461426, 4184.102539, 4211.794922, 4184.102539, 4184.102539, 4198.974121, 4220.000000, 4193.333008, 2433.000000, 8330.000000, 8276.000000, 0.000000, 0.000000, 0.000000, 15766.000000, 400.512817, 4.000000, 4.000000, 4.000000, 4.000000, 4.000000, 4.000000, 4.000000, 4.000000, 4.000000, 4.000000, 4.000000, 4.000000, 4.000000, 4.000000, 4.000000, 4.000000
94.000000, 0.000000, 4166.666504, 4102.051270, 4192.307617, 4220.512695, 4191.281738, 4195.384277, 4209.743652, 4190.769043, 4226.153809, 4194.871582, 4183.589844, 4198.974121, 4215.384277, 4187.179199, 3173.000000, 8330.000000, 8276.000000, 0.000000, 0.000000, 0.000000, 15766.000000, 408.717926, 4.000000, 4.000000, 4.000000, 4.000000, 4.000000, 4.000000, 4.000000, 4.000000, 4.000000, 4.000000, 4.000000, 4.000000, 4.000000, 4.000000, 4.000000, 4.000000
95.000000, 0.000000, 4161.538574, 4088.205078, 4178.461426, 4213.846191, 4187.692383, 4206.153809, 4209.743652, 4186.153809, 4217.436035, 4196.922852, 4173.333008, 4196.922852, 4207.179199, 4181.538574, 2323.000000, 8343.000000, 8260.000000, 0.000000, 0.000000, 0.000000, 15766.000000, 416.410248, 4.000000, 4.000000, 4.000000, 4.000000, 4.000000, 4.000000, 4.000000, 4.000000, 4.000000, 4.000000, 4.000000, 4.000000, 4.000000, 4.000000, 4.000000, 4.000000
96.000000, 0.000000, 4153.333008, 4074.871582, 4174.358887, 4206.153809, 4181.025391, 4201.538574, 4204.615234, 4174.871582, 4204.102539, 4185.127930, 4165.127930, 4187.179199, 4196.410156, 4174.358887, 3469.000000, 8343.000000, 8260.000000, 0.000000, 0.000000, 0.000000, 15766.000000, 424.102539, 4.000000, 4.000000, 4.000000, 4.000000, 4.000000, 4.000000, 4.000000, 4.000000, 4.000000, 4.000000, 4.000000, 4.000000, 4.000000, 4.000000, 4.000000, 4.000000
97.000000, 0.000000, 4149.230469, 4070.769043, 4178.974121, 4199.487305, 4176.410156, 4190.256348, 4201.538574, 4171.281738, 4200.000000, 4174.871582, 4158.974121, 4181.025391, 4186.666504, 4172.820313, 2433.000000, 8353.000000, 8232.000000, 0.000000, 0.000000, 0.000000, 15766.000000, 432.307678, 4.000000, 4.000000, 4.000000, 4.000000, 4.000000, 4.000000, 4.000000, 4.000000, 4.000000, 4.000000, 4.000000, 4.000000, 4.000000, 4.000000, 4.000000, 4.000000
98.000000, 0.000000, 4149.743652, 4069.230713, 4180.000000, 4198.974121, 4166.666504, 4184.102539, 4190.256348, 4168.717773, 4191.794922, 4170.256348, 4154.358887, 4183.076660, 4182.563965, 4178.461426, 3173.000000, 8353.000000, 8232.000000, 0.000000, 0.000000, 0.000000, 15766.000000, 440.512817, 4.000000, 4.000000, 4.000000, 4.000000, 4.000000, 4.000000, 4.000000, 4.000000, 4.000000, 4.000000, 4.000000, 4.000000, 4.000000, 4.000000, 4.000000, 4.000000
99.000000, 0.000000, 4153.846191, 4065.640869, 4179.487305, 4201.538574, 4167.692383, 4176.922852, 4176.922852, 4164.615234, 4189.743652, 4171.281738, 4164.615234, 4189.230469, 4188.205078, 4181.025391, 2323.000000, 8370.000000, 8223.000000, 0.000000, 0.000000, 0.000000, 15766.000000, 448.205109, 4.000000, 4.000000, 4.000000, 4.000000, 4.000000, 4.000000, 4.000000, 4.000000, 4.000000, 4.000000, 4.000000, 4.000000, 4.000000, 4.000000, 4.000000, 4.000000
100.000000, 0.000000, 4156.410156, 4060.000000, 4183.076660, 4201.025391, 4173.846191, 4170.769043, 4175.384277, 4170.256348, 4201.538574, 4178.461426, 4181.538574, 4202.051270, 4199.487305, 4189.743652, 3469.000000, 8370.000000, 8223.000000, 0.000000, 0.000000, 0.000000, 15766.000000, 455.897430, 4.000000, 4.000000, 4.000000, 4.000000, 4.000000, 4.000000, 4.000000, 4.000000, 4.000000, 4.000000, 4.000000, 4.000000, 4.000000, 4.000000, 4.000000, 4.000000
101.000000, 0.000000, 4158.974121, 4061.025635, 4185.641113, 4201.025391, 4163.589844, 4171.281738, 4181.538574, 4185.641113, 4216.410156, 4191.794922, 4188.717773, 4203.589844, 4203.589844, 4191.281738, 2433.000000, 8377.000000, 8213.000000, 0.000000, 0.000000, 0.000000, 15766.000000, 463.589722, 4.000000, 4.000000, 4.000000, 4.000000, 4.000000, 4.000000, 4.000000, 4.000000, 4.000000, 4.000000, 4.000000, 4.000000, 4.000000, 4.000000, 4.000000, 4.000000
102.000000, 0.000000, 4160.000000, 4065.640869, 4184.102539, 4204.102539, 4157.948730, 4172.820313, 4186.153809, 4187.179199, 4219.487305, 4197.436035, 4188.717773, 4201.025391, 4198.974121, 4183.076660, 3173.000000, 8377.000000, 8213.000000, 0.000000, 0.000000, 0.000000, 15766.000000, 471.794861, 4.000000, 4.000000, 4.000000, 4.000000, 4.000000, 4.000000, 4.000000, 4.000000, 4.000000, 4.000000, 4.000000, 4.000000, 4.000000, 4.000000, 4.000000, 4.000000
103.000000, 0.000000, 4151.281738, 4057.435791, 4182.563965, 4200.000000, 4167.179199, 4172.820313, 4183.589844, 4171.281738, 4202.051270, 4185.127930, 4181.025391, 4198.974121, 4186.666504, 4178.974121, 2323.000000, 8377.000000, 8172.000000, 0.000000, 0.000000, 0.000000, 15766.000000, 480.000000, 4.000000, 4.000000, 4.000000, 4.000000, 4.000000, 4.000000, 4.000000, 4.000000, 4.000000, 4.000000, 4.000000, 4.000000, 4.000000, 4.000000, 4.000000, 4.000000
104.000000, 0.000000, 4145.127930, 4052.307617, 4184.615234, 4191.794922, 4178.974121, 4185.641113, 4183.589844, 4169.230469, 4188.717773, 4171.281738, 4171.794922, 4190.256348, 4170.769043, 4173.333008, 3469.000000, 8377.000000, 8172.000000, 0.000000, 0.000000, 0.000000, 15766.000000, 487.692291, 4.000000, 4.000000, 4.000000, 4.000000, 4.000000, 4.000000, 4.000000, 4.000000, 4.000000, 4.000000, 4.000000, 4.000000, 4.000000, 4.000000, 4.000000, 4.000000
105.000000, 0.000000, 4143.589844, 4045.640869, 4184.615234, 4188.717773, 4173.846191, 4191.794922, 4189.743652, 4185.641113, 4195.384277, 4169.743652, 4162.051270, 4186.666504, 4162.563965, 4173.333008, 2433.000000, 8369.000000, 8170.000000, 0.000000, 0.000000, 0.000000, 15766.000000, 495.384613, 4.000000, 4.000000, 4.000000, 4.000000, 4.000000, 4.000000, 4.000000, 4.000000, 4.000000, 4.000000, 4.000000, 4.000000, 4.000000, 4.000000, 4.000000, 4.000000
106.000000, 0.000000, 4135.384277, 4025.128174, 4174.871582, 4184.615234, 4152.820313, 4173.846191, 4187.692383, 4192.820313, 4205.641113, 4172.307617, 4157.948730, 4181.025391, 4167.692383, 4174.358887, 3173.000000, 8369.000000, 8170.000000, 0.000000, 0.000000, 0.000000, 15766.000000, 503.589722, 4.000000, 4.000000, 4.000000, 4.000000, 4.000000, 4.000000, 4.000000, 4.000000, 4.000000, 4.000000, 4.000000, 4.000000, 4.000000, 4.000000, 4.000000, 4.000000
107.000000, 0.000000, 4132.307617, 4025.640869, 4170.256348, 4181.538574, 4150.256348, 4172.307617, 4188.717773, 4193.333008, 4209.743652, 4174.358887, 4164.102539, 4180.512695, 4167.692383, 4173.333008, 2323.000000, 8331.000000, 8178.000000, 0.000000, 0.000000, 0.000000, 15766.000000, 511.282043, 4.000000, 4.000000, 4.000000, 4.000000, 4.000000, 4.000000, 4.000000, 4.000000, 4.000000, 4.000000, 4.000000, 4.000000, 4.000000, 4.000000, 4.000000, 4.000000
108.000000, 0.000000, 4134.871582, 4039.487061, 4176.922852, 4185.641113, 4168.717773, 4195.384277, 4202.051270, 4202.563965, 4216.922852, 4181.025391, 4166.666504, 4188.717773, 4152.820313, 4176.410156, 3469.000000, 8331.000000, 8178.000000, 0.000000, 0.000000, 0.000000, 15766.000000, 519.487183, 4.000000, 4.000000, 4.000000, 4.000000, 4.000000, 4.000000, 4.000000, 4.000000, 4.000000, 4.000000, 4.000000, 4.000000, 4.000000, 4.000000, 4.000000, 4.000000
109.000000, 0.000000, 4133.333008, 4027.179443, 4180.000000, 4187.692383, 4175.384277, 4197.436035, 4201.025391, 4201.538574, 4222.051270, 4188.717773, 4168.717773, 4190.256348, 4158.461426, 4174.358887, 2433.000000, 8309.000000, 8171.000000, 0.000000, 0.000000, 0.000000, 15766.000000, 527.179504, 4.000000, 4.000000, 4.000000, 4.000000, 4.000000, 4.000000, 4.000000, 4.000000, 4.000000, 4.000000, 4.000000, 4.000000, 4.000000, 4.000000, 4.000000, 4.000000
110.000000, 0.000000, 4137.436035, 4017.435791, 4182.563965, 4184.615234, 4164.102539, 4183.076660, 4190.256348, 4191.281738, 4219.487305, 4189.230469, 4182.051270, 4193.333008, 4183.076660, 4181.538574, 3173.000000, 8309.000000, 8171.000000, 0.000000, 0.000000, 0.000000, 15766.000000, 535.384583, 4.000000, 4.000000, 4.000000, 4.000000, 4.000000, 4.000000, 4.000000, 4.000000, 4.000000, 4.000000, 4.000000, 4.000000, 4.000000, 4.000000, 4.000000, 4.000000
111.000000, 0.000000, 4155.384277, 4030.769043, 4190.769043, 4185.641113, 4160.512695, 4187.179199, 4194.871582, 4192.820313, 4219.487305, 4190.256348, 4198.974121, 4195.384277, 4195.897461, 4193.333008, 2323.000000, 8287.000000, 8170.000000, 1.000000, 2.000000, 0.000000, 15766.000000, 543.076904, 4.000000, 4.000000, 4.000000, 4.000000, 4.000000, 4.000000, 4.000000, 4.000000, 4.000000, 4.000000, 4.000000, 4.000000, 4.000000, 4.000000, 4.000000, 4.000000
112.000000, 0.000000, 4167.692383, 4032.307617, 4194.358887, 4189.743652, 4166.666504, 4197.436035, 4196.922852, 4198.461426, 4226.153809, 4198.461426, 4210.256348, 4195.384277, 4204.615234, 4192.820313, 3469.000000, 8287.000000, 8170.000000, 0.000000, 0.000000, 0.000000, 15766.000000, 550.769226, 4.000000, 4.000000, 4.000000, 4.000000, 4.000000, 4.000000, 4.000000, 4.000000, 4.000000, 4.000000, 4.000000, 4.000000, 4.000000, 4.000000, 4.000000, 4.000000
113.000000, 0.000000, 4166.153809, 4019.487061, 4192.820313, 4186.666504, 4165.641113, 4184.615234, 4183.076660, 4190.769043, 4223.589844, 4200.512695, 4215.897461, 4199.487305, 4212.820313, 4194.358887, 2433.000000, 8229.000000, 8186.000000, 0.000000, 0.000000, 0.000000, 15766.000000, 558.974365, 4.000000, 4.000000, 4.000000, 4.000000, 4.000000, 4.000000, 4.000000, 4.000000, 4.000000, 4.000000, 4.000000, 4.000000, 4.000000, 4.000000, 4.000000, 4.000000
114.000000, 0.000000, 4165.641113, 4014.358887, 4188.717773, 4183.076660, 4155.384277, 4169.230469, 4176.922852, 4177.948730, 4216.410156, 4192.307617, 4216.922852, 4199.487305, 4209.743652, 4193.333008, 3173.000000, 8229.000000, 8186.000000, 0.000000, 0.000000, 0.000000, 15766.000000, 566.666626, 4.000000, 4.000000, 4.000000, 4.000000, 4.000000, 4.000000, 4.000000, 4.000000, 4.000000, 4.000000, 4.000000, 4.000000, 4.000000, 4.000000, 4.000000, 4.000000
115.000000, 0.000000, 4166.666504, 4001.538330, 4186.666504, 4183.589844, 4151.281738, 4175.897461, 4184.102539, 4178.461426, 4216.922852, 4186.153809, 4220.512695, 4198.974121, 4209.743652, 4192.307617, 2323.000000, 8199.000000, 8180.000000, 0.000000, 0.000000, 0.000000, 15766.000000, 574.871765, 4.000000, 4.000000, 4.000000, 4.000000, 4.000000, 4.000000, 4.000000, 4.000000, 4.000000, 4.000000, 4.000000, 4.000000, 4.000000, 4.000000, 4.000000, 4.000000
116.000000, 0.000000, 4162.563965, 3989.230713, 4189.743652, 4180.000000, 4167.179199, 4188.205078, 4188.717773, 4182.051270, 4217.436035, 4188.717773, 4229.230469, 4200.512695, 4218.461426, 4199.487305, 3469.000000, 8199.000000, 8180.000000, 0.000000, 0.000000, 0.000000, 15766.000000, 582.564087, 4.000000, 4.000000, 4.000000, 4.000000, 4.000000, 4.000000, 4.000000, 4.000000, 4.000000, 4.000000, 4.000000, 4.000000, 4.000000, 4.000000, 4.000000, 4.000000
117.000000, 0.000000, 4163.589844, 3990.256348, 4193.333008, 4175.897461, 4178.461426, 4188.205078, 4184.102539, 4183.076660, 4218.974121, 4197.436035, 4240.000000, 4208.205078, 4218.461426, 4201.025391, 2433.000000, 8158.000000, 8162.000000, 0.000000, 0.000000, 0.000000, 15766.000000, 590.769226, 4.000000, 4.000000, 4.000000, 4.000000, 4.000000, 4.000000, 4.000000, 4.000000, 4.000000, 4.000000, 4.000000, 4.000000, 4.000000, 4.000000, 4.000000, 4.000000
118.000000, 0.000000, 4171.794922, 3993.333252, 4196.410156, 4181.538574, 4171.281738, 4188.205078, 4183.589844, 4190.256348, 4227.179199, 4202.051270, 4246.666504, 4220.000000, 4218.974121, 4202.051270, 3173.000000, 8158.000000, 8162.000000, 0.000000, 0.000000, 0.000000, 15766.000000, 598.461548, 4.000000, 4.000000, 4.000000, 4.000000, 4.000000, 4.000000, 4.000000, 4.000000, 4.000000, 4.000000, 4.000000, 4.000000, 4.000000, 4.000000, 4.000000, 4.000000
119.000000, 0.000000, 4169.743652, 3998.461426, 4195.897461, 4187.692383, 4173.333008, 4195.384277, 4196.922852, 4194.358887, 4228.205078, 4198.461426, 4242.563965, 4214.871582, 4218.461426, 4195.384277, 2323.000000, 8151.000000, 8152.000000, 0.000000, 0.000000, 0.000000, 15766.000000, 606.153809, 4.000000, 4.000000, 4.000000, 4.000000, 4.000000, 4.000000, 4.000000, 4.000000, 4.000000, 4.000000, 4.000000, 4.000000, 4.000000, 4.000000, 4.000000, 4.000000
120.000000, 0.000000, 4160.000000, 3994.358887, 4193.333008, 4184.102539, 4178.974121, 4192.820313, 4204.102539, 4187.692383, 4215.897461, 4195.897461, 4232.820313, 4210.769043, 4204.102539, 4188.717773, 3469.000000, 8151.000000, 8152.000000, 0.000000, 0.000000, 0.000000, 15766.000000, 613.846130, 4.000000, 4.000000, 4.000000, 4.000000, 4.000000, 4.000000, 4.000000, 4.000000, 4.000000, 4.000000, 4.000000, 4.000000, 4.000000, 4.000000, 4.000000, 4.000000
121.000000, 0.000000, 4160.512695, 3977.948730, 4194.871582, 4182.051270, 4162.563965, 4185.127930, 4191.281738, 4177.948730, 4207.692383, 4197.948730, 4231.794922, 4211.794922, 4197.436035, 4190.769043, 2433.000000, 8142.000000, 8155.000000, 0.000000, 0.000000, 0.000000, 15766.000000, 622.051270, 4.000000, 4.000000, 4.000000, 4.000000, 4.000000, 4.000000, 4.000000, 4.000000, 4.000000, 4.000000, 4.000000, 4.000000, 4.000000, 4.000000, 4.000000, 4.000000
122.000000, 0.000000, 4165.641113, 3983.076904, 4195.897461, 4185.641113, 4158.461426, 4186.666504, 4190.256348, 4185.641113, 4214.871582, 4198.974121, 4234.871582, 4212.307617, 4201.538574, 4188.717773, 3173.000000, 8142.000000, 8155.000000, 0.000000, 0.000000, 0.000000, 15766.000000, 630.256409, 4.000000, 4.000000, 4.000000, 4.000000, 4.000000, 4.000000, 4.000000, 4.000000, 4.000000, 4.000000, 4.000000, 4.000000, 4.000000, 4.000000, 4.000000, 4.000000
123.000000, 0.000000, 4161.538574, 4006.153809, 4194.871582, 4182.051270, 4172.820313, 4188.717773, 4198.974121, 4198.974121, 4221.025391, 4195.897461, 4229.230469, 4216.410156, 4193.846191, 4189.743652, 2323.000000, 8150.000000, 8148.000000, 0.000000, 0.000000, 0.000000, 15766.000000, 637.948730, 4.000000, 4.000000, 4.000000, 4.000000, 4.000000, 4.000000, 4.000000, 4.000000, 4.000000, 4.000000, 4.000000, 4.000000, 4.000000, 4.000000, 4.000000, 4.000000
124.000000, 0.000000, 4152.307617, 4001.025635, 4188.717773, 4176.410156, 4164.615234, 4184.102539, 4185.641113, 4189.743652, 4210.256348, 4190.256348, 4219.487305, 4211.281738, 4180.512695, 4184.615234, 3469.000000, 8150.000000, 8148.000000, 0.000000, 0.000000, 0.000000, 15766.000000, 645.640991, 4.000000, 4.000000, 4.000000, 4.000000, 4.000000, 4.000000, 4.000000, 4.000000, 4.000000, 4.000000, 4.000000, 4.000000, 4.000000, 4.000000, 4.000000, 4.000000
125.000000, 0.000000, 4150.256348, 3981.025635, 4190.769043, 4180.512695, 4151.281738, 4182.563965, 4178.461426, 4181.538574, 4196.922852, 4188.717773, 4215.384277, 4212.307617, 4180.512695, 4182.563965, 2433.000000, 8158.000000, 8152.000000, 0.000000, 0.000000, 0.000000, 15766.000000, 653.846130, 4.000000, 4.000000, 4.000000, 4.000000, 4.000000, 4.000000, 4.000000, 4.000000, 4.000000, 4.000000, 4.000000, 4.000000, 4.000000, 4.000000, 4.000000, 4.000000
126.000000, 0.000000, 4151.281738, 3985.640869, 4197.948730, 4188.205078, 4164.102539, 4184.615234, 4195.897461, 4197.948730, 4199.487305, 4190.256348, 4215.897461, 4213.846191, 4182.563965, 4190.769043, 3173.000000, 8158.000000, 8152.000000, 0.000000, 0.000000, 0.000000, 15766.000000, 661.538452, 4.000000, 4.000000, 4.000000, 4.000000, 4.000000, 4.000000, 4.000000, 4.000000, 4.000000, 4.000000, 4.000000, 4.000000, 4.000000, 4.000000, 4.000000, 4.000000
127.000000, 0.000000, 4148.205078, 3992.307617, 4188.205078, 4186.666504, 4173.333008, 4188.205078, 4206.666504, 4204.102539, 4204.102539, 4188.205078, 4211.794922, 4203.589844, 4178.461426, 4186.666504, 55.000000, 8177.000000, 8157.000000, 0.000000, 0.000000, 0.000000, 15766.000000, 669.743591, 4.000000, 4.000000, 4.000000, 4.000000, 4.000000, 4.000000, 4.000000, 4.000000, 4.000000, 4.000000, 4.000000, 4.000000, 4.000000, 4.000000, 4.000000, 4.000000
0.000000, 0.000000, 4146.666504, 3988.205078, 4182.563965, 4182.051270, 4167.179199, 4193.333008, 4203.076660, 4188.205078, 4200.512695, 4189.230469, 4209.230469, 4204.615234, 4179.487305, 4187.179199, 3241.000000, 8177.000000, 8157.000000, 0.000000, 0.000000, 0.000000, 15766.000000, 677.435852, 4.000000, 4.000000, 4.000000, 4.000000, 4.000000, 4.000000, 4.000000, 4.000000, 4.000000, 4.000000, 4.000000, 4.000000, 4.000000, 4.000000, 4.000000, 4.000000
1.000000, 0.000000, 4148.717773, 3982.051270, 4187.692383, 4185.641113, 4161.538574, 4193.333008, 4195.897461, 4184.102539, 4196.922852, 4192.820313, 4208.717773, 4205.127930, 4186.153809, 4190.256348, 3703.000000, 8185.000000, 8159.000000, 0.000000, 0.000000, 0.000000, 15766.000000, 685.128174, 4.000000, 4.000000, 4.000000, 4.000000, 4.000000, 4.000000, 4.000000, 4.000000, 4.000000, 4.000000, 4.000000, 4.000000, 4.000000, 4.000000, 4.000000, 4.000000
2.000000, 0.000000, 4148.205078, 3973.845947, 4182.563965, 4186.153809, 4156.410156, 4185.127930, 4188.205078, 4187.179199, 4195.897461, 4187.692383, 4201.538574, 4199.487305, 4180.512695, 4184.615234, 2898.000000, 8185.000000, 8159.000000, 0.000000, 0.000000, 0.000000, 15766.000000, 692.820496, 4.000000, 4.000000, 4.000000, 4.000000, 4.000000, 4.000000, 4.000000, 4.000000, 4.000000, 4.000000, 4.000000, 4.000000, 4.000000, 4.000000, 4.000000, 4.000000
3.000000, 0.000000, 4144.615234, 3980.512695, 4181.538574, 4180.000000, 4160.000000, 4184.615234, 4187.179199, 4186.153809, 4196.922852, 4183.076660, 4195.897461, 4200.512695, 4171.794922, 4186.153809, 3566.000000, 8201.000000, 8159.000000, 0.000000, 0.000000, 0.000000, 15766.000000, 701.025635, 4.000000, 4.000000, 4.000000, 4.000000, 4.000000, 4.000000, 4.000000, 4.000000, 4.000000, 4.000000, 4.000000, 4.000000, 4.000000, 4.000000, 4.000000, 4.000000
4.000000, 0.000000, 4146.153809, 3995.897217, 4188.717773, 4180.512695, 4166.153809, 4188.205078, 4186.153809, 4188.205078, 4193.846191, 4178.974121, 4200.512695, 4201.538574, 4177.436035, 4187.179199, 3513.000000, 8201.000000, 8159.000000, 0.000000, 0.000000, 0.000000, 15766.000000, 708.717957, 4.000000, 4.000000, 4.000000, 4.000000, 4.000000, 4.000000, 4.000000, 4.000000, 4.000000, 4.000000, 4.000000, 4.000000, 4.000000, 4.000000, 4.000000, 4.000000
5.000000, 0.000000, 4148.205078, 3989.230713, 4190.256348, 4182.051270, 4154.358887, 4183.589844, 4184.102539, 4187.179199, 4184.102539, 4169.743652, 4194.358887, 4203.076660, 4182.051270, 4185.641113, 3528.000000, 8206.000000, 8160.000000, 0.000000, 0.000000, 0.000000, 15766.000000, 716.923035, 4.000000, 4.000000, 4.000000, 4.000000, 4.000000, 4.000000, 4.000000, 4.000000, 4.000000, 4.000000, 4.000000, 4.000000, 4.000000, 4.000000, 4.000000, 4.000000
6.000000, 0.000000, 4150.256348, 3981.538330, 4185.127930, 4176.410156, 4154.358887, 4184.615234, 4193.846191, 4186.153809, 4182.563965, 4170.769043, 4185.641113, 4203.589844, 4180.000000, 4186.153809, 3424.000000, 8206.000000, 8160.000000, 0.000000, 0.000000, 0.000000, 15766.000000, 724.615356, 4.000000, 4.000000, 4.000000, 4.000000, 4.000000, 4.000000, 4.000000, 4.000000, 4.000000, 4.000000, 4.000000, 4.000000, 4.000000, 4.000000, 4.000000, 4.000000
7.000000, 0.000000, 4152.307617, 3991.281982, 4186.666504, 4174.871582, 4160.000000, 4189.743652, 4200.000000, 4184.615234, 4181.538574, 4176.922852, 4192.820313, 4207.179199, 4182.051270, 4189.230469, 3341.000000, 8213.000000, 8159.000000, 0.000000, 0.000000, 0.000000, 15766.000000, 732.820496, 4.000000, 4.000000, 4.000000, 4.000000, 4.000000, 4.000000, 4.000000, 4.000000, 4.000000, 4.000000, 4.000000, 4.000000, 4.000000, 4.000000, 4.000000, 4.000000
8.000000, 0.000000, 4149.230469, 3987.179443, 4191.794922, 4177.948730, 4152.307617, 4183.589844, 4186.153809, 4173.333008, 4168.205078, 4168.717773, 4195.897461, 4206.666504, 4185.641113, 4189.743652, 3527.000000, 8213.000000, 8159.000000, 0.000000, 0.000000, 0.000000, 15766.000000, 740.512817, 4.000000, 4.000000, 4.000000, 4.000000, 4.000000, 4.000000, 4.000000, 4.000000, 4.000000, 4.000000, 4.000000, 4.000000, 4.000000, 4.000000, 4.000000, 4.000000
9.000000, 0.000000, 4148.717773, 3981.538330, 4191.794922, 4177.948730, 4160.512695, 4182.563965, 4177.436035, 4167.179199, 4168.205078, 4165.641113, 4195.384277, 4200.512695, 4184.615234, 4183.076660, 3517.000000, 8227.000000, 8160.000000, 0.000000, 0.000000, 0.000000, 15766.000000, 748.205139, 4.000000, 4.000000, 4.000000, 4.000000, 4.000000, 4.000000, 4.000000, 4.000000, 4.000000, 4.000000, 4.000000, 4.000000, 4.000000, 4.000000, 4.000000, 4.000000
10.000000, 0.000000, 4150.256348, 3993.845947, 4192.307617, 4178.974121, 4168.717773, 4190.769043, 4191.794922, 4171.281738, 4178.461426, 4167.692383, 4194.871582, 4203.589844, 4182.563965, 4186.666504, 3174.000000, 8227.000000, 8160.000000, 0.000000, 0.000000, 0.000000, 15766.000000, 756.410217, 4.000000, 4.000000, 4.000000, 4.000000, 4.000000, 4.000000, 4.000000, 4.000000, 4.000000, 4.000000, 4.000000, 4.000000, 4.000000, 4.000000, 4.000000, 4.000000
11.000000, 0.000000, 4147.179199, 3998.461426, 4190.769043, 4184.615234, 4163.076660, 4191.794922, 4198.974121, 4170.256348, 4176.410156, 4167.179199, 4190.256348, 4198.461426, 4183.076660, 4190.769043, 2477.000000, 8232.000000, 8157.000000, 0.000000, 0.000000, 0.000000, 15766.000000, 764.102539, 4.000000, 4.000000, 4.000000, 4.000000, 4.000000, 4.000000, 4.000000, 4.000000, 4.000000, 4.000000, 4.000000, 4.000000, 4.000000, 4.000000, 4.000000, 4.000000
12.000000, 0.000000, 4150.256348, 3995.897217, 4189.230469, 4186.153809, 4165.641113, 4187.179199, 4186.153809, 4171.794922, 4175.897461, 4171.281738, 4190.769043, 4195.897461, 4188.717773, 4188.717773, 3467.000000, 8232.000000, 8157.000000, 0.000000, 0.000000, 0.000000, 15766.000000, 771.794861, 4.000000, 4.000000, 4.000000, 4.000000, 4.000000, 4.000000, 4.000000, 4.000000, 4.000000, 4.000000, 4.000000, 4.000000, 4.000000, 4.000000, 4.000000, 4.000000
13.000000, 0.000000, 4156.922852, 4002.051270, 4193.333008, 4185.641113, 4169.743652, 4189.743652, 4184.615234, 4182.563965, 4184.102539, 4178.461426, 4201.025391, 4205.641113, 4196.410156, 4195.897461, 2432.000000, 8237.000000, 8164.000000, 0.000000, 0.000000, 0.000000, 15766.000000, 780.000000, 4.000000, 4.000000, 4.000000, 4.000000, 4.000000, 4.000000, 4.000000, 4.000000, 4.000000, 4.000000, 4.000000, 4.000000, 4.000000, 4.000000, 4.000000, 4.000000
14.000000, 0.000000, 4158.974121, 4015.897217, 4192.820313, 4186.666504, 4164.615234, 4189.230469, 4192.820313, 4186.153809, 4192.307617, 4183.589844, 4205.127930, 4205.641113, 4200.000000, 4194.871582, 3174.000000, 8237.000000, 8164.000000, 0.000000, 0.000000, 0.000000, 15766.000000, 787.692261, 4.000000, 4.000000, 4.000000, 4.000000, 4.000000, 4.000000, 4.000000, 4.000000, 4.000000, 4.000000, 4.000000, 4.000000, 4.000000, 4.000000, 4.000000, 4.000000
15.000000, 0.000000, 4151.281738, 4007.692139, 4188.205078, 4178.974121, 4168.205078, 4182.051270, 4189.230469, 4187.692383, 4195.384277, 4182.563965, 4199.487305, 4204.615234, 4195.897461, 4188.717773, 2477.000000, 8237.000000, 8159.000000, 0.000000, 0.000000, 0.000000, 15766.000000, 795.897400, 4.000000, 4.000000, 4.000000, 4.000000, 4.000000, 4.000000, 4.000000, 4.000000, 4.000000, 4.000000, 4.000000, 4.000000, 4.000000, 4.000000, 4.000000, 4.000000
16.000000, 0.000000, 4149.743652, 3991.281982, 4189.230469, 4173.846191, 4172.820313, 4183.589844, 4184.615234, 4197.948730, 4204.615234, 4188.717773, 4207.692383, 4206.666504, 4193.846191, 4190.769043, 0.000000, 8237.000000, 8159.000000, 0.000000, 0.000000, 0.000000, 15766.000000, 803.589722, 4.000000, 4.000000, 4.000000, 4.000000, 4.000000, 4.000000, 4.000000, 4.000000, 4.000000, 4.000000, 4.000000, 4.000000, 4.000000, 4.000000, 4.000000, 4.000000
17.000000, 0.000000, 4159.487305, 3995.897217, 4192.307617, 4178.461426, 4154.871582, 4187.692383, 4188.205078, 4203.589844, 4213.333008, 4197.436035, 4218.461426, 4208.717773, 4199.487305, 4190.256348, 0.000000, 8234.000000, 8162.000000, 0.000000, 0.000000, 0.000000, 15766.000000, 811.282043, 4.000000, 4.000000, 4.000000, 4.000000, 4.000000, 4.000000, 4.000000, 4.000000, 4.000000, 4.000000, 4.000000, 4.000000, 4.000000, 4.000000, 4.000000, 4.000000
18.000000, 0.000000, 4152.820313, 3996.923096, 4185.641113, 4172.820313, 4146.666504, 4182.563965, 4192.820313, 4198.974121, 4215.897461, 4193.333008, 4210.769043, 4207.179199, 4198.974121, 4185.641113, 0.000000, 8234.000000, 8162.000000, 0.000000, 0.000000, 0.000000, 15766.000000, 819.487183, 4.000000, 4.000000, 4.000000, 4.000000, 4.000000, 4.000000, 4.000000, 4.000000, 4.000000, 4.000000, 4.000000, 4.000000, 4.000000, 4.000000, 4.000000, 4.000000
19.000000, 0.000000, 4142.051270, 3987.692139, 4179.487305, 4168.717773, 4162.051270, 4182.563965, 4195.897461, 4200.000000, 4218.461426, 4192.820313, 4204.615234, 4200.512695, 4192.820313, 4181.538574, 0.000000, 8243.000000, 8161.000000, 0.000000, 0.000000, 0.000000, 15766.000000, 827.179443, 4.000000, 4.000000, 4.000000, 4.000000, 4.000000, 4.000000, 4.000000, 4.000000, 4.000000, 4.000000, 4.000000, 4.000000, 4.000000, 4.000000, 4.000000, 4.000000
20.000000, 0.000000, 4158.461426, 4002.563965, 4192.307617, 4187.692383, 4171.281738, 4191.794922, 4192.820313, 4201.538574, 4216.922852, 4201.538574, 4213.846191, 4207.692383, 4196.922852, 4193.846191, 0.000000, 8243.000000, 8161.000000, 0.000000, 0.000000, 0.000000, 15766.000000, 834.871765, 4.000000, 4.000000, 4.000000, 4.000000, 4.000000, 4.000000, 4.000000, 4.000000, 4.000000, 4.000000, 4.000000, 4.000000, 4.000000, 4.000000, 4.000000, 4.000000
21.000000, 0.000000, 4178.461426, 4042.051270, 4201.025391, 4200.512695, 4170.256348, 4188.717773, 4176.922852, 4188.717773, 4209.230469, 4201.025391, 4219.487305, 4214.358887, 4206.153809, 4203.076660, 0.000000, 8242.000000, 8149.000000, 0.000000, 0.000000, 0.000000, 15766.000000, 843.076904, 4.000000, 4.000000, 4.000000, 4.000000, 4.000000, 4.000000, 4.000000, 4.000000, 4.000000, 4.000000, 4.000000, 4.000000, 4.000000, 4.000000, 4.000000, 4.000000
22.000000, 0.000000, 4177.436035, 4055.384521, 4189.230469, 4193.333008, 4168.717773, 4173.333008, 4166.153809, 4174.871582, 4196.922852, 4186.666504, 4207.179199, 4206.666504, 4203.076660, 4190.256348, 0.000000, 8242.000000, 8149.000000, 0.000000, 0.000000, 0.000000, 15766.000000, 850.769226, 4.000000, 4.000000, 4.000000, 4.000000, 4.000000, 4.000000, 4.000000, 4.000000, 4.000000, 4.000000, 4.000000, 4.000000, 4.000000, 4.000000, 4.000000, 4.000000
23.000000, 0.000000, 4175.384277, 4044.615234, 4185.641113, 4192.820313, 4163.076660, 4167.692383, 4169.230469, 4168.205078, 4183.589844, 4175.384277, 4195.384277, 4198.974121, 4193.846191, 4191.281738, 0.000000, 8258.000000, 8150.000000, 0.000000, 0.000000, 0.000000, 15766.000000, 858.974365, 4.000000, 4.000000, 4.000000, 4.000000, 4.000000, 4.000000, 4.000000, 4.000000, 4.000000, 4.000000, 4.000000, 4.000000, 4.000000, 4.000000, 4.000000, 4.000000
24.000000, 0.000000, 4187.179199, 4055.897217, 4195.384277, 4202.051270, 4157.948730, 4173.333008, 4170.769043, 4166.153809, 4177.436035, 4168.205078, 4192.820313, 4193.846191, 4192.820313, 4193.846191, 0.000000, 8258.000000, 8150.000000, 0.000000, 0.000000, 0.000000, 15766.000000, 866.666626, 4.000000, 4.000000, 4.000000, 4.000000, 4.000000, 4.000000, 4.000000, 4.000000, 4.000000, 4.000000, 4.000000, 4.000000, 4.000000, 4.000000, 4.000000, 4.000000
25.000000, 0.000000, 4199.487305, 4071.794678, 4202.051270, 4203.076660, 4150.769043, 4173.846191, 4168.205078, 4175.897461, 4182.051270, 4165.127930, 4196.410156, 4200.000000, 4197.948730, 4194.358887, 0.000000, 8259.000000, 8156.000000, 0.000000, 0.000000, 0.000000, 15766.000000, 874.358948, 4.000000, 4.000000, 4.000000, 4.000000, 4.000000, 4.000000, 4.000000, 4.000000, 4.000000, 4.000000, 4.000000, 4.000000, 4.000000, 4.000000, 4.000000, 4.000000
26.000000, 0.000000, 4201.025391, 4065.128174, 4205.641113, 4202.051270, 4140.000000, 4168.205078, 4166.153809, 4184.615234, 4184.615234, 4167.179199, 4197.436035, 4205.641113, 4197.436035, 4198.974121, 0.000000, 8259.000000, 8156.000000, 0.000000, 0.000000, 0.000000, 15766.000000, 882.564087, 4.000000, 4.000000, 4.000000, 4.000000, 4.000000, 4.000000, 4.000000, 4.000000, 4.000000, 4.000000, 4.000000, 4.000000, 4.000000, 4.000000, 4.000000, 4.000000
27.000000, 0.000000, 4201.538574, 4063.076904, 4205.127930, 4202.563965, 4143.589844, 4167.179199, 4170.256348, 4175.897461, 4176.922852, 4165.641113, 4189.230469, 4201.538574, 4189.230469, 4194.871582, 0.000000, 8260.000000, 8156.000000, 0.000000, 0.000000, 0.000000, 15766.000000, 890.256409, 4.000000, 4.000000, 4.000000, 4.000000, 4.000000, 4.000000, 4.000000, 4.000000, 4.000000, 4.000000, 4.000000, 4.000000, 4.000000, 4.000000, 4.000000, 4.000000
28.000000, 0.000000, 4207.179199, 4082.563965, 4203.589844, 4202.051270, 4157.948730, 4171.281738, 4175.897461, 4165.641113, 4166.666504, 4158.974121, 4183.589844, 4203.589844, 4187.692383, 4197.436035, 0.000000, 8260.000000, 8156.000000, 0.000000, 0.000000, 0.000000, 15766.000000, 897.948669, 4.000000, 4.000000, 4.000000, 4.000000, 4.000000, 4.000000, 4.000000, 4.000000, 4.000000, 4.000000, 4.000000, 4.000000, 4.000000, 4.000000, 4.000000, 4.000000
29.000000, 0.000000, 4210.256348, 4082.051270, 4200.000000, 4204.102539, 4158.461426, 4173.846191, 4174.358887, 4168.205078, 4168.205078, 4156.922852, 4186.666504, 4203.589844, 4183.076660, 4195.897461, 0.000000, 8247.000000, 8159.000000, 0.000000, 0.000000, 0.000000, 15766.000000, 905.640991, 4.000000, 4.000000, 4.000000, 4.000000, 4.000000, 4.000000, 4.000000, 4.000000, 4.000000, 4.000000, 4.000000, 4.000000, 4.000000, 4.000000, 4.000000, 4.000000
30.000000, 0.000000, 4206.666504, 4061.538330, 4196.922852, 4202.563965, 4149.230469, 4170.256348, 4166.666504, 4173.333008, 4176.410156, 4158.461426, 4185.127930, 4202.563965, 4170.256348, 4187.179199, 0.000000, 8247.000000, 8159.000000, 0.000000, 0.000000, 0.000000, 15766.000000, 913.846130, 4.000000, 4.000000, 4.000000, 4.000000, 4.000000, 4.000000, 4.000000, 4.000000, 4.000000, 4.000000, 4.000000, 4.000000, 4.000000, 4.000000, 4.000000, 4.000000
31.000000, 0.000000, 4195.897461, 4060.512695, 4198.461426, 4196.922852, 4148.717773, 4168.717773, 4167.179199, 4170.256348, 4172.820313, 4156.410156, 4178.974121, 4200.512695, 4173.333008, 4186.153809, 0.000000, 8241.000000, 8170.000000, 0.000000, 0.000000, 0.000000, 15766.000000, 921.538452, 4.000000, 4.000000, 4.000000, 4.000000, 4.000000, 4.000000, 4.000000, 4.000000, 4.000000, 4.000000, 4.000000, 4.000000, 4.000000, 4.000000, 4.000000, 4.000000
32.000000, 0.000000, 4190.256348, 4065.128174, 4199.487305, 4195.897461, 4156.922852, 4177.436035, 4176.410156, 4169.743652, 4172.307617, 4157.436035, 4181.538574, 4197.436035, 4185.641113, 4187.179199, 0.000000, 8241.000000, 8170.000000, 0.000000, 0.000000, 0.000000, 15766.000000, 929.230774, 4.000000, 4.000000, 4.000000, 4.000000, 4.000000, 4.000000, 4.000000, 4.000000, 4.000000, 4.000000, 4.000000, 4.000000, 4.000000, 4.000000, 4.000000, 4.000000
33.000000, 0.000000, 4195.897461, 4056.410156, 4197.948730, 4197.948730, 4155.384277, 4181.538574, 4175.384277, 4177.948730, 4186.153809, 4165.127930, 4186.153809, 4204.102539, 4187.692383, 4193.333008, 0.000000, 8212.000000, 8169.000000, 0.000000, 0.000000, 0.000000, 15766.000000, 937.435852, 4.000000, 4.000000, 4.000000, 4.000000, 4.000000, 4.000000, 4.000000, 4.000000, 4.000000, 4.000000, 4.000000, 4.000000, 4.000000, 4.000000, 4.000000, 4.000000
34.000000, 0.000000, 4199.487305, 4058.461426, 4192.820313, 4198.974121, 4148.205078, 4178.974121, 4175.897461, 4181.538574, 4192.820313, 4171.281738, 4188.205078, 4205.641113, 4185.641113, 4191.281738, 0.000000, 8212.000000, 8169.000000, 0.000000, 0.000000, 0.000000, 15766.000000, 945.128174, 4.000000, 4.000000, 4.000000, 4.000000, 4.000000, 4.000000, 4.000000, 4.000000, 4.000000, 4.000000, 4.000000, 4.000000, 4.000000, 4.000000, 4.000000, 4.000000
35.000000, 0.000000, 4194.358887, 4071.794678, 4193.846191, 4199.487305, 4153.846191, 4181.538574, 4184.102539, 4177.948730, 4186.153809, 4170.769043, 4194.358887, 4206.666504, 4185.641113, 4187.179199, 0.000000, 8204.000000, 8165.000000, 0.000000, 0.000000, 0.000000, 15766.000000, 952.820496, 4.000000, 4.000000, 4.000000, 4.000000, 4.000000, 4.000000, 4.000000, 4.000000, 4.000000, 4.000000, 4.000000, 4.000000, 4.000000, 4.000000, 4.000000, 4.000000
36.000000, 0.000000, 4188.717773, 4068.205078, 4198.461426, 4196.922852, 4162.563965, 4184.102539, 4180.000000, 4180.000000, 4184.102539, 4172.820313, 4198.461426, 4207.692383, 4185.641113, 4192.307617, 0.000000, 8204.000000, 8165.000000, 0.000000, 0.000000, 0.000000, 15766.000000, 960.512817, 4.000000, 4.000000, 4.000000, 4.000000, 4.000000, 4.000000, 4.000000, 4.000000, 4.000000, 4.000000, 4.000000, 4.000000, 4.000000, 4.000000, 4.000000, 4.000000
37.000000, 0.000000, 4187.692383, 4055.897217, 4195.897461, 4190.769043, 4157.948730, 4183.076660, 4173.333008, 4187.692383, 4193.333008, 4175.384277, 4191.281738, 4203.076660, 4186.666504, 4189.230469, 0.000000, 8186.000000, 8160.000000, 0.000000, 0.000000, 0.000000, 15766.000000, 968.717896, 4.000000, 4.000000, 4.000000, 4.000000, 4.000000, 4.000000, 4.000000, 4.000000, 4.000000, 4.000000, 4.000000, 4.000000, 4.000000, 4.000000, 4.000000, 4.000000
38.000000, 0.000000, 4185.127930, 4049.230713, 4192.820313, 4186.153809, 4150.256348, 4183.076660, 4181.538574, 4186.666504, 4194.358887, 4170.769043, 4185.127930, 4204.615234, 4184.615234, 4186.666504, 0.000000, 8186.000000, 8160.000000, 0.000000, 0.000000, 0.000000, 15766.000000, 976.410217, 4.000000, 4.000000, 4.000000, 4.000000, 4.000000, 4.000000, 4.000000, 4.000000, 4.000000, 4.000000, 4.000000, 4.000000, 4.000000, 4.000000, 4.000000, 4.000000
39.000000, 0.000000, 4174.871582, 4047.179443, 4189.743652, 4183.589844, 4142.051270, 4183.076660, 4186.666504, 4182.563965, 4188.205078, 4170.256348, 4186.666504, 4197.436035, 4184.615234, 4184.102539, 0.000000, 8186.000000, 8160.000000, 0.000000, 0.000000, 0.000000, 15766.000000, 984.102539, 4.000000, 4.000000, 4.000000, 4.000000, 4.000000, 4.000000, 4.000000, 4.000000, 4.000000, 4.000000, 4.000000, 4.000000, 4.000000, 4.000000, 4.000000, 4.000000
40.000000, 0.000000, 4173.846191, 4048.717773, 4186.666504, 4182.563965, 4139.487305, 4183.589844, 4185.127930, 4190.769043, 4191.794922, 4178.461426, 4186.153809, 4191.794922, 4190.769043, 4186.153809, 0.000000, 8186.000000, 8160.000000, 0.000000, 0.000000, 0.000000, 15766.000000, 992.307678, 4.000000, 4.000000, 4.000000, 4.000000, 4.000000, 4.000000, 4.000000, 4.000000, 4.000000, 4.000000, 4.000000, 4.000000, 4.000000, 4.000000, 4.000000, 4.000000
41.000000, 0.000000, 4176.922852, 4049.230713, 4189.743652, 4186.153809, 4151.794922, 4188.717773, 4190.256348, 4202.051270, 4204.102539, 4182.563965, 4186.153809, 4200.000000, 4193.333008, 4192.820313, 0.000000, 8198.000000, 8157.000000, 0.000000, 0.000000, 0.000000, 15767.000000, 0.000000, 4.000000, 4.000000, 4.000000, 4.000000, 4.000000, 4.000000, 4.000000, 4.000000, 4.000000, 4.000000, 4.000000, 4.000000, 4.000000, 4.000000, 4.000000, 4.000000
42.000000, 0.000000, 4169.743652, 4051.281982, 4188.205078, 4186.666504, 4162.563965, 4190.256348, 4191.281738, 4205.641113, 4209.743652, 4181.025391, 4190.256348, 4201.538574, 4187.692383, 4184.615234, 0.000000, 8198.000000, 8157.000000, 0.000000, 0.000000, 0.000000, 15767.000000, 7.692307, 4.000000, 4.000000, 4.000000, 4.000000, 4.000000, 4.000000, 4.000000, 4.000000, 4.000000, 4.000000, 4.000000, 4.000000, 4.000000, 4.000000, 4.000000, 4.000000
43.000000, 0.000000, 4162.563965, 4058.461426, 4185.127930, 4182.051270, 4155.384277, 4188.717773, 4188.717773, 4201.025391, 4201.025391, 4177.436035, 4184.615234, 4197.436035, 4184.102539, 4182.563965, 0.000000, 8212.000000, 8151.000000, 0.000000, 0.000000, 0.000000, 15767.000000, 15.384615, 4.000000, 4.000000, 4.000000, 4.000000, 4.000000, 4.000000, 4.000000, 4.000000, 4.000000, 4.000000, 4.000000, 4.000000, 4.000000, 4.000000, 4.000000, 4.000000
44.000000, 0.000000, 4164.615234, 4065.640869, 4184.615234, 4183.076660, 4150.256348, 4187.179199, 4188.205078, 4190.256348, 4192.820313, 4171.281738, 4175.384277, 4188.717773, 4185.641113, 4184.102539, 0.000000, 8212.000000, 8151.000000, 0.000000, 0.000000, 0.000000, 15767.000000, 23.589743, 4.000000, 4.000000, 4.000000, 4.000000, 4.000000, 4.000000, 4.000000, 4.000000, 4.000000, 4.000000, 4.000000, 4.000000, 4.000000, 4.000000, 4.000000, 4.000000
