title:winkLeft30, recorded:21.05.18 17.08.49, timestamp started:2018-05-12T20:28:52.032863+02:00            , sampling:128, subject:Noé, labels:COUNTER INTERPOLATED AF3 F7 F3 FC5 T7 P7 O1 O2 P8 T8 FC6 F4 F8 AF4 RAW_CQ GYROX GYROY MARKER MARKER_HARDWARE SYNC TIME_STAMP_s TIME_STAMP_ms CQ_AF3 CQ_F7 CQ_F3 CQ_FC5 CQ_T7 CQ_P7 CQ_O1 CQ_O2 CQ_P8 CQ_T8 CQ_FC6 CQ_F4 CQ_F8 CQ_AF4 CQ_CMS CQ_DRL, chan:40, samples:2191, units:emotiv
35.000000, 0.000000, 4201.538574, 4212.307617, 4191.794922, 4200.000000, 4207.692383, 4208.717773, 4236.410156, 4207.692383, 4201.538574, 4187.179199, 4168.205078, 4167.179199, 4185.641113, 4170.256348, 0.000000, 8203.000000, 8158.000000, 0.000000, 0.000000, 0.000000, -20834.000000, 350.769226, 4.000000, 4.000000, 4.000000, 4.000000, 4.000000, 4.000000, 4.000000, 4.000000, 0.000000, 4.000000, 4.000000, 4.000000, 4.000000, 4.000000, 4.000000, 4.000000
36.000000, 0.000000, 4198.974121, 4210.256348, 4189.743652, 4199.487305, 4203.589844, 4202.051270, 4229.230469, 4200.512695, 4200.000000, 4187.692383, 4167.179199, 4168.717773, 4187.179199, 4170.769043, 0.000000, 8203.000000, 8158.000000, 0.000000, 0.000000, 0.000000, -20834.000000, 358.461517, 4.000000, 4.000000, 4.000000, 4.000000, 4.000000, 4.000000, 4.000000, 4.000000, 0.000000, 4.000000, 4.000000, 4.000000, 4.000000, 4.000000, 4.000000, 4.000000
37.000000, 0.000000, 4194.358887, 4200.512695, 4183.076660, 4195.897461, 4200.000000, 4199.487305, 4220.000000, 4202.051270, 4198.461426, 4188.717773, 4167.692383, 4168.717773, 4185.127930, 4168.717773, 0.000000, 8201.000000, 8163.000000, 0.000000, 0.000000, 0.000000, -20834.000000, 366.666656, 4.000000, 4.000000, 4.000000, 4.000000, 4.000000, 4.000000, 4.000000, 4.000000, 0.000000, 4.000000, 4.000000, 4.000000, 4.000000, 4.000000, 4.000000, 4.000000
38.000000, 0.000000, 4195.384277, 4201.538574, 4186.153809, 4196.410156, 4202.051270, 4201.025391, 4215.384277, 4195.897461, 4198.461426, 4186.666504, 4168.205078, 4164.615234, 4186.666504, 4167.179199, 0.000000, 8201.000000, 8163.000000, 0.000000, 0.000000, 0.000000, -20834.000000, 374.358978, 4.000000, 4.000000, 4.000000, 4.000000, 4.000000, 4.000000, 4.000000, 4.000000, 0.000000, 4.000000, 4.000000, 4.000000, 4.000000, 4.000000, 4.000000, 4.000000
39.000000, 0.000000, 4195.384277, 4205.127930, 4191.281738, 4197.948730, 4200.000000, 4201.025391, 4219.487305, 4182.563965, 4200.000000, 4184.615234, 4167.179199, 4156.410156, 4187.692383, 4166.666504, 0.000000, 8196.000000, 8168.000000, 0.000000, 0.000000, 0.000000, -20834.000000, 382.564087, 4.000000, 4.000000, 4.000000, 4.000000, 4.000000, 4.000000, 4.000000, 4.000000, 0.000000, 4.000000, 4.000000, 4.000000, 4.000000, 4.000000, 4.000000, 4.000000
40.000000, 0.000000, 4190.256348, 4204.102539, 4187.692383, 4192.307617, 4191.281738, 4200.000000, 4221.538574, 4183.076660, 4200.000000, 4186.153809, 4168.205078, 4158.974121, 4188.205078, 4167.692383, 0.000000, 8196.000000, 8168.000000, 0.000000, 0.000000, 0.000000, -20834.000000, 390.256409, 4.000000, 4.000000, 4.000000, 4.000000, 4.000000, 4.000000, 4.000000, 4.000000, 0.000000, 4.000000, 4.000000, 4.000000, 4.000000, 4.000000, 4.000000, 4.000000
41.000000, 0.000000, 4184.615234, 4201.025391, 4185.641113, 4185.127930, 4192.307617, 4200.000000, 4216.922852, 4187.692383, 4197.948730, 4186.153809, 4169.743652, 4170.256348, 4185.127930, 4168.717773, 0.000000, 8199.000000, 8171.000000, 0.000000, 0.000000, 0.000000, -20834.000000, 398.461517, 4.000000, 4.000000, 4.000000, 4.000000, 4.000000, 4.000000, 4.000000, 4.000000, 0.000000, 4.000000, 4.000000, 4.000000, 4.000000, 4.000000, 4.000000, 4.000000
42.000000, 0.000000, 4184.102539, 4195.384277, 4188.717773, 4184.615234, 4200.512695, 4198.974121, 4214.358887, 4186.153809, 4197.948730, 4188.205078, 4173.333008, 4173.846191, 4187.179199, 4168.205078, 0.000000, 8199.000000, 8171.000000, 0.000000, 0.000000, 0.000000, -20834.000000, 406.666656, 4.000000, 4.000000, 4.000000, 4.000000, 4.000000, 4.000000, 4.000000, 4.000000, 0.000000, 4.000000, 4.000000, 4.000000, 4.000000, 4.000000, 4.000000, 4.000000
43.000000, 0.000000, 4188.717773, 4201.025391, 4191.281738, 4190.769043, 4201.025391, 4197.436035, 4213.333008, 4184.102539, 4200.000000, 4197.948730, 4181.538574, 4177.948730, 4201.538574, 4176.410156, 0.000000, 8191.000000, 8179.000000, 0.000000, 0.000000, 0.000000, -20834.000000, 414.358978, 4.000000, 4.000000, 4.000000, 4.000000, 4.000000, 4.000000, 4.000000, 4.000000, 0.000000, 4.000000, 4.000000, 4.000000, 4.000000, 4.000000, 4.000000, 4.000000
44.000000, 0.000000, 4189.230469, 4205.127930, 4189.230469, 4191.281738, 4198.974121, 4198.974121, 4218.461426, 4183.076660, 4201.025391, 4202.051270, 4185.641113, 4184.102539, 4206.153809, 4185.641113, 0.000000, 8191.000000, 8179.000000, 0.000000, 0.000000, 0.000000, -20834.000000, 422.564087, 4.000000, 4.000000, 4.000000, 4.000000, 4.000000, 4.000000, 4.000000, 4.000000, 0.000000, 4.000000, 4.000000, 4.000000, 4.000000, 4.000000, 4.000000, 4.000000
45.000000, 0.000000, 4185.641113, 4196.410156, 4187.179199, 4183.076660, 4202.051270, 4199.487305, 4221.538574, 4188.205078, 4200.000000, 4200.512695, 4184.102539, 4179.487305, 4199.487305, 4180.000000, 0.000000, 8188.000000, 8183.000000, 0.000000, 0.000000, 0.000000, -20834.000000, 430.256409, 4.000000, 4.000000, 4.000000, 4.000000, 4.000000, 4.000000, 4.000000, 4.000000, 0.000000, 4.000000, 4.000000, 4.000000, 4.000000, 4.000000, 4.000000, 4.000000
46.000000, 0.000000, 4194.871582, 4201.538574, 4186.153809, 4183.076660, 4201.025391, 4191.794922, 4209.743652, 4185.641113, 4200.512695, 4200.512695, 4184.102539, 4172.820313, 4208.205078, 4180.512695, 0.000000, 8188.000000, 8183.000000, 0.000000, 0.000000, 0.000000, -20834.000000, 438.461517, 4.000000, 4.000000, 4.000000, 4.000000, 4.000000, 4.000000, 4.000000, 4.000000, 0.000000, 4.000000, 4.000000, 4.000000, 4.000000, 4.000000, 4.000000, 4.000000
47.000000, 0.000000, 4209.743652, 4217.948730, 4182.563965, 4195.897461, 4201.025391, 4183.589844, 4197.436035, 4170.769043, 4201.538574, 4195.384277, 4186.153809, 4175.897461, 4216.922852, 4194.871582, 0.000000, 8187.000000, 8184.000000, 0.000000, 0.000000, 0.000000, -20834.000000, 446.153839, 4.000000, 4.000000, 4.000000, 4.000000, 4.000000, 4.000000, 4.000000, 4.000000, 0.000000, 4.000000, 4.000000, 4.000000, 4.000000, 4.000000, 4.000000, 4.000000
48.000000, 0.000000, 4207.179199, 4220.512695, 4185.127930, 4201.538574, 4208.205078, 4187.692383, 4202.051270, 4163.589844, 4201.025391, 4188.717773, 4186.666504, 4182.563965, 4206.153809, 4201.025391, 0.000000, 8187.000000, 8184.000000, 0.000000, 0.000000, 0.000000, -20834.000000, 454.358978, 4.000000, 4.000000, 4.000000, 4.000000, 4.000000, 4.000000, 4.000000, 4.000000, 0.000000, 4.000000, 4.000000, 4.000000, 4.000000, 4.000000, 4.000000, 4.000000
49.000000, 0.000000, 4204.615234, 4214.871582, 4193.846191, 4194.358887, 4209.743652, 4195.897461, 4204.102539, 4165.641113, 4199.487305, 4186.153809, 4183.589844, 4186.666504, 4195.897461, 4197.948730, 0.000000, 8195.000000, 8173.000000, 0.000000, 0.000000, 0.000000, -20834.000000, 462.051270, 4.000000, 4.000000, 4.000000, 4.000000, 4.000000, 4.000000, 4.000000, 4.000000, 0.000000, 4.000000, 4.000000, 4.000000, 4.000000, 4.000000, 4.000000, 4.000000
50.000000, 0.000000, 4212.307617, 4210.256348, 4194.871582, 4186.153809, 4202.563965, 4190.769043, 4198.461426, 4168.717773, 4200.000000, 4190.769043, 4180.000000, 4184.615234, 4195.384277, 4195.897461, 0.000000, 8195.000000, 8173.000000, 0.000000, 0.000000, 0.000000, -20834.000000, 470.256409, 4.000000, 4.000000, 4.000000, 4.000000, 4.000000, 4.000000, 4.000000, 4.000000, 0.000000, 4.000000, 4.000000, 4.000000, 4.000000, 4.000000, 4.000000, 4.000000
51.000000, 0.000000, 4213.846191, 4210.769043, 4196.410156, 4185.127930, 4195.384277, 4188.717773, 4208.717773, 4183.076660, 4201.025391, 4203.589844, 4183.589844, 4183.589844, 4200.512695, 4197.436035, 0.000000, 8195.000000, 8170.000000, 0.000000, 0.000000, 0.000000, -20834.000000, 477.948700, 4.000000, 4.000000, 4.000000, 4.000000, 4.000000, 4.000000, 4.000000, 4.000000, 0.000000, 4.000000, 4.000000, 4.000000, 4.000000, 4.000000, 4.000000, 4.000000
52.000000, 0.000000, 4217.436035, 4217.948730, 4204.102539, 4195.384277, 4199.487305, 4195.384277, 4218.461426, 4203.076660, 4203.076660, 4219.487305, 4198.974121, 4194.358887, 4220.000000, 4209.230469, 0.000000, 8195.000000, 8170.000000, 0.000000, 0.000000, 0.000000, -20834.000000, 486.153839, 4.000000, 4.000000, 4.000000, 4.000000, 4.000000, 4.000000, 4.000000, 4.000000, 0.000000, 4.000000, 4.000000, 4.000000, 4.000000, 4.000000, 4.000000, 4.000000
53.000000, 0.000000, 4225.127930, 4224.615234, 4207.179199, 4203.076660, 4205.127930, 4193.846191, 4206.153809, 4207.692383, 4203.589844, 4228.205078, 4213.333008, 4206.666504, 4236.410156, 4220.512695, 0.000000, 8202.000000, 8167.000000, 0.000000, 0.000000, 0.000000, -20834.000000, 493.846130, 4.000000, 4.000000, 4.000000, 4.000000, 4.000000, 4.000000, 4.000000, 4.000000, 0.000000, 4.000000, 4.000000, 4.000000, 4.000000, 4.000000, 4.000000, 4.000000
54.000000, 0.000000, 4220.512695, 4222.563965, 4204.102539, 4200.000000, 4196.922852, 4190.256348, 4196.922852, 4201.538574, 4200.512695, 4228.717773, 4209.743652, 4204.615234, 4231.794922, 4217.948730, 0.000000, 8202.000000, 8167.000000, 0.000000, 0.000000, 0.000000, -20834.000000, 502.051270, 4.000000, 4.000000, 4.000000, 4.000000, 4.000000, 4.000000, 4.000000, 4.000000, 0.000000, 4.000000, 4.000000, 4.000000, 4.000000, 4.000000, 4.000000, 4.000000
55.000000, 0.000000, 4222.563965, 4222.051270, 4204.102539, 4200.512695, 4196.410156, 4197.948730, 4207.179199, 4197.948730, 4198.974121, 4229.230469, 4205.127930, 4202.051270, 4228.205078, 4215.384277, 0.000000, 8209.000000, 8164.000000, 0.000000, 0.000000, 0.000000, -20834.000000, 509.743591, 4.000000, 4.000000, 4.000000, 4.000000, 4.000000, 4.000000, 4.000000, 4.000000, 0.000000, 4.000000, 4.000000, 4.000000, 4.000000, 4.000000, 4.000000, 4.000000
56.000000, 0.000000, 4232.820313, 4223.076660, 4212.820313, 4205.641113, 4210.256348, 4203.076660, 4215.897461, 4200.000000, 4200.000000, 4230.256348, 4210.256348, 4207.179199, 4235.384277, 4218.974121, 0.000000, 8209.000000, 8164.000000, 0.000000, 0.000000, 0.000000, -20834.000000, 517.948730, 4.000000, 4.000000, 4.000000, 4.000000, 4.000000, 4.000000, 4.000000, 4.000000, 0.000000, 4.000000, 4.000000, 4.000000, 4.000000, 4.000000, 4.000000, 4.000000
57.000000, 0.000000, 4225.641113, 4217.436035, 4214.358887, 4201.538574, 4212.820313, 4201.025391, 4216.410156, 4201.025391, 4201.538574, 4230.769043, 4210.256348, 4207.179199, 4235.384277, 4217.436035, 0.000000, 8213.000000, 8161.000000, 0.000000, 0.000000, 0.000000, -20834.000000, 525.640991, 4.000000, 4.000000, 4.000000, 4.000000, 4.000000, 4.000000, 4.000000, 4.000000, 0.000000, 4.000000, 4.000000, 4.000000, 4.000000, 4.000000, 4.000000, 4.000000
58.000000, 0.000000, 4212.307617, 4215.897461, 4200.512695, 4196.922852, 4202.051270, 4201.538574, 4218.461426, 4199.487305, 4201.538574, 4229.230469, 4202.051270, 4200.000000, 4231.794922, 4212.820313, 0.000000, 8213.000000, 8161.000000, 0.000000, 0.000000, 0.000000, -20834.000000, 533.846130, 4.000000, 4.000000, 4.000000, 4.000000, 4.000000, 4.000000, 4.000000, 4.000000, 0.000000, 4.000000, 4.000000, 4.000000, 4.000000, 4.000000, 4.000000, 4.000000
59.000000, 0.000000, 4211.281738, 4217.436035, 4191.281738, 4196.922852, 4197.948730, 4200.512695, 4217.948730, 4204.615234, 4201.538574, 4228.205078, 4198.974121, 4198.974121, 4229.230469, 4212.307617, 0.000000, 8214.000000, 8152.000000, 0.000000, 0.000000, 0.000000, -20834.000000, 542.051270, 4.000000, 4.000000, 4.000000, 4.000000, 4.000000, 4.000000, 4.000000, 4.000000, 0.000000, 4.000000, 4.000000, 4.000000, 4.000000, 4.000000, 4.000000, 4.000000
60.000000, 0.000000, 4214.871582, 4214.871582, 4192.307617, 4196.410156, 4202.051270, 4198.974121, 4216.410156, 4216.410156, 4200.512695, 4230.256348, 4207.692383, 4202.563965, 4232.307617, 4215.384277, 0.000000, 8214.000000, 8152.000000, 0.000000, 0.000000, 0.000000, -20834.000000, 549.743591, 4.000000, 4.000000, 4.000000, 4.000000, 4.000000, 4.000000, 4.000000, 4.000000, 0.000000, 4.000000, 4.000000, 4.000000, 4.000000, 4.000000, 4.000000, 4.000000
61.000000, 0.000000, 4217.436035, 4218.974121, 4192.820313, 4200.000000, 4204.615234, 4201.538574, 4215.384277, 4223.076660, 4201.025391, 4235.384277, 4216.410156, 4203.076660, 4244.615234, 4220.000000, 0.000000, 8215.000000, 8145.000000, 0.000000, 0.000000, 0.000000, -20834.000000, 557.948730, 4.000000, 4.000000, 4.000000, 4.000000, 4.000000, 4.000000, 4.000000, 4.000000, 0.000000, 4.000000, 4.000000, 4.000000, 4.000000, 4.000000, 4.000000, 4.000000
62.000000, 0.000000, 4216.922852, 4227.179199, 4189.743652, 4202.051270, 4204.615234, 4201.025391, 4207.179199, 4214.871582, 4202.051270, 4234.871582, 4214.871582, 4198.974121, 4246.666504, 4214.871582, 0.000000, 8215.000000, 8145.000000, 0.000000, 0.000000, 0.000000, -20834.000000, 565.640991, 4.000000, 4.000000, 4.000000, 4.000000, 4.000000, 4.000000, 4.000000, 4.000000, 0.000000, 4.000000, 4.000000, 4.000000, 4.000000, 4.000000, 4.000000, 4.000000
63.000000, 0.000000, 4216.922852, 4226.666504, 4191.281738, 4198.974121, 4205.127930, 4200.000000, 4198.461426, 4204.102539, 4201.538574, 4229.230469, 4206.153809, 4196.410156, 4235.897461, 4208.717773, 0.000000, 8206.000000, 8149.000000, 0.000000, 0.000000, 0.000000, -20834.000000, 573.846130, 4.000000, 4.000000, 4.000000, 4.000000, 4.000000, 4.000000, 4.000000, 4.000000, 0.000000, 4.000000, 4.000000, 4.000000, 4.000000, 4.000000, 4.000000, 4.000000
64.000000, 0.000000, 4215.897461, 4225.641113, 4193.846191, 4200.512695, 4201.025391, 4199.487305, 4198.461426, 4203.589844, 4199.487305, 4228.205078, 4204.615234, 4194.871582, 4230.769043, 4209.230469, 3183.000000, 8206.000000, 8149.000000, 0.000000, 0.000000, 0.000000, -20834.000000, 581.538452, 4.000000, 4.000000, 4.000000, 4.000000, 4.000000, 4.000000, 4.000000, 4.000000, 0.000000, 4.000000, 4.000000, 4.000000, 4.000000, 4.000000, 4.000000, 4.000000
65.000000, 0.000000, 4207.692383, 4227.692383, 4190.769043, 4198.461426, 4191.794922, 4192.307617, 4200.000000, 4198.974121, 4199.487305, 4224.102539, 4204.102539, 4190.256348, 4221.538574, 4206.153809, 3537.000000, 8197.000000, 8148.000000, 0.000000, 0.000000, 0.000000, -20834.000000, 589.743591, 4.000000, 4.000000, 4.000000, 4.000000, 4.000000, 4.000000, 4.000000, 4.000000, 0.000000, 4.000000, 4.000000, 4.000000, 4.000000, 4.000000, 4.000000, 4.000000
66.000000, 0.000000, 4202.563965, 4229.743652, 4191.794922, 4192.307617, 4190.769043, 4186.153809, 4198.974121, 4183.076660, 4201.025391, 4210.256348, 4197.948730, 4185.641113, 4192.820313, 4198.461426, 3566.000000, 8197.000000, 8148.000000, 0.000000, 0.000000, 0.000000, -20834.000000, 597.435913, 4.000000, 4.000000, 4.000000, 4.000000, 4.000000, 4.000000, 4.000000, 4.000000, 0.000000, 4.000000, 4.000000, 4.000000, 4.000000, 4.000000, 4.000000, 4.000000
67.000000, 0.000000, 4210.256348, 4240.512695, 4196.922852, 4194.871582, 4202.051270, 4189.743652, 4200.000000, 4176.410156, 4201.025391, 4200.000000, 4194.871582, 4184.615234, 4166.153809, 4197.948730, 2349.000000, 8193.000000, 8164.000000, 0.000000, 0.000000, 0.000000, -20834.000000, 605.640991, 4.000000, 4.000000, 4.000000, 4.000000, 4.000000, 4.000000, 4.000000, 4.000000, 0.000000, 4.000000, 4.000000, 4.000000, 4.000000, 4.000000, 4.000000, 4.000000
68.000000, 0.000000, 4216.922852, 4255.384277, 4201.538574, 4203.589844, 4211.281738, 4192.820313, 4198.461426, 4191.281738, 4200.512695, 4203.076660, 4190.769043, 4185.641113, 4155.384277, 4202.051270, 3549.000000, 8193.000000, 8164.000000, 0.000000, 0.000000, 0.000000, -20834.000000, 613.333313, 4.000000, 4.000000, 4.000000, 4.000000, 4.000000, 4.000000, 4.000000, 4.000000, 0.000000, 4.000000, 4.000000, 4.000000, 4.000000, 4.000000, 4.000000, 4.000000
69.000000, 0.000000, 4213.846191, 4263.589844, 4198.974121, 4208.205078, 4209.230469, 4188.205078, 4199.487305, 4197.436035, 4201.025391, 4204.615234, 4188.205078, 4185.641113, 4146.153809, 4202.051270, 3576.000000, 8182.000000, 8172.000000, 0.000000, 0.000000, 0.000000, -20834.000000, 621.538452, 4.000000, 4.000000, 4.000000, 4.000000, 4.000000, 4.000000, 4.000000, 4.000000, 0.000000, 4.000000, 4.000000, 4.000000, 4.000000, 4.000000, 4.000000, 4.000000
70.000000, 0.000000, 4212.307617, 4263.076660, 4195.897461, 4210.769043, 4207.179199, 4186.666504, 4201.538574, 4189.743652, 4201.025391, 4201.538574, 4192.307617, 4185.641113, 4138.461426, 4203.589844, 3402.000000, 8182.000000, 8172.000000, 0.000000, 0.000000, 0.000000, -20834.000000, 629.743591, 4.000000, 4.000000, 4.000000, 4.000000, 4.000000, 4.000000, 4.000000, 4.000000, 0.000000, 4.000000, 4.000000, 4.000000, 4.000000, 4.000000, 4.000000, 4.000000
71.000000, 0.000000, 4214.358887, 4268.717773, 4200.512695, 4213.846191, 4205.127930, 4188.205078, 4191.281738, 4185.641113, 4201.025391, 4200.000000, 4197.436035, 4184.615234, 4138.461426, 4209.230469, 3503.000000, 8185.000000, 8168.000000, 0.000000, 0.000000, 0.000000, -20834.000000, 637.435852, 4.000000, 4.000000, 4.000000, 4.000000, 4.000000, 4.000000, 4.000000, 4.000000, 0.000000, 4.000000, 4.000000, 4.000000, 4.000000, 4.000000, 4.000000, 4.000000
72.000000, 0.000000, 4215.897461, 4274.358887, 4201.025391, 4211.281738, 4203.589844, 4185.641113, 4185.641113, 4184.615234, 4200.512695, 4198.974121, 4197.948730, 4185.127930, 4140.000000, 4215.384277, 21.000000, 8185.000000, 8168.000000, 0.000000, 0.000000, 0.000000, -20834.000000, 645.640991, 4.000000, 4.000000, 4.000000, 4.000000, 4.000000, 4.000000, 4.000000, 4.000000, 0.000000, 4.000000, 4.000000, 4.000000, 4.000000, 4.000000, 4.000000, 4.000000
73.000000, 0.000000, 4215.384277, 4270.769043, 4199.487305, 4205.127930, 4206.153809, 4188.205078, 4196.922852, 4185.641113, 4200.000000, 4197.948730, 4198.974121, 4191.794922, 4144.615234, 4223.076660, 3053.000000, 8180.000000, 8171.000000, 0.000000, 0.000000, 0.000000, -20834.000000, 653.333313, 4.000000, 4.000000, 4.000000, 4.000000, 4.000000, 4.000000, 4.000000, 4.000000, 0.000000, 4.000000, 4.000000, 4.000000, 4.000000, 4.000000, 4.000000, 4.000000
74.000000, 0.000000, 4215.384277, 4271.281738, 4202.051270, 4208.205078, 4212.820313, 4198.974121, 4204.102539, 4194.871582, 4200.000000, 4202.051270, 4205.641113, 4200.512695, 4157.948730, 4231.281738, 3590.000000, 8180.000000, 8171.000000, 0.000000, 0.000000, 0.000000, -20834.000000, 661.538452, 4.000000, 4.000000, 4.000000, 4.000000, 4.000000, 4.000000, 4.000000, 4.000000, 0.000000, 4.000000, 4.000000, 4.000000, 4.000000, 4.000000, 4.000000, 4.000000
75.000000, 0.000000, 4218.461426, 4273.333008, 4202.563965, 4215.384277, 4220.000000, 4204.615234, 4205.127930, 4211.281738, 4201.025391, 4207.179199, 4213.846191, 4207.179199, 4171.281738, 4235.897461, 3572.000000, 8188.000000, 8162.000000, 0.000000, 0.000000, 0.000000, -20834.000000, 669.230774, 4.000000, 4.000000, 4.000000, 4.000000, 4.000000, 4.000000, 4.000000, 4.000000, 0.000000, 4.000000, 4.000000, 4.000000, 4.000000, 4.000000, 4.000000, 4.000000
76.000000, 0.000000, 4219.487305, 4271.281738, 4202.051270, 4214.358887, 4217.436035, 4201.025391, 4215.897461, 4214.871582, 4201.538574, 4204.102539, 4211.794922, 4207.179199, 4171.794922, 4235.384277, 3523.000000, 8188.000000, 8162.000000, 0.000000, 0.000000, 0.000000, -20834.000000, 677.435852, 4.000000, 4.000000, 4.000000, 4.000000, 4.000000, 4.000000, 4.000000, 4.000000, 0.000000, 4.000000, 4.000000, 4.000000, 4.000000, 4.000000, 4.000000, 4.000000
77.000000, 0.000000, 4212.307617, 4267.179199, 4202.051270, 4209.230469, 4204.615234, 4199.487305, 4218.974121, 4205.641113, 4200.000000, 4198.974121, 4202.563965, 4203.076660, 4165.127930, 4228.205078, 3447.000000, 8192.000000, 8148.000000, 0.000000, 0.000000, 0.000000, -20834.000000, 685.128174, 4.000000, 4.000000, 4.000000, 4.000000, 4.000000, 4.000000, 4.000000, 4.000000, 0.000000, 4.000000, 4.000000, 4.000000, 4.000000, 4.000000, 4.000000, 4.000000
78.000000, 0.000000, 4209.230469, 4268.205078, 4202.051270, 4207.179199, 4197.948730, 4201.538574, 4203.589844, 4201.025391, 4200.512695, 4201.025391, 4199.487305, 4198.461426, 4167.179199, 4218.974121, 3590.000000, 8192.000000, 8148.000000, 0.000000, 0.000000, 0.000000, -20834.000000, 693.333313, 4.000000, 4.000000, 4.000000, 4.000000, 4.000000, 4.000000, 4.000000, 4.000000, 0.000000, 4.000000, 4.000000, 4.000000, 4.000000, 4.000000, 4.000000, 4.000000
79.000000, 0.000000, 4211.281738, 4269.230469, 4201.538574, 4204.102539, 4204.615234, 4198.974121, 4202.051270, 4202.563965, 4200.512695, 4201.538574, 4197.948730, 4194.871582, 4170.769043, 4214.871582, 3572.000000, 8192.000000, 8143.000000, 0.000000, 0.000000, 0.000000, -20834.000000, 701.538452, 4.000000, 4.000000, 4.000000, 4.000000, 4.000000, 4.000000, 4.000000, 4.000000, 0.000000, 4.000000, 4.000000, 4.000000, 4.000000, 4.000000, 4.000000, 4.000000
80.000000, 0.000000, 4204.615234, 4257.948730, 4199.487305, 4197.948730, 4209.743652, 4196.922852, 4217.948730, 4200.512695, 4200.000000, 4192.820313, 4189.743652, 4190.769043, 4161.538574, 4213.846191, 3523.000000, 8192.000000, 8143.000000, 0.000000, 0.000000, 0.000000, -20834.000000, 709.230774, 4.000000, 4.000000, 4.000000, 4.000000, 4.000000, 4.000000, 4.000000, 4.000000, 0.000000, 4.000000, 4.000000, 4.000000, 4.000000, 4.000000, 4.000000, 4.000000
81.000000, 0.000000, 4196.922852, 4254.871582, 4198.974121, 4196.410156, 4206.153809, 4200.512695, 4217.436035, 4199.487305, 4201.025391, 4186.666504, 4185.641113, 4189.743652, 4157.436035, 4211.794922, 3447.000000, 8201.000000, 8138.000000, 0.000000, 0.000000, 0.000000, -20834.000000, 717.435852, 4.000000, 4.000000, 4.000000, 4.000000, 4.000000, 4.000000, 4.000000, 4.000000, 0.000000, 4.000000, 4.000000, 4.000000, 4.000000, 4.000000, 4.000000, 4.000000
82.000000, 0.000000, 4206.666504, 4268.717773, 4201.538574, 4206.153809, 4207.179199, 4201.538574, 4204.102539, 4200.512695, 4201.025391, 4188.205078, 4188.205078, 4188.717773, 4172.820313, 4213.846191, 3590.000000, 8201.000000, 8138.000000, 0.000000, 0.000000, 0.000000, -20834.000000, 725.128174, 4.000000, 4.000000, 4.000000, 4.000000, 4.000000, 4.000000, 4.000000, 4.000000, 0.000000, 4.000000, 4.000000, 4.000000, 4.000000, 4.000000, 4.000000, 4.000000
83.000000, 0.000000, 4220.000000, 4273.846191, 4202.051270, 4216.410156, 4211.281738, 4191.794922, 4198.461426, 4190.256348, 4200.000000, 4187.692383, 4187.692383, 4186.666504, 4183.589844, 4216.410156, 3572.000000, 8209.000000, 8128.000000, 0.000000, 0.000000, 0.000000, -20834.000000, 733.333313, 4.000000, 4.000000, 4.000000, 4.000000, 4.000000, 4.000000, 4.000000, 4.000000, 0.000000, 4.000000, 4.000000, 4.000000, 4.000000, 4.000000, 4.000000, 4.000000
84.000000, 0.000000, 4220.000000, 4273.333008, 4205.641113, 4216.922852, 4213.333008, 4187.692383, 4198.461426, 4178.461426, 4198.974121, 4189.230469, 4187.692383, 4186.153809, 4182.563965, 4214.871582, 3523.000000, 8209.000000, 8128.000000, 0.000000, 0.000000, 0.000000, -20834.000000, 741.025635, 4.000000, 4.000000, 4.000000, 4.000000, 4.000000, 4.000000, 4.000000, 4.000000, 0.000000, 4.000000, 4.000000, 4.000000, 4.000000, 4.000000, 4.000000, 4.000000
85.000000, 0.000000, 4218.461426, 4275.384277, 4210.256348, 4215.897461, 4216.410156, 4196.922852, 4200.000000, 4184.615234, 4200.000000, 4198.974121, 4195.384277, 4187.179199, 4192.307617, 4216.922852, 3447.000000, 8210.000000, 8126.000000, 0.000000, 0.000000, 0.000000, -20834.000000, 749.230774, 4.000000, 4.000000, 4.000000, 4.000000, 4.000000, 4.000000, 4.000000, 4.000000, 0.000000, 4.000000, 4.000000, 4.000000, 4.000000, 4.000000, 4.000000, 4.000000
86.000000, 0.000000, 4220.000000, 4273.846191, 4207.179199, 4216.410156, 4216.922852, 4203.076660, 4202.563965, 4194.871582, 4200.512695, 4204.615234, 4200.000000, 4188.717773, 4203.076660, 4217.436035, 3590.000000, 8210.000000, 8126.000000, 0.000000, 0.000000, 0.000000, -20834.000000, 757.435852, 4.000000, 4.000000, 4.000000, 4.000000, 4.000000, 4.000000, 4.000000, 4.000000, 0.000000, 4.000000, 4.000000, 4.000000, 4.000000, 4.000000, 4.000000, 4.000000
87.000000, 0.000000, 4219.487305, 4270.769043, 4207.179199, 4215.384277, 4215.384277, 4201.538574, 4204.102539, 4197.948730, 4200.000000, 4202.563965, 4200.000000, 4189.743652, 4200.512695, 4214.871582, 3572.000000, 8216.000000, 8117.000000, 0.000000, 0.000000, 0.000000, -20834.000000, 765.128174, 4.000000, 4.000000, 4.000000, 4.000000, 4.000000, 4.000000, 4.000000, 4.000000, 0.000000, 4.000000, 4.000000, 4.000000, 4.000000, 4.000000, 4.000000, 4.000000
88.000000, 0.000000, 4220.000000, 4273.846191, 4209.230469, 4215.897461, 4220.000000, 4204.102539, 4206.666504, 4202.051270, 4200.000000, 4207.179199, 4202.051270, 4194.871582, 4201.538574, 4215.384277, 3523.000000, 8216.000000, 8117.000000, 0.000000, 0.000000, 0.000000, -20834.000000, 773.333313, 4.000000, 4.000000, 4.000000, 4.000000, 4.000000, 4.000000, 4.000000, 4.000000, 0.000000, 4.000000, 4.000000, 4.000000, 4.000000, 4.000000, 4.000000, 4.000000
89.000000, 0.000000, 4218.974121, 4271.794922, 4208.717773, 4216.410156, 4218.974121, 4204.102539, 4204.615234, 4200.000000, 4200.512695, 4213.846191, 4203.076660, 4200.512695, 4203.589844, 4216.410156, 3447.000000, 8222.000000, 8113.000000, 0.000000, 0.000000, 0.000000, -20834.000000, 781.025635, 4.000000, 4.000000, 4.000000, 4.000000, 4.000000, 4.000000, 4.000000, 4.000000, 0.000000, 4.000000, 4.000000, 4.000000, 4.000000, 4.000000, 4.000000, 4.000000
90.000000, 0.000000, 4218.461426, 4266.153809, 4210.256348, 4215.897461, 4210.256348, 4198.461426, 4201.538574, 4197.948730, 4202.051270, 4212.307617, 4203.076660, 4201.538574, 4202.051270, 4215.384277, 3590.000000, 8222.000000, 8113.000000, 0.000000, 0.000000, 0.000000, -20834.000000, 789.230774, 4.000000, 4.000000, 4.000000, 4.000000, 4.000000, 4.000000, 4.000000, 4.000000, 0.000000, 4.000000, 4.000000, 4.000000, 4.000000, 4.000000, 4.000000, 4.000000
91.000000, 0.000000, 4223.589844, 4269.743652, 4211.281738, 4216.922852, 4210.769043, 4204.102539, 4210.256348, 4210.769043, 4201.025391, 4213.846191, 4204.615234, 4202.051270, 4209.743652, 4215.897461, 3572.000000, 8225.000000, 8115.000000, 0.000000, 0.000000, 0.000000, -20834.000000, 796.923035, 4.000000, 4.000000, 4.000000, 4.000000, 4.000000, 4.000000, 4.000000, 4.000000, 0.000000, 4.000000, 4.000000, 4.000000, 4.000000, 4.000000, 4.000000, 4.000000
92.000000, 0.000000, 4224.615234, 4267.692383, 4208.717773, 4216.922852, 4220.000000, 4216.922852, 4221.025391, 4215.897461, 4200.512695, 4219.487305, 4203.589844, 4205.641113, 4219.487305, 4216.922852, 3523.000000, 8225.000000, 8115.000000, 0.000000, 0.000000, 0.000000, -20834.000000, 805.128174, 4.000000, 4.000000, 4.000000, 4.000000, 4.000000, 4.000000, 4.000000, 4.000000, 0.000000, 4.000000, 4.000000, 4.000000, 4.000000, 4.000000, 4.000000, 4.000000
93.000000, 0.000000, 4217.436035, 4261.538574, 4204.615234, 4209.230469, 4217.436035, 4212.820313, 4216.922852, 4202.563965, 4202.563965, 4218.461426, 4203.589844, 4203.076660, 4218.974121, 4216.410156, 3447.000000, 8225.000000, 8101.000000, 0.000000, 0.000000, 0.000000, -20834.000000, 812.820496, 4.000000, 4.000000, 4.000000, 4.000000, 4.000000, 4.000000, 4.000000, 4.000000, 0.000000, 4.000000, 4.000000, 4.000000, 4.000000, 4.000000, 4.000000, 4.000000
94.000000, 0.000000, 4214.871582, 4261.538574, 4203.589844, 4202.563965, 4209.743652, 4201.025391, 4210.769043, 4203.589844, 4204.615234, 4221.025391, 4209.743652, 4198.974121, 4223.589844, 4215.897461, 3590.000000, 8225.000000, 8101.000000, 0.000000, 0.000000, 0.000000, -20834.000000, 821.025635, 4.000000, 4.000000, 4.000000, 4.000000, 4.000000, 4.000000, 4.000000, 4.000000, 0.000000, 4.000000, 4.000000, 4.000000, 4.000000, 4.000000, 4.000000, 4.000000
95.000000, 0.000000, 4217.948730, 4263.589844, 4200.000000, 4202.051270, 4214.358887, 4207.179199, 4214.358887, 4219.487305, 4205.127930, 4233.846191, 4217.948730, 4201.025391, 4236.410156, 4216.922852, 3572.000000, 8234.000000, 8098.000000, 0.000000, 0.000000, 0.000000, -20834.000000, 828.717957, 4.000000, 4.000000, 4.000000, 4.000000, 4.000000, 4.000000, 4.000000, 4.000000, 0.000000, 4.000000, 4.000000, 4.000000, 4.000000, 4.000000, 4.000000, 4.000000
96.000000, 0.000000, 4217.436035, 4267.179199, 4199.487305, 4205.641113, 4219.487305, 4218.461426, 4220.512695, 4222.051270, 4202.051270, 4233.333008, 4216.922852, 4199.487305, 4236.410156, 4214.358887, 3523.000000, 8234.000000, 8098.000000, 0.000000, 0.000000, 0.000000, -20834.000000, 836.923035, 4.000000, 4.000000, 4.000000, 4.000000, 4.000000, 4.000000, 4.000000, 4.000000, 0.000000, 4.000000, 4.000000, 4.000000, 4.000000, 4.000000, 4.000000, 4.000000
97.000000, 0.000000, 4217.948730, 4267.179199, 4207.179199, 4205.641113, 4216.922852, 4211.281738, 4221.025391, 4217.948730, 4198.974121, 4218.974121, 4199.487305, 4189.230469, 4216.922852, 4200.512695, 3447.000000, 8242.000000, 8099.000000, 0.000000, 0.000000, 0.000000, -20834.000000, 845.128174, 4.000000, 4.000000, 4.000000, 4.000000, 4.000000, 4.000000, 4.000000, 4.000000, 0.000000, 4.000000, 4.000000, 4.000000, 4.000000, 4.000000, 4.000000, 4.000000
98.000000, 0.000000, 4220.000000, 4264.615234, 4211.281738, 4207.179199, 4213.846191, 4203.076660, 4216.922852, 4213.846191, 4200.512695, 4212.820313, 4184.102539, 4183.589844, 4202.051270, 4191.281738, 3590.000000, 8242.000000, 8099.000000, 0.000000, 0.000000, 0.000000, -20834.000000, 852.820496, 4.000000, 4.000000, 4.000000, 4.000000, 4.000000, 4.000000, 4.000000, 4.000000, 0.000000, 4.000000, 4.000000, 4.000000, 4.000000, 4.000000, 4.000000, 4.000000
99.000000, 0.000000, 4219.487305, 4267.179199, 4207.179199, 4212.307617, 4216.410156, 4210.769043, 4223.076660, 4211.281738, 4202.051270, 4215.897461, 4189.743652, 4190.769043, 4201.025391, 4196.922852, 3572.000000, 8245.000000, 8101.000000, 0.000000, 0.000000, 0.000000, -20834.000000, 861.025635, 4.000000, 4.000000, 4.000000, 4.000000, 4.000000, 4.000000, 4.000000, 4.000000, 0.000000, 4.000000, 4.000000, 4.000000, 4.000000, 4.000000, 4.000000, 4.000000
100.000000, 0.000000, 4220.000000, 4270.256348, 4201.538574, 4211.281738, 4213.333008, 4220.000000, 4232.820313, 4216.922852, 4200.000000, 4216.922852, 4201.025391, 4201.538574, 4202.563965, 4202.563965, 3523.000000, 8245.000000, 8101.000000, 0.000000, 0.000000, 0.000000, -20834.000000, 868.717957, 4.000000, 4.000000, 4.000000, 4.000000, 4.000000, 4.000000, 4.000000, 4.000000, 0.000000, 4.000000, 4.000000, 4.000000, 4.000000, 4.000000, 4.000000, 4.000000
101.000000, 0.000000, 4214.358887, 4270.769043, 4200.000000, 4205.127930, 4207.179199, 4215.897461, 4225.641113, 4213.333008, 4198.461426, 4217.948730, 4201.025391, 4199.487305, 4199.487305, 4198.461426, 3447.000000, 8242.000000, 8107.000000, 0.000000, 0.000000, 0.000000, -20834.000000, 876.923035, 4.000000, 4.000000, 4.000000, 4.000000, 4.000000, 4.000000, 4.000000, 4.000000, 0.000000, 4.000000, 4.000000, 4.000000, 4.000000, 4.000000, 4.000000, 4.000000
102.000000, 0.000000, 4202.563965, 4267.179199, 4194.358887, 4200.512695, 4206.666504, 4204.102539, 4214.871582, 4200.512695, 4199.487305, 4215.384277, 4194.358887, 4187.692383, 4193.846191, 4189.230469, 3590.000000, 8242.000000, 8107.000000, 0.000000, 0.000000, 0.000000, -20834.000000, 884.615356, 4.000000, 4.000000, 4.000000, 4.000000, 4.000000, 4.000000, 4.000000, 4.000000, 0.000000, 4.000000, 4.000000, 4.000000, 4.000000, 4.000000, 4.000000, 4.000000
103.000000, 0.000000, 4197.436035, 4260.000000, 4194.358887, 4198.461426, 4209.230469, 4198.461426, 4213.333008, 4196.922852, 4200.000000, 4212.820313, 4190.769043, 4184.102539, 4193.333008, 4184.615234, 3572.000000, 8238.000000, 8108.000000, 0.000000, 0.000000, 0.000000, -20834.000000, 892.820496, 4.000000, 4.000000, 4.000000, 4.000000, 4.000000, 4.000000, 4.000000, 4.000000, 0.000000, 4.000000, 4.000000, 4.000000, 4.000000, 4.000000, 4.000000, 4.000000
104.000000, 0.000000, 4200.512695, 4263.076660, 4202.563965, 4198.974121, 4206.666504, 4197.948730, 4209.743652, 4200.000000, 4200.000000, 4213.333008, 4188.717773, 4188.205078, 4198.461426, 4190.256348, 3523.000000, 8238.000000, 8108.000000, 0.000000, 0.000000, 0.000000, -20834.000000, 900.512817, 4.000000, 4.000000, 4.000000, 4.000000, 4.000000, 4.000000, 4.000000, 4.000000, 0.000000, 4.000000, 4.000000, 4.000000, 4.000000, 4.000000, 4.000000, 4.000000
105.000000, 0.000000, 4206.153809, 4271.794922, 4201.025391, 4201.538574, 4203.589844, 4194.358887, 4201.538574, 4198.461426, 4200.512695, 4214.871582, 4187.692383, 4188.205078, 4201.025391, 4197.436035, 3447.000000, 8235.000000, 8115.000000, 0.000000, 0.000000, 0.000000, -20834.000000, 908.717957, 4.000000, 4.000000, 4.000000, 4.000000, 4.000000, 4.000000, 4.000000, 4.000000, 0.000000, 4.000000, 4.000000, 4.000000, 4.000000, 4.000000, 4.000000, 4.000000
106.000000, 0.000000, 4210.256348, 4269.230469, 4195.384277, 4200.000000, 4208.205078, 4191.794922, 4200.000000, 4196.410156, 4201.025391, 4214.358887, 4192.820313, 4190.256348, 4200.512695, 4198.461426, 3590.000000, 8235.000000, 8115.000000, 0.000000, 0.000000, 0.000000, -20834.000000, 916.923035, 4.000000, 4.000000, 4.000000, 4.000000, 4.000000, 4.000000, 4.000000, 4.000000, 0.000000, 4.000000, 4.000000, 4.000000, 4.000000, 4.000000, 4.000000, 4.000000
107.000000, 0.000000, 4214.871582, 4271.794922, 4203.589844, 4202.051270, 4215.384277, 4196.922852, 4202.563965, 4190.769043, 4201.538574, 4213.846191, 4200.000000, 4198.461426, 4207.692383, 4204.615234, 3572.000000, 8230.000000, 8115.000000, 0.000000, 0.000000, 0.000000, -20834.000000, 924.615356, 4.000000, 4.000000, 4.000000, 4.000000, 4.000000, 4.000000, 4.000000, 4.000000, 0.000000, 4.000000, 4.000000, 4.000000, 4.000000, 4.000000, 4.000000, 4.000000
108.000000, 0.000000, 4223.589844, 4279.487305, 4211.794922, 4213.333008, 4216.922852, 4200.000000, 4198.461426, 4180.512695, 4201.025391, 4214.358887, 4202.051270, 4201.025391, 4216.922852, 4213.846191, 3523.000000, 8230.000000, 8115.000000, 0.000000, 0.000000, 0.000000, -20834.000000, 932.820496, 4.000000, 4.000000, 4.000000, 4.000000, 4.000000, 4.000000, 4.000000, 4.000000, 0.000000, 4.000000, 4.000000, 4.000000, 4.000000, 4.000000, 4.000000, 4.000000
109.000000, 0.000000, 4229.230469, 4277.948730, 4206.666504, 4217.948730, 4215.384277, 4197.436035, 4197.436035, 4185.127930, 4201.025391, 4215.384277, 4197.948730, 4197.948730, 4215.897461, 4213.846191, 3447.000000, 8228.000000, 8113.000000, 0.000000, 0.000000, 0.000000, -20834.000000, 940.512817, 4.000000, 4.000000, 4.000000, 4.000000, 4.000000, 4.000000, 4.000000, 4.000000, 0.000000, 4.000000, 4.000000, 4.000000, 4.000000, 4.000000, 4.000000, 4.000000
110.000000, 0.000000, 4229.230469, 4276.922852, 4201.025391, 4214.871582, 4222.563965, 4201.025391, 4206.153809, 4202.051270, 4202.051270, 4221.538574, 4198.461426, 4198.461426, 4217.436035, 4212.820313, 3590.000000, 8228.000000, 8113.000000, 0.000000, 0.000000, 0.000000, -20834.000000, 948.717896, 4.000000, 4.000000, 4.000000, 4.000000, 4.000000, 4.000000, 4.000000, 4.000000, 0.000000, 4.000000, 4.000000, 4.000000, 4.000000, 4.000000, 4.000000, 4.000000
111.000000, 0.000000, 4229.743652, 4284.102539, 4202.563965, 4217.436035, 4225.641113, 4205.641113, 4214.871582, 4208.717773, 4202.051270, 4228.717773, 4203.076660, 4196.922852, 4225.641113, 4214.871582, 3572.000000, 8228.000000, 8108.000000, 0.000000, 0.000000, 0.000000, -20834.000000, 956.410217, 4.000000, 4.000000, 4.000000, 4.000000, 4.000000, 4.000000, 4.000000, 4.000000, 0.000000, 4.000000, 4.000000, 4.000000, 4.000000, 4.000000, 4.000000, 4.000000
112.000000, 0.000000, 4229.743652, 4283.589844, 4203.076660, 4217.436035, 4213.333008, 4204.102539, 4217.436035, 4201.025391, 4201.025391, 4231.281738, 4203.589844, 4190.769043, 4227.692383, 4212.307617, 3523.000000, 8228.000000, 8108.000000, 0.000000, 0.000000, 0.000000, -20834.000000, 964.615356, 4.000000, 4.000000, 4.000000, 4.000000, 4.000000, 4.000000, 4.000000, 4.000000, 0.000000, 4.000000, 4.000000, 4.000000, 4.000000, 4.000000, 4.000000, 4.000000
113.000000, 0.000000, 4224.615234, 4275.897461, 4201.025391, 4213.333008, 4217.948730, 4206.153809, 4213.846191, 4204.615234, 4201.025391, 4231.794922, 4204.615234, 4191.794922, 4230.769043, 4208.205078, 3447.000000, 8230.000000, 8105.000000, 0.000000, 0.000000, 0.000000, -20834.000000, 972.820496, 4.000000, 4.000000, 4.000000, 4.000000, 4.000000, 4.000000, 4.000000, 4.000000, 0.000000, 4.000000, 4.000000, 4.000000, 4.000000, 4.000000, 4.000000, 4.000000
114.000000, 0.000000, 4216.922852, 4277.948730, 4203.076660, 4213.846191, 4233.333008, 4209.743652, 4206.153809, 4208.205078, 4202.051270, 4231.281738, 4204.102539, 4193.333008, 4231.281738, 4204.615234, 3590.000000, 8230.000000, 8105.000000, 0.000000, 0.000000, 0.000000, -20834.000000, 980.512817, 4.000000, 4.000000, 4.000000, 4.000000, 4.000000, 4.000000, 4.000000, 4.000000, 0.000000, 4.000000, 4.000000, 4.000000, 4.000000, 4.000000, 4.000000, 4.000000
115.000000, 0.000000, 4214.358887, 4283.076660, 4200.512695, 4215.384277, 4230.769043, 4205.641113, 4204.102539, 4191.794922, 4201.538574, 4229.743652, 4197.948730, 4187.179199, 4219.487305, 4199.487305, 3572.000000, 8232.000000, 8093.000000, 0.000000, 0.000000, 0.000000, -20834.000000, 988.717896, 4.000000, 4.000000, 4.000000, 4.000000, 4.000000, 4.000000, 4.000000, 4.000000, 0.000000, 4.000000, 4.000000, 4.000000, 4.000000, 4.000000, 4.000000, 4.000000
116.000000, 0.000000, 4226.153809, 4281.538574, 4197.948730, 4217.436035, 4225.641113, 4203.076660, 4212.307617, 4188.717773, 4200.512695, 4230.769043, 4197.436035, 4185.641113, 4220.000000, 4200.512695, 3523.000000, 8232.000000, 8093.000000, 0.000000, 0.000000, 0.000000, -20834.000000, 996.410217, 4.000000, 4.000000, 4.000000, 4.000000, 4.000000, 4.000000, 4.000000, 4.000000, 0.000000, 4.000000, 4.000000, 4.000000, 4.000000, 4.000000, 4.000000, 4.000000
117.000000, 0.000000, 4235.384277, 4284.102539, 4203.076660, 4220.512695, 4229.743652, 4203.589844, 4217.948730, 4204.615234, 4201.538574, 4232.820313, 4202.563965, 4186.153809, 4235.897461, 4205.641113, 3447.000000, 8231.000000, 8054.000000, 0.000000, 0.000000, 0.000000, -20833.000000, 4.615385, 4.000000, 4.000000, 4.000000, 4.000000, 4.000000, 4.000000, 4.000000, 4.000000, 0.000000, 4.000000, 4.000000, 4.000000, 4.000000, 4.000000, 4.000000, 4.000000
118.000000, 0.000000, 4223.589844, 4285.641113, 4198.461426, 4217.436035, 4230.256348, 4204.102539, 4215.897461, 4204.615234, 4201.538574, 4232.307617, 4195.897461, 4174.871582, 4237.948730, 4198.461426, 3590.000000, 8231.000000, 8054.000000, 0.000000, 0.000000, 0.000000, -20833.000000, 12.307692, 4.000000, 4.000000, 4.000000, 4.000000, 4.000000, 4.000000, 4.000000, 4.000000, 0.000000, 4.000000, 4.000000, 4.000000, 4.000000, 4.000000, 4.000000, 4.000000
119.000000, 0.000000, 4210.256348, 4282.563965, 4184.102539, 4209.230469, 4227.692383, 4209.230469, 4215.384277, 4196.922852, 4200.000000, 4232.820313, 4190.769043, 4167.179199, 4236.410156, 4190.256348, 3572.000000, 8235.000000, 8032.000000, 0.000000, 0.000000, 0.000000, -20833.000000, 20.512819, 4.000000, 4.000000, 4.000000, 4.000000, 4.000000, 4.000000, 4.000000, 4.000000, 0.000000, 4.000000, 4.000000, 4.000000, 4.000000, 4.000000, 4.000000, 4.000000
120.000000, 0.000000, 4214.871582, 4284.615234, 4183.589844, 4212.820313, 4226.153809, 4211.281738, 4213.846191, 4203.076660, 4200.000000, 4235.384277, 4200.000000, 4172.307617, 4250.769043, 4196.410156, 3523.000000, 8235.000000, 8032.000000, 0.000000, 0.000000, 0.000000, -20833.000000, 28.205128, 4.000000, 4.000000, 4.000000, 4.000000, 4.000000, 4.000000, 4.000000, 4.000000, 0.000000, 4.000000, 4.000000, 4.000000, 4.000000, 4.000000, 4.000000, 4.000000
121.000000, 0.000000, 4216.922852, 4287.692383, 4191.281738, 4216.922852, 4220.512695, 4204.615234, 4206.153809, 4204.102539, 4200.000000, 4233.846191, 4196.410156, 4173.333008, 4240.000000, 4191.794922, 3447.000000, 8237.000000, 8002.000000, 0.000000, 0.000000, 0.000000, -20833.000000, 36.410255, 4.000000, 4.000000, 4.000000, 4.000000, 4.000000, 4.000000, 4.000000, 4.000000, 0.000000, 4.000000, 4.000000, 4.000000, 4.000000, 4.000000, 4.000000, 4.000000
122.000000, 0.000000, 4205.127930, 4280.512695, 4192.307617, 4207.179199, 4216.922852, 4199.487305, 4201.025391, 4187.692383, 4199.487305, 4228.717773, 4177.948730, 4168.205078, 4214.871582, 4175.897461, 3590.000000, 8237.000000, 8002.000000, 0.000000, 0.000000, 0.000000, -20833.000000, 44.615383, 4.000000, 4.000000, 4.000000, 4.000000, 4.000000, 4.000000, 4.000000, 4.000000, 0.000000, 4.000000, 4.000000, 4.000000, 4.000000, 4.000000, 4.000000, 4.000000
123.000000, 0.000000, 4205.641113, 4278.974121, 4192.820313, 4206.153809, 4217.948730, 4201.538574, 4203.076660, 4184.615234, 4200.512695, 4226.666504, 4181.538574, 4169.743652, 4229.743652, 4183.076660, 3572.000000, 8239.000000, 7996.000000, 0.000000, 0.000000, 0.000000, -20833.000000, 52.307690, 4.000000, 4.000000, 4.000000, 4.000000, 4.000000, 4.000000, 4.000000, 4.000000, 0.000000, 4.000000, 4.000000, 4.000000, 4.000000, 4.000000, 4.000000, 4.000000
124.000000, 0.000000, 4218.461426, 4286.153809, 4191.281738, 4215.384277, 4219.487305, 4202.051270, 4198.974121, 4198.974121, 4202.563965, 4230.256348, 4199.487305, 4178.461426, 4257.436035, 4200.512695, 3523.000000, 8239.000000, 7996.000000, 0.000000, 0.000000, 0.000000, -20833.000000, 60.512817, 4.000000, 4.000000, 4.000000, 4.000000, 4.000000, 4.000000, 4.000000, 4.000000, 0.000000, 4.000000, 4.000000, 4.000000, 4.000000, 4.000000, 4.000000, 4.000000
125.000000, 0.000000, 4222.051270, 4284.102539, 4192.820313, 4210.256348, 4213.333008, 4196.410156, 4188.717773, 4198.461426, 4201.025391, 4232.307617, 4199.487305, 4184.102539, 4261.025391, 4203.076660, 3447.000000, 8245.000000, 7986.000000, 0.000000, 0.000000, 0.000000, -20833.000000, 68.205124, 4.000000, 4.000000, 4.000000, 4.000000, 4.000000, 4.000000, 4.000000, 4.000000, 0.000000, 4.000000, 4.000000, 4.000000, 4.000000, 4.000000, 4.000000, 4.000000
126.000000, 0.000000, 4218.974121, 4275.897461, 4195.897461, 4201.025391, 4206.153809, 4190.769043, 4186.666504, 4180.512695, 4198.974121, 4232.307617, 4198.461426, 4185.641113, 4262.051270, 4207.692383, 3590.000000, 8245.000000, 7986.000000, 0.000000, 0.000000, 0.000000, -20833.000000, 76.410255, 4.000000, 4.000000, 4.000000, 4.000000, 4.000000, 4.000000, 4.000000, 4.000000, 0.000000, 4.000000, 4.000000, 4.000000, 4.000000, 4.000000, 4.000000, 4.000000
127.000000, 0.000000, 4219.487305, 4271.794922, 4195.897461, 4199.487305, 4203.076660, 4186.666504, 4186.153809, 4180.512695, 4200.512695, 4230.769043, 4203.589844, 4186.666504, 4273.333008, 4211.281738, 57.000000, 8248.000000, 7991.000000, 0.000000, 0.000000, 0.000000, -20833.000000, 84.102562, 4.000000, 4.000000, 4.000000, 4.000000, 4.000000, 4.000000, 4.000000, 4.000000, 0.000000, 4.000000, 4.000000, 4.000000, 4.000000, 4.000000, 4.000000, 4.000000
0.000000, 0.000000, 4218.461426, 4262.563965, 4190.256348, 4192.307617, 4193.333008, 4186.666504, 4186.666504, 4189.230469, 4201.538574, 4229.230469, 4201.025391, 4183.076660, 4274.358887, 4205.127930, 3183.000000, 8248.000000, 7991.000000, 0.000000, 0.000000, 0.000000, -20833.000000, 92.307693, 4.000000, 4.000000, 4.000000, 4.000000, 4.000000, 4.000000, 4.000000, 4.000000, 0.000000, 4.000000, 4.000000, 4.000000, 4.000000, 4.000000, 4.000000, 4.000000
1.000000, 0.000000, 4214.358887, 4261.025391, 4188.205078, 4188.205078, 4191.281738, 4191.281738, 4195.384277, 4190.256348, 4201.025391, 4235.897461, 4203.076660, 4183.076660, 4274.358887, 4207.179199, 3537.000000, 8250.000000, 7998.000000, 0.000000, 0.000000, 0.000000, -20833.000000, 100.512817, 4.000000, 4.000000, 4.000000, 4.000000, 4.000000, 4.000000, 4.000000, 4.000000, 0.000000, 4.000000, 4.000000, 4.000000, 4.000000, 4.000000, 4.000000, 4.000000
2.000000, 0.000000, 4217.948730, 4268.205078, 4200.000000, 4198.974121, 4211.794922, 4199.487305, 4202.563965, 4205.127930, 4201.025391, 4252.820313, 4217.948730, 4196.922852, 4283.589844, 4219.487305, 3566.000000, 8250.000000, 7998.000000, 0.000000, 0.000000, 0.000000, -20833.000000, 108.205124, 4.000000, 4.000000, 4.000000, 4.000000, 4.000000, 4.000000, 4.000000, 4.000000, 0.000000, 4.000000, 4.000000, 4.000000, 4.000000, 4.000000, 4.000000, 4.000000
3.000000, 0.000000, 4223.076660, 4265.127930, 4207.179199, 4202.563965, 4221.538574, 4202.051270, 4199.487305, 4218.974121, 4201.025391, 4263.589844, 4224.102539, 4208.205078, 4289.743652, 4221.025391, 2349.000000, 8261.000000, 8013.000000, 0.000000, 0.000000, 0.000000, -20833.000000, 116.410255, 4.000000, 4.000000, 4.000000, 4.000000, 4.000000, 4.000000, 4.000000, 4.000000, 0.000000, 4.000000, 4.000000, 4.000000, 4.000000, 4.000000, 4.000000, 4.000000
4.000000, 0.000000, 4228.205078, 4263.589844, 4209.743652, 4198.461426, 4210.769043, 4201.025391, 4197.948730, 4205.641113, 4201.538574, 4262.563965, 4218.974121, 4209.743652, 4290.769043, 4220.000000, 3549.000000, 8261.000000, 8013.000000, 0.000000, 0.000000, 0.000000, -20833.000000, 124.102562, 4.000000, 4.000000, 4.000000, 4.000000, 4.000000, 4.000000, 4.000000, 4.000000, 0.000000, 4.000000, 4.000000, 4.000000, 4.000000, 4.000000, 4.000000, 4.000000
5.000000, 0.000000, 4235.384277, 4269.230469, 4218.461426, 4202.563965, 4212.307617, 4203.076660, 4200.512695, 4196.410156, 4201.025391, 4262.051270, 4218.974121, 4214.358887, 4292.820313, 4228.717773, 3576.000000, 8264.000000, 8020.000000, 0.000000, 0.000000, 0.000000, -20833.000000, 132.307693, 4.000000, 4.000000, 4.000000, 4.000000, 4.000000, 4.000000, 4.000000, 4.000000, 0.000000, 4.000000, 4.000000, 4.000000, 4.000000, 4.000000, 4.000000, 4.000000
6.000000, 0.000000, 4245.127930, 4270.769043, 4225.641113, 4210.769043, 4223.589844, 4205.641113, 4201.025391, 4205.127930, 4200.512695, 4265.641113, 4222.563965, 4218.461426, 4296.922852, 4234.358887, 3413.000000, 8264.000000, 8020.000000, 0.000000, 0.000000, 0.000000, -20833.000000, 140.000000, 4.000000, 4.000000, 4.000000, 4.000000, 4.000000, 4.000000, 4.000000, 4.000000, 0.000000, 4.000000, 4.000000, 4.000000, 4.000000, 4.000000, 4.000000, 4.000000
7.000000, 0.000000, 4244.615234, 4269.230469, 4222.051270, 4207.692383, 4214.871582, 4200.512695, 4203.076660, 4205.127930, 4202.051270, 4266.153809, 4218.974121, 4212.307617, 4294.358887, 4232.307617, 3512.000000, 8264.000000, 8047.000000, 0.000000, 0.000000, 0.000000, -20833.000000, 148.205124, 4.000000, 4.000000, 4.000000, 4.000000, 4.000000, 4.000000, 4.000000, 4.000000, 0.000000, 4.000000, 4.000000, 4.000000, 4.000000, 4.000000, 4.000000, 4.000000
8.000000, 0.000000, 4235.384277, 4265.127930, 4211.794922, 4199.487305, 4200.000000, 4189.230469, 4200.512695, 4191.794922, 4201.538574, 4261.025391, 4213.333008, 4209.743652, 4290.769043, 4228.205078, 30.000000, 8264.000000, 8047.000000, 0.000000, 0.000000, 0.000000, -20833.000000, 155.897430, 4.000000, 4.000000, 4.000000, 4.000000, 4.000000, 4.000000, 4.000000, 4.000000, 0.000000, 4.000000, 4.000000, 4.000000, 4.000000, 4.000000, 4.000000, 4.000000
9.000000, 0.000000, 4239.487305, 4264.615234, 4214.358887, 4199.487305, 4200.000000, 4181.025391, 4186.153809, 4183.076660, 4199.487305, 4261.025391, 4220.000000, 4216.922852, 4294.358887, 4233.846191, 3053.000000, 8269.000000, 8058.000000, 0.000000, 0.000000, 0.000000, -20833.000000, 164.102554, 4.000000, 4.000000, 4.000000, 4.000000, 4.000000, 4.000000, 4.000000, 4.000000, 0.000000, 4.000000, 4.000000, 4.000000, 4.000000, 4.000000, 4.000000, 4.000000
10.000000, 0.000000, 4249.743652, 4271.794922, 4222.563965, 4202.563965, 4208.205078, 4183.076660, 4181.538574, 4186.666504, 4200.512695, 4272.307617, 4232.820313, 4220.512695, 4297.948730, 4242.051270, 3590.000000, 8269.000000, 8058.000000, 0.000000, 0.000000, 0.000000, -20833.000000, 172.307693, 4.000000, 4.000000, 4.000000, 4.000000, 4.000000, 4.000000, 4.000000, 4.000000, 0.000000, 4.000000, 4.000000, 4.000000, 4.000000, 4.000000, 4.000000, 4.000000
11.000000, 0.000000, 4249.230469, 4273.846191, 4225.127930, 4209.743652, 4210.256348, 4191.794922, 4194.871582, 4198.974121, 4202.563965, 4277.948730, 4233.333008, 4218.974121, 4299.487305, 4240.512695, 3572.000000, 8270.000000, 8071.000000, 0.000000, 0.000000, 0.000000, -20833.000000, 180.000000, 4.000000, 4.000000, 4.000000, 4.000000, 4.000000, 4.000000, 4.000000, 4.000000, 0.000000, 4.000000, 4.000000, 4.000000, 4.000000, 4.000000, 4.000000, 4.000000
12.000000, 0.000000, 4242.051270, 4270.769043, 4223.076660, 4215.384277, 4210.769043, 4198.974121, 4204.102539, 4201.025391, 4202.051270, 4270.769043, 4222.563965, 4214.358887, 4296.922852, 4232.820313, 3523.000000, 8270.000000, 8071.000000, 0.000000, 0.000000, 0.000000, -20833.000000, 188.205124, 4.000000, 4.000000, 4.000000, 4.000000, 4.000000, 4.000000, 4.000000, 4.000000, 0.000000, 4.000000, 4.000000, 4.000000, 4.000000, 4.000000, 4.000000, 4.000000
13.000000, 0.000000, 4233.333008, 4263.589844, 4212.820313, 4207.692383, 4215.897461, 4200.000000, 4200.000000, 4190.769043, 4201.025391, 4260.512695, 4212.820313, 4205.641113, 4287.179199, 4222.563965, 3447.000000, 8263.000000, 8105.000000, 0.000000, 0.000000, 0.000000, -20833.000000, 195.897430, 4.000000, 4.000000, 4.000000, 4.000000, 4.000000, 4.000000, 4.000000, 4.000000, 0.000000, 4.000000, 4.000000, 4.000000, 4.000000, 4.000000, 4.000000, 4.000000
14.000000, 0.000000, 4223.589844, 4262.563965, 4202.563965, 4197.948730, 4213.333008, 4200.512695, 4197.948730, 4186.666504, 4200.512695, 4250.769043, 4203.076660, 4191.794922, 4273.846191, 4211.794922, 3590.000000, 8263.000000, 8105.000000, 0.000000, 0.000000, 0.000000, -20833.000000, 204.102554, 4.000000, 4.000000, 4.000000, 4.000000, 4.000000, 4.000000, 4.000000, 4.000000, 0.000000, 4.000000, 4.000000, 4.000000, 4.000000, 4.000000, 4.000000, 4.000000
15.000000, 0.000000, 4215.384277, 4257.948730, 4204.615234, 4193.333008, 4201.025391, 4208.717773, 4208.205078, 4194.871582, 4200.512695, 4249.230469, 4196.410156, 4189.743652, 4262.563965, 4206.153809, 3572.000000, 8256.000000, 8113.000000, 0.000000, 0.000000, 0.000000, -20833.000000, 211.794861, 4.000000, 4.000000, 4.000000, 4.000000, 4.000000, 4.000000, 4.000000, 4.000000, 0.000000, 4.000000, 4.000000, 4.000000, 4.000000, 4.000000, 4.000000, 4.000000
16.000000, 0.000000, 4214.358887, 4241.025391, 4216.922852, 4184.615234, 4198.974121, 4218.974121, 4217.948730, 4213.846191, 4201.025391, 4265.641113, 4207.692383, 4206.666504, 4266.153809, 4211.794922, 0.000000, 8256.000000, 8113.000000, 0.000000, 0.000000, 0.000000, -20833.000000, 220.000000, 4.000000, 4.000000, 4.000000, 4.000000, 4.000000, 4.000000, 4.000000, 4.000000, 0.000000, 4.000000, 4.000000, 4.000000, 4.000000, 4.000000, 4.000000, 4.000000
17.000000, 0.000000, 4231.794922, 4244.615234, 4227.179199, 4190.256348, 4211.794922, 4217.436035, 4218.974121, 4227.692383, 4202.563965, 4288.205078, 4228.717773, 4222.563965, 4291.794922, 4229.230469, 0.000000, 8245.000000, 8136.000000, 0.000000, 0.000000, 0.000000, -20833.000000, 228.205124, 4.000000, 4.000000, 4.000000, 4.000000, 4.000000, 4.000000, 4.000000, 4.000000, 0.000000, 4.000000, 4.000000, 4.000000, 4.000000, 4.000000, 4.000000, 4.000000
18.000000, 0.000000, 4252.307617, 4268.717773, 4226.666504, 4213.333008, 4219.487305, 4209.743652, 4219.487305, 4222.051270, 4201.538574, 4297.436035, 4237.436035, 4222.563965, 4313.333008, 4243.076660, 0.000000, 8245.000000, 8136.000000, 0.000000, 0.000000, 0.000000, -20833.000000, 235.897430, 4.000000, 4.000000, 4.000000, 4.000000, 4.000000, 4.000000, 4.000000, 4.000000, 0.000000, 4.000000, 4.000000, 4.000000, 4.000000, 4.000000, 4.000000, 4.000000
19.000000, 0.000000, 4244.615234, 4278.461426, 4219.487305, 4219.487305, 4216.410156, 4203.589844, 4214.871582, 4206.153809, 4201.538574, 4289.230469, 4231.281738, 4215.384277, 4305.127930, 4237.436035, 0.000000, 8246.000000, 8146.000000, 0.000000, 0.000000, 0.000000, -20833.000000, 244.102554, 4.000000, 4.000000, 4.000000, 4.000000, 4.000000, 4.000000, 4.000000, 4.000000, 0.000000, 4.000000, 4.000000, 4.000000, 4.000000, 4.000000, 4.000000, 4.000000
20.000000, 0.000000, 4232.820313, 4274.871582, 4214.358887, 4213.333008, 4216.922852, 4200.000000, 4201.025391, 4198.461426, 4202.051270, 4279.487305, 4226.666504, 4213.333008, 4291.281738, 4227.692383, 0.000000, 8246.000000, 8146.000000, 0.000000, 0.000000, 0.000000, -20833.000000, 251.794861, 4.000000, 4.000000, 4.000000, 4.000000, 4.000000, 4.000000, 4.000000, 4.000000, 0.000000, 4.000000, 4.000000, 4.000000, 4.000000, 4.000000, 4.000000, 4.000000
21.000000, 0.000000, 4241.025391, 4283.589844, 4217.436035, 4218.974121, 4222.051270, 4201.025391, 4195.897461, 4198.974121, 4202.051270, 4281.538574, 4228.717773, 4214.358887, 4296.410156, 4230.769043, 0.000000, 8236.000000, 8156.000000, 0.000000, 0.000000, 0.000000, -20833.000000, 260.000000, 4.000000, 4.000000, 4.000000, 4.000000, 4.000000, 4.000000, 4.000000, 4.000000, 0.000000, 4.000000, 4.000000, 4.000000, 4.000000, 4.000000, 4.000000, 4.000000
22.000000, 0.000000, 4248.717773, 4292.820313, 4218.461426, 4223.076660, 4221.538574, 4200.512695, 4204.102539, 4192.307617, 4201.538574, 4284.615234, 4225.641113, 4212.820313, 4296.922852, 4233.333008, 0.000000, 8236.000000, 8156.000000, 0.000000, 0.000000, 0.000000, -20833.000000, 267.692291, 4.000000, 4.000000, 4.000000, 4.000000, 4.000000, 4.000000, 4.000000, 4.000000, 0.000000, 4.000000, 4.000000, 4.000000, 4.000000, 4.000000, 4.000000, 4.000000
23.000000, 0.000000, 4241.538574, 4289.743652, 4213.333008, 4220.512695, 4215.897461, 4191.794922, 4199.487305, 4183.589844, 4202.051270, 4280.000000, 4219.487305, 4207.179199, 4284.615234, 4228.205078, 0.000000, 8225.000000, 8166.000000, 0.000000, 0.000000, 0.000000, -20833.000000, 275.897430, 4.000000, 4.000000, 4.000000, 4.000000, 4.000000, 4.000000, 4.000000, 4.000000, 0.000000, 4.000000, 4.000000, 4.000000, 4.000000, 4.000000, 4.000000, 4.000000
24.000000, 0.000000, 4235.897461, 4286.666504, 4214.358887, 4220.512695, 4217.436035, 4185.127930, 4189.230469, 4184.102539, 4201.538574, 4279.487305, 4219.487305, 4205.127930, 4278.461426, 4227.692383, 0.000000, 8225.000000, 8166.000000, 0.000000, 0.000000, 0.000000, -20833.000000, 283.589722, 4.000000, 4.000000, 4.000000, 4.000000, 4.000000, 4.000000, 4.000000, 4.000000, 0.000000, 4.000000, 4.000000, 4.000000, 4.000000, 4.000000, 4.000000, 4.000000
25.000000, 0.000000, 4241.025391, 4283.076660, 4218.974121, 4218.461426, 4218.974121, 4186.153809, 4189.743652, 4186.153809, 4200.000000, 4281.025391, 4218.974121, 4207.179199, 4280.000000, 4231.281738, 0.000000, 8221.000000, 8162.000000, 0.000000, 0.000000, 0.000000, -20833.000000, 291.794861, 4.000000, 4.000000, 4.000000, 4.000000, 4.000000, 4.000000, 4.000000, 4.000000, 0.000000, 4.000000, 4.000000, 4.000000, 4.000000, 4.000000, 4.000000, 4.000000
26.000000, 0.000000, 4244.102539, 4275.897461, 4214.871582, 4215.384277, 4206.153809, 4186.153809, 4187.692383, 4176.922852, 4200.512695, 4276.922852, 4212.820313, 4205.127930, 4280.512695, 4228.717773, 0.000000, 8221.000000, 8162.000000, 0.000000, 0.000000, 0.000000, -20833.000000, 300.000000, 4.000000, 4.000000, 4.000000, 4.000000, 4.000000, 4.000000, 4.000000, 4.000000, 0.000000, 4.000000, 4.000000, 4.000000, 4.000000, 4.000000, 4.000000, 4.000000
27.000000, 0.000000, 4238.974121, 4271.281738, 4209.230469, 4217.436035, 4201.025391, 4184.102539, 4181.538574, 4170.256348, 4202.563965, 4272.820313, 4212.307617, 4203.076660, 4278.461426, 4221.025391, 0.000000, 8210.000000, 8168.000000, 0.000000, 0.000000, 0.000000, -20833.000000, 307.692291, 4.000000, 4.000000, 4.000000, 4.000000, 4.000000, 4.000000, 4.000000, 4.000000, 0.000000, 4.000000, 4.000000, 4.000000, 4.000000, 4.000000, 4.000000, 4.000000
28.000000, 0.000000, 4232.820313, 4271.794922, 4206.666504, 4216.922852, 4214.871582, 4187.179199, 4183.076660, 4179.487305, 4200.512695, 4274.358887, 4212.820313, 4201.538574, 4271.281738, 4217.948730, 0.000000, 8210.000000, 8168.000000, 0.000000, 0.000000, 0.000000, -20833.000000, 315.897430, 4.000000, 4.000000, 4.000000, 4.000000, 4.000000, 4.000000, 4.000000, 4.000000, 0.000000, 4.000000, 4.000000, 4.000000, 4.000000, 4.000000, 4.000000, 4.000000
29.000000, 0.000000, 4234.358887, 4276.922852, 4205.127930, 4213.333008, 4220.512695, 4193.333008, 4190.256348, 4190.769043, 4199.487305, 4277.436035, 4208.205078, 4197.948730, 4265.641113, 4216.922852, 0.000000, 8201.000000, 8169.000000, 0.000000, 0.000000, 0.000000, -20833.000000, 323.589722, 4.000000, 4.000000, 4.000000, 4.000000, 4.000000, 4.000000, 4.000000, 4.000000, 0.000000, 4.000000, 4.000000, 4.000000, 4.000000, 4.000000, 4.000000, 4.000000
30.000000, 0.000000, 4234.871582, 4284.615234, 4208.205078, 4215.897461, 4215.384277, 4197.436035, 4190.256348, 4187.179199, 4201.025391, 4275.384277, 4207.179199, 4200.000000, 4265.127930, 4215.897461, 0.000000, 8201.000000, 8169.000000, 0.000000, 0.000000, 0.000000, -20833.000000, 331.794861, 4.000000, 4.000000, 4.000000, 4.000000, 4.000000, 4.000000, 4.000000, 4.000000, 0.000000, 4.000000, 4.000000, 4.000000, 4.000000, 4.000000, 4.000000, 4.000000
31.000000, 0.000000, 4234.358887, 4289.743652, 4211.794922, 4221.025391, 4216.922852, 4199.487305, 4185.127930, 4181.025391, 4201.538574, 4268.205078, 4207.692383, 4201.538574, 4252.820313, 4213.333008, 0.000000, 8196.000000, 8171.000000, 0.000000, 0.000000, 0.000000, -20833.000000, 339.487183, 4.000000, 4.000000, 4.000000, 4.000000, 4.000000, 4.000000, 4.000000, 4.000000, 0.000000, 4.000000, 4.000000, 4.000000, 4.000000, 4.000000, 4.000000, 4.000000
32.000000, 0.000000, 4228.205078, 4289.743652, 4208.205078, 4218.974121, 4217.948730, 4198.974121, 4186.666504, 4183.076660, 4201.025391, 4260.512695, 4202.051270, 4192.307617, 4224.615234, 4206.153809, 0.000000, 8196.000000, 8171.000000, 0.000000, 0.000000, 0.000000, -20833.000000, 347.692291, 4.000000, 4.000000, 4.000000, 4.000000, 4.000000, 4.000000, 4.000000, 4.000000, 0.000000, 4.000000, 4.000000, 4.000000, 4.000000, 4.000000, 4.000000, 4.000000
33.000000, 0.000000, 4217.436035, 4291.794922, 4200.512695, 4214.358887, 4216.410156, 4198.461426, 4194.871582, 4187.692383, 4201.538574, 4260.000000, 4199.487305, 4183.589844, 4200.512695, 4198.461426, 0.000000, 8192.000000, 8185.000000, 0.000000, 0.000000, 0.000000, -20833.000000, 355.897430, 4.000000, 4.000000, 4.000000, 4.000000, 4.000000, 4.000000, 4.000000, 4.000000, 0.000000, 4.000000, 4.000000, 4.000000, 4.000000, 4.000000, 4.000000, 4.000000
34.000000, 0.000000, 4215.384277, 4298.461426, 4196.410156, 4213.333008, 4217.436035, 4199.487305, 4201.538574, 4192.307617, 4200.512695, 4260.000000, 4199.487305, 4186.666504, 4187.179199, 4198.974121, 0.000000, 8192.000000, 8185.000000, 0.000000, 0.000000, 0.000000, -20833.000000, 363.589722, 4.000000, 4.000000, 4.000000, 4.000000, 4.000000, 4.000000, 4.000000, 4.000000, 0.000000, 4.000000, 4.000000, 4.000000, 4.000000, 4.000000, 4.000000, 4.000000
35.000000, 0.000000, 4210.256348, 4298.974121, 4197.436035, 4214.871582, 4214.358887, 4201.538574, 4202.563965, 4198.461426, 4200.512695, 4254.358887, 4192.307617, 4188.717773, 4176.410156, 4196.922852, 0.000000, 8192.000000, 8189.000000, 0.000000, 0.000000, 0.000000, -20833.000000, 371.794861, 4.000000, 4.000000, 4.000000, 4.000000, 4.000000, 4.000000, 4.000000, 4.000000, 0.000000, 4.000000, 4.000000, 4.000000, 4.000000, 4.000000, 4.000000, 4.000000
36.000000, 0.000000, 4200.000000, 4293.846191, 4196.922852, 4213.846191, 4213.846191, 4203.076660, 4202.563965, 4202.563965, 4201.538574, 4249.743652, 4186.153809, 4185.641113, 4165.641113, 4195.384277, 0.000000, 8192.000000, 8189.000000, 0.000000, 0.000000, 0.000000, -20833.000000, 379.487183, 4.000000, 4.000000, 4.000000, 4.000000, 4.000000, 4.000000, 4.000000, 4.000000, 0.000000, 4.000000, 4.000000, 4.000000, 4.000000, 4.000000, 4.000000, 4.000000
37.000000, 0.000000, 4206.153809, 4300.000000, 4204.615234, 4214.358887, 4226.153809, 4202.563965, 4202.051270, 4201.025391, 4201.025391, 4250.256348, 4189.743652, 4191.794922, 4166.153809, 4207.179199, 0.000000, 8193.000000, 8198.000000, 0.000000, 0.000000, 0.000000, -20833.000000, 387.692291, 4.000000, 4.000000, 4.000000, 4.000000, 4.000000, 4.000000, 4.000000, 4.000000, 0.000000, 4.000000, 4.000000, 4.000000, 4.000000, 4.000000, 4.000000, 4.000000
38.000000, 0.000000, 4215.897461, 4305.641113, 4212.820313, 4219.487305, 4228.717773, 4204.102539, 4203.076660, 4204.615234, 4202.051270, 4250.256348, 4196.410156, 4200.512695, 4179.487305, 4214.871582, 0.000000, 8193.000000, 8198.000000, 0.000000, 0.000000, 0.000000, -20833.000000, 395.384613, 4.000000, 4.000000, 4.000000, 4.000000, 4.000000, 4.000000, 4.000000, 4.000000, 0.000000, 4.000000, 4.000000, 4.000000, 4.000000, 4.000000, 4.000000, 4.000000
39.000000, 1.000000, 4213.846191, 4304.615234, 4212.307617, 4218.461426, 4226.666504, 4203.589844, 4202.051270, 4203.589844, 4202.051270, 4247.692383, 4195.384277, 4198.461426, 4182.051270, 4213.333008, 0.000000, 8193.000000, 8196.000000, 0.000000, 0.000000, 0.000000, -20833.000000, 403.589722, 4.000000, 4.000000, 4.000000, 4.000000, 4.000000, 4.000000, 4.000000, 4.000000, 0.000000, 4.000000, 4.000000, 4.000000, 4.000000, 4.000000, 4.000000, 4.000000
40.000000, 1.000000, 4211.281738, 4303.076660, 4211.794922, 4217.948730, 4224.102539, 4203.076660, 4201.025391, 4202.563965, 4201.538574, 4245.127930, 4194.358887, 4196.922852, 4184.615234, 4212.307617, 0.000000, 8193.000000, 8194.000000, 0.000000, 0.000000, 0.000000, -20833.000000, 411.282043, 4.000000, 4.000000, 4.000000, 4.000000, 4.000000, 4.000000, 4.000000, 4.000000, 0.000000, 4.000000, 4.000000, 4.000000, 4.000000, 4.000000, 4.000000, 4.000000
41.000000, 1.000000, 4208.717773, 4301.538574, 4211.281738, 4216.922852, 4221.538574, 4202.563965, 4200.000000, 4201.538574, 4201.538574, 4242.563965, 4193.333008, 4194.871582, 4187.692383, 4210.769043, 0.000000, 8193.000000, 8192.000000, 0.000000, 0.000000, 0.000000, -20833.000000, 418.974335, 4.000000, 4.000000, 4.000000, 4.000000, 4.000000, 4.000000, 4.000000, 4.000000, 0.000000, 4.000000, 4.000000, 4.000000, 4.000000, 4.000000, 4.000000, 4.000000
42.000000, 1.000000, 4206.153809, 4300.000000, 4211.281738, 4216.410156, 4218.974121, 4201.538574, 4198.461426, 4201.025391, 4201.538574, 4240.000000, 4192.307617, 4192.820313, 4190.256348, 4209.230469, 0.000000, 8193.000000, 8190.000000, 0.000000, 0.000000, 0.000000, -20833.000000, 427.179474, 4.000000, 4.000000, 4.000000, 4.000000, 4.000000, 4.000000, 4.000000, 4.000000, 0.000000, 4.000000, 4.000000, 4.000000, 4.000000, 4.000000, 4.000000, 4.000000
43.000000, 1.000000, 4204.102539, 4298.974121, 4210.769043, 4215.384277, 4216.922852, 4201.025391, 4197.436035, 4200.000000, 4201.538574, 4237.436035, 4191.281738, 4190.769043, 4192.820313, 4207.692383, 0.000000, 8193.000000, 8188.000000, 0.000000, 0.000000, 0.000000, -20833.000000, 434.871796, 4.000000, 4.000000, 4.000000, 4.000000, 4.000000, 4.000000, 4.000000, 4.000000, 0.000000, 4.000000, 4.000000, 4.000000, 4.000000, 4.000000, 4.000000, 4.000000
44.000000, 1.000000, 4201.538574, 4297.436035, 4210.256348, 4214.871582, 4214.358887, 4200.512695, 4196.410156, 4198.974121, 4201.025391, 4234.871582, 4190.256348, 4188.717773, 4195.384277, 4206.666504, 0.000000, 8193.000000, 8186.000000, 0.000000, 0.000000, 0.000000, -20833.000000, 443.076904, 4.000000, 4.000000, 4.000000, 4.000000, 4.000000, 4.000000, 4.000000, 4.000000, 0.000000, 4.000000, 4.000000, 4.000000, 4.000000, 4.000000, 4.000000, 4.000000
45.000000, 0.000000, 4198.974121, 4295.384277, 4209.743652, 4213.846191, 4211.281738, 4199.487305, 4194.358887, 4197.436035, 4201.025391, 4231.281738, 4188.717773, 4186.153809, 4198.974121, 4204.615234, 0.000000, 8189.000000, 8181.000000, 0.000000, 0.000000, 0.000000, -20833.000000, 450.769226, 4.000000, 4.000000, 4.000000, 4.000000, 4.000000, 4.000000, 4.000000, 4.000000, 0.000000, 4.000000, 4.000000, 4.000000, 4.000000, 4.000000, 4.000000, 4.000000
46.000000, 0.000000, 4195.897461, 4279.487305, 4206.153809, 4208.717773, 4214.871582, 4201.538574, 4198.974121, 4201.538574, 4201.538574, 4232.820313, 4188.717773, 4187.692383, 4195.897461, 4199.487305, 0.000000, 8189.000000, 8181.000000, 0.000000, 0.000000, 0.000000, -20833.000000, 458.461517, 4.000000, 4.000000, 4.000000, 4.000000, 4.000000, 4.000000, 4.000000, 4.000000, 0.000000, 4.000000, 4.000000, 4.000000, 4.000000, 4.000000, 4.000000, 4.000000
47.000000, 0.000000, 4198.974121, 4287.179199, 4204.615234, 4214.871582, 4224.102539, 4207.179199, 4195.384277, 4203.076660, 4201.538574, 4242.051270, 4191.281738, 4191.794922, 4205.127930, 4207.692383, 0.000000, 8201.000000, 8166.000000, 0.000000, 0.000000, 0.000000, -20833.000000, 466.666656, 4.000000, 4.000000, 4.000000, 4.000000, 4.000000, 4.000000, 4.000000, 4.000000, 0.000000, 4.000000, 4.000000, 4.000000, 4.000000, 4.000000, 4.000000, 4.000000
48.000000, 0.000000, 4210.769043, 4308.205078, 4204.102539, 4221.538574, 4228.717773, 4205.641113, 4185.641113, 4198.974121, 4201.538574, 4247.692383, 4190.769043, 4187.179199, 4218.974121, 4212.820313, 0.000000, 8201.000000, 8166.000000, 0.000000, 0.000000, 0.000000, -20833.000000, 474.358948, 4.000000, 4.000000, 4.000000, 4.000000, 4.000000, 4.000000, 4.000000, 4.000000, 0.000000, 4.000000, 4.000000, 4.000000, 4.000000, 4.000000, 4.000000, 4.000000
49.000000, 0.000000, 4213.333008, 4300.512695, 4202.563965, 4216.922852, 4226.153809, 4202.563965, 4186.153809, 4197.436035, 4202.051270, 4238.461426, 4185.127930, 4180.000000, 4214.871582, 4203.076660, 0.000000, 8204.000000, 8165.000000, 0.000000, 0.000000, 0.000000, -20833.000000, 482.564087, 4.000000, 4.000000, 4.000000, 4.000000, 4.000000, 4.000000, 4.000000, 4.000000, 0.000000, 4.000000, 4.000000, 4.000000, 4.000000, 4.000000, 4.000000, 4.000000
50.000000, 0.000000, 4202.563965, 4281.025391, 4203.076660, 4213.846191, 4222.051270, 4205.127930, 4195.384277, 4201.025391, 4201.538574, 4230.769043, 4184.102539, 4185.127930, 4209.230469, 4196.922852, 0.000000, 8204.000000, 8165.000000, 0.000000, 0.000000, 0.000000, -20833.000000, 490.256409, 4.000000, 4.000000, 4.000000, 4.000000, 4.000000, 4.000000, 4.000000, 4.000000, 0.000000, 4.000000, 4.000000, 4.000000, 4.000000, 4.000000, 4.000000, 4.000000
51.000000, 0.000000, 4203.076660, 4285.641113, 4206.666504, 4217.948730, 4224.102539, 4205.641113, 4197.436035, 4199.487305, 4201.025391, 4238.974121, 4194.358887, 4195.897461, 4217.948730, 4207.179199, 0.000000, 8211.000000, 8169.000000, 0.000000, 0.000000, 0.000000, -20833.000000, 497.948700, 4.000000, 4.000000, 4.000000, 4.000000, 4.000000, 4.000000, 4.000000, 4.000000, 0.000000, 4.000000, 4.000000, 4.000000, 4.000000, 4.000000, 4.000000, 4.000000
52.000000, 0.000000, 4214.871582, 4291.794922, 4216.410156, 4221.025391, 4224.615234, 4201.025391, 4193.333008, 4197.948730, 4202.051270, 4246.666504, 4204.615234, 4202.563965, 4221.025391, 4217.436035, 0.000000, 8211.000000, 8169.000000, 0.000000, 0.000000, 0.000000, -20833.000000, 506.153839, 4.000000, 4.000000, 4.000000, 4.000000, 4.000000, 4.000000, 4.000000, 4.000000, 0.000000, 4.000000, 4.000000, 4.000000, 4.000000, 4.000000, 4.000000, 4.000000
53.000000, 0.000000, 4217.948730, 4281.538574, 4225.127930, 4218.461426, 4216.410156, 4199.487305, 4185.641113, 4205.127930, 4200.512695, 4242.051270, 4205.127930, 4205.127930, 4219.487305, 4217.948730, 0.000000, 8216.000000, 8167.000000, 0.000000, 0.000000, 0.000000, -20833.000000, 513.846130, 4.000000, 4.000000, 4.000000, 4.000000, 4.000000, 4.000000, 4.000000, 4.000000, 0.000000, 4.000000, 4.000000, 4.000000, 4.000000, 4.000000, 4.000000, 4.000000
54.000000, 0.000000, 4214.358887, 4276.410156, 4224.615234, 4217.436035, 4210.256348, 4200.000000, 4184.615234, 4202.051270, 4198.974121, 4240.512695, 4202.563965, 4203.076660, 4223.076660, 4215.384277, 0.000000, 8216.000000, 8167.000000, 0.000000, 0.000000, 0.000000, -20833.000000, 521.538452, 4.000000, 4.000000, 4.000000, 4.000000, 4.000000, 4.000000, 4.000000, 4.000000, 0.000000, 4.000000, 4.000000, 4.000000, 4.000000, 4.000000, 4.000000, 4.000000
55.000000, 0.000000, 4216.922852, 4281.025391, 4222.563965, 4226.153809, 4214.358887, 4197.948730, 4190.256348, 4188.717773, 4201.025391, 4245.641113, 4208.205078, 4205.641113, 4231.281738, 4219.487305, 0.000000, 8218.000000, 8171.000000, 0.000000, 0.000000, 0.000000, -20833.000000, 529.230774, 4.000000, 4.000000, 4.000000, 4.000000, 4.000000, 4.000000, 4.000000, 4.000000, 0.000000, 4.000000, 4.000000, 4.000000, 4.000000, 4.000000, 4.000000, 4.000000
56.000000, 0.000000, 4220.512695, 4283.589844, 4223.076660, 4232.307617, 4218.974121, 4200.000000, 4186.666504, 4189.230469, 4201.538574, 4244.615234, 4218.974121, 4215.897461, 4242.051270, 4228.205078, 0.000000, 8218.000000, 8171.000000, 0.000000, 0.000000, 0.000000, -20833.000000, 537.435913, 4.000000, 4.000000, 4.000000, 4.000000, 4.000000, 4.000000, 4.000000, 4.000000, 0.000000, 4.000000, 4.000000, 4.000000, 4.000000, 4.000000, 4.000000, 4.000000
57.000000, 0.000000, 4214.871582, 4276.410156, 4221.538574, 4222.563965, 4217.948730, 4198.461426, 4183.076660, 4201.025391, 4200.512695, 4236.922852, 4215.384277, 4215.897461, 4242.051270, 4224.615234, 0.000000, 8222.000000, 8178.000000, 0.000000, 0.000000, 0.000000, -20833.000000, 545.128174, 4.000000, 4.000000, 4.000000, 4.000000, 4.000000, 4.000000, 4.000000, 4.000000, 0.000000, 4.000000, 4.000000, 4.000000, 4.000000, 4.000000, 4.000000, 4.000000
58.000000, 0.000000, 4208.205078, 4265.127930, 4213.846191, 4211.794922, 4215.897461, 4190.256348, 4183.589844, 4202.563965, 4200.000000, 4231.281738, 4200.000000, 4203.589844, 4232.820313, 4212.307617, 0.000000, 8222.000000, 8178.000000, 0.000000, 0.000000, 0.000000, -20833.000000, 552.820496, 4.000000, 4.000000, 4.000000, 4.000000, 4.000000, 4.000000, 4.000000, 4.000000, 0.000000, 4.000000, 4.000000, 4.000000, 4.000000, 4.000000, 4.000000, 4.000000
59.000000, 0.000000, 4212.307617, 4263.589844, 4212.820313, 4215.897461, 4216.410156, 4188.717773, 4182.563965, 4195.384277, 4200.000000, 4232.307617, 4196.410156, 4199.487305, 4231.794922, 4210.769043, 0.000000, 8221.000000, 8181.000000, 0.000000, 0.000000, 0.000000, -20833.000000, 560.512817, 4.000000, 4.000000, 4.000000, 4.000000, 4.000000, 4.000000, 4.000000, 4.000000, 0.000000, 4.000000, 4.000000, 4.000000, 4.000000, 4.000000, 4.000000, 4.000000
60.000000, 0.000000, 4220.000000, 4268.717773, 4223.076660, 4222.563965, 4216.410156, 4191.794922, 4183.076660, 4190.769043, 4201.025391, 4230.256348, 4202.563965, 4205.641113, 4240.512695, 4211.281738, 0.000000, 8221.000000, 8181.000000, 0.000000, 0.000000, 0.000000, -20833.000000, 568.205139, 4.000000, 4.000000, 4.000000, 4.000000, 4.000000, 4.000000, 4.000000, 4.000000, 0.000000, 4.000000, 4.000000, 4.000000, 4.000000, 4.000000, 4.000000, 4.000000
61.000000, 0.000000, 4213.846191, 4267.179199, 4221.025391, 4220.000000, 4216.922852, 4185.641113, 4182.051270, 4183.589844, 4201.538574, 4220.512695, 4198.461426, 4205.127930, 4244.102539, 4206.153809, 0.000000, 8216.000000, 8189.000000, 0.000000, 0.000000, 0.000000, -20833.000000, 576.410217, 4.000000, 4.000000, 4.000000, 4.000000, 4.000000, 4.000000, 4.000000, 4.000000, 0.000000, 4.000000, 4.000000, 4.000000, 4.000000, 4.000000, 4.000000, 4.000000
62.000000, 0.000000, 4204.102539, 4262.563965, 4207.692383, 4216.410156, 4217.436035, 4187.692383, 4184.102539, 4183.076660, 4200.512695, 4220.000000, 4195.897461, 4202.563965, 4246.153809, 4207.179199, 0.000000, 8216.000000, 8189.000000, 0.000000, 0.000000, 0.000000, -20833.000000, 584.102539, 4.000000, 4.000000, 4.000000, 4.000000, 4.000000, 4.000000, 4.000000, 4.000000, 0.000000, 4.000000, 4.000000, 4.000000, 4.000000, 4.000000, 4.000000, 4.000000
63.000000, 0.000000, 4204.615234, 4260.512695, 4207.179199, 4214.358887, 4205.641113, 4199.487305, 4196.410156, 4201.025391, 4201.025391, 4231.281738, 4205.641113, 4203.076660, 4252.820313, 4212.820313, 0.000000, 8206.000000, 8187.000000, 0.000000, 0.000000, 0.000000, -20833.000000, 591.794861, 4.000000, 4.000000, 4.000000, 4.000000, 4.000000, 4.000000, 4.000000, 4.000000, 0.000000, 4.000000, 4.000000, 4.000000, 4.000000, 4.000000, 4.000000, 4.000000
64.000000, 0.000000, 4208.717773, 4256.922852, 4210.256348, 4212.820313, 4196.922852, 4202.051270, 4207.692383, 4220.512695, 4203.589844, 4238.461426, 4213.333008, 4205.127930, 4263.076660, 4214.358887, 3183.000000, 8206.000000, 8187.000000, 0.000000, 0.000000, 0.000000, -20833.000000, 599.487183, 4.000000, 4.000000, 4.000000, 4.000000, 4.000000, 4.000000, 4.000000, 4.000000, 0.000000, 4.000000, 4.000000, 4.000000, 4.000000, 4.000000, 4.000000, 4.000000
65.000000, 0.000000, 4213.846191, 4263.076660, 4209.743652, 4214.871582, 4213.333008, 4209.230469, 4204.615234, 4221.538574, 4204.102539, 4234.358887, 4215.897461, 4212.307617, 4270.769043, 4216.922852, 3537.000000, 8204.000000, 8199.000000, 0.000000, 0.000000, 0.000000, -20833.000000, 607.179443, 4.000000, 4.000000, 4.000000, 4.000000, 4.000000, 4.000000, 4.000000, 4.000000, 0.000000, 4.000000, 4.000000, 4.000000, 4.000000, 4.000000, 4.000000, 4.000000
66.000000, 0.000000, 4217.436035, 4271.281738, 4209.230469, 4219.487305, 4232.820313, 4220.000000, 4203.589844, 4213.846191, 4203.076660, 4231.794922, 4216.410156, 4214.358887, 4266.666504, 4217.948730, 3566.000000, 8204.000000, 8199.000000, 0.000000, 0.000000, 0.000000, -20833.000000, 615.384583, 4.000000, 4.000000, 4.000000, 4.000000, 4.000000, 4.000000, 4.000000, 4.000000, 0.000000, 4.000000, 4.000000, 4.000000, 4.000000, 4.000000, 4.000000, 4.000000
67.000000, 0.000000, 4213.333008, 4264.102539, 4206.153809, 4220.000000, 4232.820313, 4219.487305, 4214.358887, 4216.922852, 4203.076660, 4230.769043, 4213.333008, 4205.641113, 4262.051270, 4215.384277, 2349.000000, 8196.000000, 8207.000000, 0.000000, 0.000000, 0.000000, -20833.000000, 623.076904, 4.000000, 4.000000, 4.000000, 4.000000, 4.000000, 4.000000, 4.000000, 4.000000, 0.000000, 4.000000, 4.000000, 4.000000, 4.000000, 4.000000, 4.000000, 4.000000
68.000000, 0.000000, 4209.230469, 4258.461426, 4206.153809, 4222.563965, 4230.769043, 4223.076660, 4218.974121, 4227.692383, 4202.051270, 4231.281738, 4212.820313, 4205.127930, 4266.666504, 4215.384277, 3545.000000, 8196.000000, 8207.000000, 0.000000, 0.000000, 0.000000, -20833.000000, 630.769226, 4.000000, 4.000000, 4.000000, 4.000000, 4.000000, 4.000000, 4.000000, 4.000000, 0.000000, 4.000000, 4.000000, 4.000000, 4.000000, 4.000000, 4.000000, 4.000000
69.000000, 0.000000, 4214.871582, 4259.487305, 4207.179199, 4227.179199, 4234.871582, 4232.820313, 4215.897461, 4238.461426, 4201.025391, 4237.948730, 4218.461426, 4214.358887, 4282.051270, 4220.000000, 3576.000000, 8193.000000, 8202.000000, 0.000000, 0.000000, 0.000000, -20833.000000, 638.461548, 4.000000, 4.000000, 4.000000, 4.000000, 4.000000, 4.000000, 4.000000, 4.000000, 0.000000, 4.000000, 4.000000, 4.000000, 4.000000, 4.000000, 4.000000, 4.000000
70.000000, 0.000000, 4218.461426, 4258.461426, 4207.692383, 4224.615234, 4228.205078, 4226.666504, 4218.461426, 4232.820313, 4201.025391, 4239.487305, 4222.051270, 4217.948730, 4293.846191, 4221.025391, 3415.000000, 8193.000000, 8202.000000, 0.000000, 0.000000, 0.000000, -20833.000000, 646.153809, 4.000000, 4.000000, 4.000000, 4.000000, 4.000000, 4.000000, 4.000000, 4.000000, 0.000000, 4.000000, 4.000000, 4.000000, 4.000000, 4.000000, 4.000000, 4.000000
71.000000, 0.000000, 4213.333008, 4253.846191, 4207.179199, 4217.948730, 4207.692383, 4213.846191, 4215.897461, 4219.487305, 4202.563965, 4234.358887, 4219.487305, 4215.384277, 4288.205078, 4217.948730, 3495.000000, 8191.000000, 8205.000000, 0.000000, 0.000000, 0.000000, -20833.000000, 653.846130, 4.000000, 4.000000, 4.000000, 4.000000, 4.000000, 4.000000, 4.000000, 4.000000, 0.000000, 4.000000, 4.000000, 4.000000, 4.000000, 4.000000, 4.000000, 4.000000
72.000000, 0.000000, 4212.307617, 4248.205078, 4207.179199, 4215.384277, 4196.410156, 4213.333008, 4203.589844, 4226.666504, 4201.538574, 4231.794922, 4220.000000, 4213.333008, 4285.641113, 4218.461426, 32.000000, 8191.000000, 8205.000000, 0.000000, 0.000000, 0.000000, -20833.000000, 662.051270, 4.000000, 4.000000, 4.000000, 4.000000, 4.000000, 4.000000, 4.000000, 4.000000, 0.000000, 4.000000, 4.000000, 4.000000, 4.000000, 4.000000, 4.000000, 4.000000
73.000000, 0.000000, 4217.436035, 4245.127930, 4209.743652, 4216.922852, 4207.179199, 4214.358887, 4199.487305, 4232.820313, 4200.000000, 4234.871582, 4221.025391, 4213.333008, 4291.794922, 4220.512695, 3053.000000, 8198.000000, 8204.000000, 0.000000, 0.000000, 0.000000, -20833.000000, 669.743591, 4.000000, 4.000000, 4.000000, 4.000000, 4.000000, 4.000000, 4.000000, 4.000000, 0.000000, 4.000000, 4.000000, 4.000000, 4.000000, 4.000000, 4.000000, 4.000000
74.000000, 0.000000, 4213.333008, 4242.051270, 4208.717773, 4212.820313, 4217.436035, 4212.820313, 4206.153809, 4223.076660, 4201.025391, 4234.871582, 4220.000000, 4215.897461, 4288.717773, 4220.000000, 3597.000000, 8198.000000, 8204.000000, 0.000000, 0.000000, 0.000000, -20833.000000, 677.435852, 4.000000, 4.000000, 4.000000, 4.000000, 4.000000, 4.000000, 4.000000, 4.000000, 0.000000, 4.000000, 4.000000, 4.000000, 4.000000, 4.000000, 4.000000, 4.000000
75.000000, 0.000000, 4204.615234, 4238.461426, 4208.205078, 4208.717773, 4212.820313, 4207.692383, 4204.615234, 4215.897461, 4202.051270, 4231.281738, 4219.487305, 4213.846191, 4281.025391, 4219.487305, 3572.000000, 8201.000000, 8201.000000, 0.000000, 0.000000, 0.000000, -20833.000000, 685.128174, 4.000000, 4.000000, 4.000000, 4.000000, 4.000000, 4.000000, 4.000000, 4.000000, 0.000000, 4.000000, 4.000000, 4.000000, 4.000000, 4.000000, 4.000000, 4.000000
76.000000, 0.000000, 4202.051270, 4232.820313, 4208.205078, 4209.230469, 4214.871582, 4203.076660, 4200.000000, 4208.717773, 4200.000000, 4227.179199, 4216.922852, 4204.615234, 4276.922852, 4213.846191, 3516.000000, 8201.000000, 8201.000000, 0.000000, 0.000000, 0.000000, -20833.000000, 692.820496, 4.000000, 4.000000, 4.000000, 4.000000, 4.000000, 4.000000, 4.000000, 4.000000, 0.000000, 4.000000, 4.000000, 4.000000, 4.000000, 4.000000, 4.000000, 4.000000
77.000000, 0.000000, 4195.384277, 4225.127930, 4204.102539, 4209.230469, 4217.948730, 4206.153809, 4200.512695, 4199.487305, 4199.487305, 4222.051270, 4208.205078, 4194.871582, 4267.179199, 4204.102539, 3447.000000, 8203.000000, 8204.000000, 0.000000, 0.000000, 0.000000, -20833.000000, 701.025635, 4.000000, 4.000000, 4.000000, 4.000000, 4.000000, 4.000000, 4.000000, 4.000000, 0.000000, 4.000000, 4.000000, 4.000000, 4.000000, 4.000000, 4.000000, 4.000000
78.000000, 0.000000, 4187.179199, 4223.076660, 4197.436035, 4207.692383, 4205.641113, 4210.769043, 4200.512695, 4206.153809, 4202.051270, 4219.487305, 4199.487305, 4192.307617, 4257.436035, 4195.897461, 3597.000000, 8203.000000, 8204.000000, 0.000000, 0.000000, 0.000000, -20833.000000, 708.717957, 4.000000, 4.000000, 4.000000, 4.000000, 4.000000, 4.000000, 4.000000, 4.000000, 0.000000, 4.000000, 4.000000, 4.000000, 4.000000, 4.000000, 4.000000, 4.000000
79.000000, 0.000000, 4192.820313, 4223.589844, 4197.948730, 4212.307617, 4204.102539, 4213.333008, 4201.538574, 4214.358887, 4202.051270, 4223.589844, 4200.000000, 4197.948730, 4260.000000, 4197.436035, 3572.000000, 8204.000000, 8206.000000, 0.000000, 0.000000, 0.000000, -20833.000000, 716.410217, 4.000000, 4.000000, 4.000000, 4.000000, 4.000000, 4.000000, 4.000000, 4.000000, 0.000000, 4.000000, 4.000000, 4.000000, 4.000000, 4.000000, 4.000000, 4.000000
80.000000, 0.000000, 4204.102539, 4226.153809, 4209.230469, 4216.410156, 4217.948730, 4216.410156, 4205.641113, 4209.230469, 4200.512695, 4233.846191, 4211.281738, 4202.563965, 4261.538574, 4207.692383, 3516.000000, 8204.000000, 8206.000000, 0.000000, 0.000000, 0.000000, -20833.000000, 724.102539, 4.000000, 4.000000, 4.000000, 4.000000, 4.000000, 4.000000, 4.000000, 4.000000, 0.000000, 4.000000, 4.000000, 4.000000, 4.000000, 4.000000, 4.000000, 4.000000
81.000000, 0.000000, 4205.127930, 4225.641113, 4210.256348, 4207.692383, 4219.487305, 4217.948730, 4202.051270, 4212.820313, 4200.000000, 4237.436035, 4217.948730, 4203.076660, 4253.333008, 4216.410156, 3447.000000, 8209.000000, 8207.000000, 0.000000, 0.000000, 0.000000, -20833.000000, 731.794861, 4.000000, 4.000000, 4.000000, 4.000000, 4.000000, 4.000000, 4.000000, 4.000000, 0.000000, 4.000000, 4.000000, 4.000000, 4.000000, 4.000000, 4.000000, 4.000000
82.000000, 0.000000, 4199.487305, 4223.589844, 4198.974121, 4201.538574, 4217.436035, 4216.410156, 4198.974121, 4215.897461, 4200.512695, 4234.871582, 4212.820313, 4204.102539, 4247.179199, 4213.846191, 3597.000000, 8209.000000, 8207.000000, 0.000000, 0.000000, 0.000000, -20833.000000, 739.487183, 4.000000, 4.000000, 4.000000, 4.000000, 4.000000, 4.000000, 4.000000, 4.000000, 0.000000, 4.000000, 4.000000, 4.000000, 4.000000, 4.000000, 4.000000, 4.000000
83.000000, 0.000000, 4192.307617, 4220.512695, 4195.384277, 4203.076660, 4215.384277, 4217.436035, 4201.025391, 4206.153809, 4201.538574, 4234.358887, 4208.717773, 4200.512695, 4247.179199, 4203.589844, 3572.000000, 8211.000000, 8212.000000, 0.000000, 0.000000, 0.000000, -20833.000000, 747.692261, 4.000000, 4.000000, 4.000000, 4.000000, 4.000000, 4.000000, 4.000000, 4.000000, 0.000000, 4.000000, 4.000000, 4.000000, 4.000000, 4.000000, 4.000000, 4.000000
84.000000, 0.000000, 4182.563965, 4213.846191, 4191.794922, 4195.384277, 4208.717773, 4217.436035, 4203.076660, 4203.076660, 4202.051270, 4233.846191, 4209.230469, 4192.820313, 4244.615234, 4196.922852, 3516.000000, 8211.000000, 8212.000000, 0.000000, 0.000000, 0.000000, -20833.000000, 755.384583, 4.000000, 4.000000, 4.000000, 4.000000, 4.000000, 4.000000, 4.000000, 4.000000, 0.000000, 4.000000, 4.000000, 4.000000, 4.000000, 4.000000, 4.000000, 4.000000
85.000000, 0.000000, 4183.589844, 4212.307617, 4186.666504, 4190.256348, 4207.179199, 4217.948730, 4206.666504, 4217.436035, 4201.538574, 4240.512695, 4211.281738, 4197.436035, 4242.051270, 4197.948730, 3447.000000, 8202.000000, 8205.000000, 0.000000, 0.000000, 0.000000, -20833.000000, 763.076904, 4.000000, 4.000000, 4.000000, 4.000000, 4.000000, 4.000000, 4.000000, 4.000000, 0.000000, 4.000000, 4.000000, 4.000000, 4.000000, 4.000000, 4.000000, 4.000000
86.000000, 0.000000, 4191.794922, 4214.871582, 4191.281738, 4198.461426, 4204.102539, 4220.512695, 4208.205078, 4228.205078, 4200.512695, 4247.692383, 4217.436035, 4205.641113, 4248.717773, 4204.102539, 3597.000000, 8202.000000, 8205.000000, 0.000000, 0.000000, 0.000000, -20833.000000, 770.769226, 4.000000, 4.000000, 4.000000, 4.000000, 4.000000, 4.000000, 4.000000, 4.000000, 0.000000, 4.000000, 4.000000, 4.000000, 4.000000, 4.000000, 4.000000, 4.000000
87.000000, 0.000000, 4197.436035, 4213.846191, 4201.025391, 4204.102539, 4200.000000, 4215.897461, 4201.538574, 4217.948730, 4201.538574, 4237.948730, 4219.487305, 4201.025391, 4247.179199, 4205.127930, 3572.000000, 8201.000000, 8201.000000, 0.000000, 0.000000, 0.000000, -20833.000000, 778.461548, 4.000000, 4.000000, 4.000000, 4.000000, 4.000000, 4.000000, 4.000000, 4.000000, 0.000000, 4.000000, 4.000000, 4.000000, 4.000000, 4.000000, 4.000000, 4.000000
88.000000, 0.000000, 4200.512695, 4212.307617, 4203.589844, 4200.512695, 4208.205078, 4206.153809, 4196.410156, 4202.051270, 4203.076660, 4230.769043, 4212.820313, 4196.410156, 4231.794922, 4200.000000, 3516.000000, 8201.000000, 8201.000000, 0.000000, 0.000000, 0.000000, -20833.000000, 786.153809, 4.000000, 4.000000, 4.000000, 4.000000, 4.000000, 4.000000, 4.000000, 4.000000, 0.000000, 4.000000, 4.000000, 4.000000, 4.000000, 4.000000, 4.000000, 4.000000
89.000000, 0.000000, 4199.487305, 4210.769043, 4200.512695, 4201.538574, 4210.769043, 4202.051270, 4198.461426, 4202.563965, 4202.563965, 4232.307617, 4206.153809, 4198.461426, 4227.692383, 4198.461426, 3447.000000, 8199.000000, 8195.000000, 0.000000, 0.000000, 0.000000, -20833.000000, 794.358948, 4.000000, 4.000000, 4.000000, 4.000000, 4.000000, 4.000000, 4.000000, 4.000000, 0.000000, 4.000000, 4.000000, 4.000000, 4.000000, 4.000000, 4.000000, 4.000000
90.000000, 0.000000, 4193.333008, 4209.230469, 4201.025391, 4202.563965, 4201.025391, 4207.692383, 4200.512695, 4204.615234, 4200.512695, 4223.076660, 4202.051270, 4197.436035, 4229.230469, 4198.974121, 3597.000000, 8199.000000, 8195.000000, 0.000000, 0.000000, 0.000000, -20833.000000, 802.051270, 4.000000, 4.000000, 4.000000, 4.000000, 4.000000, 4.000000, 4.000000, 4.000000, 0.000000, 4.000000, 4.000000, 4.000000, 4.000000, 4.000000, 4.000000, 4.000000
91.000000, 0.000000, 4191.281738, 4207.179199, 4199.487305, 4200.000000, 4200.512695, 4211.281738, 4201.538574, 4198.461426, 4201.025391, 4217.948730, 4204.615234, 4196.410156, 4226.153809, 4197.948730, 3572.000000, 8196.000000, 8189.000000, 0.000000, 0.000000, 0.000000, -20833.000000, 809.743591, 4.000000, 4.000000, 4.000000, 4.000000, 4.000000, 4.000000, 4.000000, 4.000000, 0.000000, 4.000000, 4.000000, 4.000000, 4.000000, 4.000000, 4.000000, 4.000000
92.000000, 0.000000, 4198.974121, 4212.820313, 4200.000000, 4208.717773, 4206.153809, 4210.256348, 4202.563965, 4208.205078, 4201.538574, 4232.307617, 4215.897461, 4202.563965, 4229.743652, 4203.589844, 3516.000000, 8196.000000, 8189.000000, 0.000000, 0.000000, 0.000000, -20833.000000, 817.435852, 4.000000, 4.000000, 4.000000, 4.000000, 4.000000, 4.000000, 4.000000, 4.000000, 0.000000, 4.000000, 4.000000, 4.000000, 4.000000, 4.000000, 4.000000, 4.000000
93.000000, 0.000000, 4204.615234, 4222.051270, 4203.589844, 4217.436035, 4201.538574, 4212.307617, 4203.076660, 4223.589844, 4200.512695, 4237.436035, 4217.436035, 4205.641113, 4233.333008, 4207.692383, 3447.000000, 8197.000000, 8184.000000, 0.000000, 0.000000, 0.000000, -20833.000000, 825.128174, 4.000000, 4.000000, 4.000000, 4.000000, 4.000000, 4.000000, 4.000000, 4.000000, 0.000000, 4.000000, 4.000000, 4.000000, 4.000000, 4.000000, 4.000000, 4.000000
94.000000, 0.000000, 4201.538574, 4217.948730, 4198.974121, 4214.871582, 4201.538574, 4215.897461, 4202.051270, 4217.948730, 4201.025391, 4226.153809, 4210.769043, 4200.512695, 4228.205078, 4204.615234, 3597.000000, 8197.000000, 8184.000000, 0.000000, 0.000000, 0.000000, -20833.000000, 833.333313, 4.000000, 4.000000, 4.000000, 4.000000, 4.000000, 4.000000, 4.000000, 4.000000, 0.000000, 4.000000, 4.000000, 4.000000, 4.000000, 4.000000, 4.000000, 4.000000
95.000000, 0.000000, 4201.025391, 4214.871582, 4197.948730, 4214.358887, 4209.743652, 4216.922852, 4198.974121, 4214.871582, 4203.076660, 4225.641113, 4213.846191, 4201.538574, 4233.333008, 4209.230469, 3572.000000, 8201.000000, 8170.000000, 0.000000, 0.000000, 0.000000, -20833.000000, 841.025635, 4.000000, 4.000000, 4.000000, 4.000000, 4.000000, 4.000000, 4.000000, 4.000000, 0.000000, 4.000000, 4.000000, 4.000000, 4.000000, 4.000000, 4.000000, 4.000000
96.000000, 0.000000, 4207.179199, 4217.948730, 4211.794922, 4216.922852, 4206.153809, 4216.922852, 4200.512695, 4220.000000, 4202.563965, 4234.871582, 4220.512695, 4211.794922, 4245.127930, 4218.461426, 3516.000000, 8201.000000, 8170.000000, 0.000000, 0.000000, 0.000000, -20833.000000, 848.717957, 4.000000, 4.000000, 4.000000, 4.000000, 4.000000, 4.000000, 4.000000, 4.000000, 0.000000, 4.000000, 4.000000, 4.000000, 4.000000, 4.000000, 4.000000, 4.000000
97.000000, 0.000000, 4213.333008, 4212.820313, 4217.436035, 4213.333008, 4197.436035, 4215.384277, 4202.051270, 4217.436035, 4201.538574, 4236.410156, 4223.076660, 4217.436035, 4247.692383, 4220.000000, 3447.000000, 8203.000000, 8168.000000, 0.000000, 0.000000, 0.000000, -20833.000000, 856.410217, 4.000000, 4.000000, 4.000000, 4.000000, 4.000000, 4.000000, 4.000000, 4.000000, 0.000000, 4.000000, 4.000000, 4.000000, 4.000000, 4.000000, 4.000000, 4.000000
98.000000, 0.000000, 4215.384277, 4208.717773, 4210.256348, 4207.692383, 4206.666504, 4212.820313, 4198.461426, 4215.384277, 4202.051270, 4233.333008, 4228.205078, 4216.922852, 4249.230469, 4224.615234, 3597.000000, 8203.000000, 8168.000000, 0.000000, 0.000000, 0.000000, -20833.000000, 864.615356, 4.000000, 4.000000, 4.000000, 4.000000, 4.000000, 4.000000, 4.000000, 4.000000, 0.000000, 4.000000, 4.000000, 4.000000, 4.000000, 4.000000, 4.000000, 4.000000
99.000000, 0.000000, 4213.333008, 4210.256348, 4206.153809, 4204.102539, 4215.384277, 4212.307617, 4194.871582, 4220.000000, 4202.051270, 4235.384277, 4233.846191, 4218.974121, 4252.820313, 4233.846191, 3572.000000, 8213.000000, 8158.000000, 0.000000, 0.000000, 0.000000, -20833.000000, 872.307678, 4.000000, 4.000000, 4.000000, 4.000000, 4.000000, 4.000000, 4.000000, 4.000000, 0.000000, 4.000000, 4.000000, 4.000000, 4.000000, 4.000000, 4.000000, 4.000000
100.000000, 0.000000, 4214.871582, 4207.692383, 4207.692383, 4205.127930, 4204.615234, 4207.179199, 4194.358887, 4217.948730, 4200.512695, 4238.461426, 4228.717773, 4220.000000, 4249.230469, 4230.256348, 3516.000000, 8213.000000, 8158.000000, 0.000000, 0.000000, 0.000000, -20833.000000, 880.000000, 4.000000, 4.000000, 4.000000, 4.000000, 4.000000, 4.000000, 4.000000, 4.000000, 0.000000, 4.000000, 4.000000, 4.000000, 4.000000, 4.000000, 4.000000, 4.000000
101.000000, 0.000000, 4216.410156, 4207.179199, 4213.846191, 4210.256348, 4201.538574, 4201.025391, 4197.948730, 4211.281738, 4200.512695, 4232.820313, 4224.102539, 4217.948730, 4245.641113, 4225.641113, 3447.000000, 8213.000000, 8164.000000, 0.000000, 0.000000, 0.000000, -20833.000000, 887.692261, 4.000000, 4.000000, 4.000000, 4.000000, 4.000000, 4.000000, 4.000000, 4.000000, 0.000000, 4.000000, 4.000000, 4.000000, 4.000000, 4.000000, 4.000000, 4.000000
102.000000, 0.000000, 4217.436035, 4216.922852, 4214.358887, 4214.358887, 4216.410156, 4207.692383, 4203.589844, 4213.846191, 4201.025391, 4234.358887, 4233.846191, 4220.000000, 4249.743652, 4231.794922, 3597.000000, 8213.000000, 8164.000000, 0.000000, 0.000000, 0.000000, -20833.000000, 895.384583, 4.000000, 4.000000, 4.000000, 4.000000, 4.000000, 4.000000, 4.000000, 4.000000, 0.000000, 4.000000, 4.000000, 4.000000, 4.000000, 4.000000, 4.000000, 4.000000
103.000000, 0.000000, 4214.871582, 4221.538574, 4206.153809, 4215.897461, 4220.512695, 4216.922852, 4205.127930, 4218.461426, 4201.025391, 4244.615234, 4240.000000, 4221.025391, 4250.256348, 4231.794922, 3572.000000, 8216.000000, 8163.000000, 0.000000, 0.000000, 0.000000, -20833.000000, 903.589722, 4.000000, 4.000000, 4.000000, 4.000000, 4.000000, 4.000000, 4.000000, 4.000000, 0.000000, 4.000000, 4.000000, 4.000000, 4.000000, 4.000000, 4.000000, 4.000000
104.000000, 0.000000, 4210.769043, 4216.410156, 4203.076660, 4214.871582, 4209.743652, 4211.794922, 4204.615234, 4215.384277, 4201.538574, 4240.512695, 4229.230469, 4216.922852, 4246.666504, 4225.641113, 3516.000000, 8216.000000, 8163.000000, 0.000000, 0.000000, 0.000000, -20833.000000, 911.282043, 4.000000, 4.000000, 4.000000, 4.000000, 4.000000, 4.000000, 4.000000, 4.000000, 0.000000, 4.000000, 4.000000, 4.000000, 4.000000, 4.000000, 4.000000, 4.000000
105.000000, 0.000000, 4213.333008, 4215.384277, 4212.307617, 4212.820313, 4203.589844, 4202.051270, 4205.127930, 4216.922852, 4202.051270, 4230.256348, 4228.205078, 4222.051270, 4248.717773, 4229.230469, 3447.000000, 8216.000000, 8167.000000, 0.000000, 0.000000, 0.000000, -20833.000000, 918.974365, 4.000000, 4.000000, 4.000000, 4.000000, 4.000000, 4.000000, 4.000000, 4.000000, 0.000000, 4.000000, 4.000000, 4.000000, 4.000000, 4.000000, 4.000000, 4.000000
106.000000, 0.000000, 4218.974121, 4218.974121, 4224.102539, 4216.922852, 4201.025391, 4200.000000, 4200.000000, 4218.974121, 4202.051270, 4226.153809, 4237.948730, 4230.769043, 4250.769043, 4235.897461, 3597.000000, 8216.000000, 8167.000000, 0.000000, 0.000000, 0.000000, -20833.000000, 926.666626, 4.000000, 4.000000, 4.000000, 4.000000, 4.000000, 4.000000, 4.000000, 4.000000, 0.000000, 4.000000, 4.000000, 4.000000, 4.000000, 4.000000, 4.000000, 4.000000
107.000000, 0.000000, 4218.974121, 4213.333008, 4225.127930, 4216.410156, 4197.948730, 4205.127930, 4196.410156, 4209.230469, 4200.000000, 4220.512695, 4225.641113, 4226.666504, 4243.076660, 4233.333008, 3572.000000, 8219.000000, 8167.000000, 0.000000, 0.000000, 0.000000, -20833.000000, 934.358948, 4.000000, 4.000000, 4.000000, 4.000000, 4.000000, 4.000000, 4.000000, 4.000000, 0.000000, 4.000000, 4.000000, 4.000000, 4.000000, 4.000000, 4.000000, 4.000000
108.000000, 0.000000, 4216.922852, 4208.205078, 4222.563965, 4205.127930, 4200.000000, 4213.846191, 4207.179199, 4212.307617, 4199.487305, 4210.769043, 4213.333008, 4225.127930, 4234.871582, 4228.205078, 3516.000000, 8219.000000, 8167.000000, 0.000000, 0.000000, 0.000000, -20833.000000, 942.564087, 4.000000, 4.000000, 4.000000, 4.000000, 4.000000, 4.000000, 4.000000, 4.000000, 0.000000, 4.000000, 4.000000, 4.000000, 4.000000, 4.000000, 4.000000, 4.000000
109.000000, 0.000000, 4215.897461, 4207.692383, 4215.384277, 4200.512695, 4201.025391, 4220.512695, 4220.000000, 4233.333008, 4201.538574, 4211.794922, 4228.205078, 4231.281738, 4236.922852, 4228.717773, 3447.000000, 8206.000000, 8168.000000, 0.000000, 0.000000, 0.000000, -20833.000000, 950.256409, 4.000000, 4.000000, 4.000000, 4.000000, 4.000000, 4.000000, 4.000000, 4.000000, 0.000000, 4.000000, 4.000000, 4.000000, 4.000000, 4.000000, 4.000000, 4.000000
110.000000, 0.000000, 4210.769043, 4210.256348, 4206.666504, 4202.051270, 4201.538574, 4220.000000, 4221.025391, 4235.897461, 4201.025391, 4216.922852, 4235.384277, 4225.641113, 4244.102539, 4230.256348, 3597.000000, 8206.000000, 8168.000000, 0.000000, 0.000000, 0.000000, -20833.000000, 957.948669, 4.000000, 4.000000, 4.000000, 4.000000, 4.000000, 4.000000, 4.000000, 4.000000, 0.000000, 4.000000, 4.000000, 4.000000, 4.000000, 4.000000, 4.000000, 4.000000
111.000000, 0.000000, 4203.589844, 4214.871582, 4201.538574, 4201.538574, 4208.717773, 4218.974121, 4217.948730, 4221.025391, 4199.487305, 4216.922852, 4219.487305, 4214.871582, 4245.127930, 4225.641113, 3572.000000, 8199.000000, 8165.000000, 0.000000, 0.000000, 0.000000, -20833.000000, 965.640991, 4.000000, 4.000000, 4.000000, 4.000000, 4.000000, 4.000000, 4.000000, 4.000000, 0.000000, 4.000000, 4.000000, 4.000000, 4.000000, 4.000000, 4.000000, 4.000000
112.000000, 0.000000, 4202.051270, 4214.358887, 4196.410156, 4202.563965, 4210.256348, 4220.000000, 4214.871582, 4213.846191, 4201.538574, 4217.948730, 4212.820313, 4208.205078, 4247.179199, 4216.410156, 3516.000000, 8199.000000, 8165.000000, 0.000000, 0.000000, 0.000000, -20833.000000, 973.333313, 4.000000, 4.000000, 4.000000, 4.000000, 4.000000, 4.000000, 4.000000, 4.000000, 0.000000, 4.000000, 4.000000, 4.000000, 4.000000, 4.000000, 4.000000, 4.000000
113.000000, 0.000000, 4198.974121, 4209.743652, 4188.717773, 4202.051270, 4202.563965, 4212.820313, 4206.153809, 4204.615234, 4202.051270, 4201.538574, 4215.384277, 4198.461426, 4255.384277, 4209.230469, 3447.000000, 8190.000000, 8174.000000, 0.000000, 0.000000, 0.000000, -20833.000000, 981.025635, 4.000000, 4.000000, 4.000000, 4.000000, 4.000000, 4.000000, 4.000000, 4.000000, 0.000000, 4.000000, 4.000000, 4.000000, 4.000000, 4.000000, 4.000000, 4.000000
114.000000, 0.000000, 4196.922852, 4213.846191, 4191.281738, 4198.974121, 4201.025391, 4202.563965, 4195.384277, 4192.307617, 4198.974121, 4178.974121, 4213.333008, 4198.974121, 4262.051270, 4209.743652, 3597.000000, 8190.000000, 8174.000000, 0.000000, 0.000000, 0.000000, -20833.000000, 989.230774, 4.000000, 4.000000, 4.000000, 4.000000, 4.000000, 4.000000, 4.000000, 4.000000, 0.000000, 4.000000, 4.000000, 4.000000, 4.000000, 4.000000, 4.000000, 4.000000
115.000000, 0.000000, 4210.769043, 4220.000000, 4205.641113, 4206.666504, 4204.615234, 4202.563965, 4194.358887, 4201.538574, 4198.974121, 4187.179199, 4220.512695, 4219.487305, 4276.410156, 4225.641113, 3572.000000, 8192.000000, 8170.000000, 0.000000, 0.000000, 0.000000, -20833.000000, 997.435852, 4.000000, 4.000000, 4.000000, 4.000000, 4.000000, 4.000000, 4.000000, 4.000000, 0.000000, 4.000000, 4.000000, 4.000000, 4.000000, 4.000000, 4.000000, 4.000000
116.000000, 0.000000, 4226.153809, 4220.000000, 4216.410156, 4217.436035, 4203.589844, 4205.641113, 4199.487305, 4216.922852, 4201.025391, 4204.615234, 4233.333008, 4236.410156, 4295.897461, 4243.076660, 3516.000000, 8192.000000, 8170.000000, 0.000000, 0.000000, 0.000000, -20832.000000, 5.128205, 4.000000, 4.000000, 4.000000, 4.000000, 4.000000, 4.000000, 4.000000, 4.000000, 0.000000, 4.000000, 4.000000, 4.000000, 4.000000, 4.000000, 4.000000, 4.000000
117.000000, 0.000000, 4225.641113, 4220.000000, 4215.897461, 4216.922852, 4202.051270, 4200.000000, 4200.512695, 4216.922852, 4201.538574, 4196.410156, 4236.922852, 4237.948730, 4301.025391, 4242.563965, 3447.000000, 8196.000000, 8167.000000, 0.000000, 0.000000, 0.000000, -20832.000000, 13.333333, 4.000000, 4.000000, 4.000000, 4.000000, 4.000000, 4.000000, 4.000000, 4.000000, 0.000000, 4.000000, 4.000000, 4.000000, 4.000000, 4.000000, 4.000000, 4.000000
118.000000, 0.000000, 4219.487305, 4222.563965, 4211.794922, 4210.256348, 4198.974121, 4195.384277, 4198.974121, 4217.436035, 4202.051270, 4184.102539, 4227.179199, 4229.230469, 4293.846191, 4231.794922, 3597.000000, 8196.000000, 8167.000000, 0.000000, 0.000000, 0.000000, -20832.000000, 21.025640, 4.000000, 4.000000, 4.000000, 4.000000, 4.000000, 4.000000, 4.000000, 4.000000, 0.000000, 4.000000, 4.000000, 4.000000, 4.000000, 4.000000, 4.000000, 4.000000
119.000000, 0.000000, 4213.846191, 4216.922852, 4202.051270, 4203.589844, 4200.000000, 4202.051270, 4200.000000, 4217.948730, 4201.538574, 4184.102539, 4221.025391, 4218.974121, 4293.333008, 4223.589844, 3572.000000, 8208.000000, 8163.000000, 0.000000, 0.000000, 0.000000, -20832.000000, 29.230768, 4.000000, 4.000000, 4.000000, 4.000000, 4.000000, 4.000000, 4.000000, 4.000000, 0.000000, 4.000000, 4.000000, 4.000000, 4.000000, 4.000000, 4.000000, 4.000000
120.000000, 0.000000, 4206.153809, 4212.820313, 4196.410156, 4202.051270, 4207.692383, 4205.127930, 4200.000000, 4204.102539, 4200.512695, 4181.538574, 4217.436035, 4212.820313, 4295.384277, 4216.922852, 3516.000000, 8208.000000, 8163.000000, 0.000000, 0.000000, 0.000000, -20832.000000, 36.923077, 4.000000, 4.000000, 4.000000, 4.000000, 4.000000, 4.000000, 4.000000, 4.000000, 0.000000, 4.000000, 4.000000, 4.000000, 4.000000, 4.000000, 4.000000, 4.000000
121.000000, 0.000000, 4202.563965, 4217.436035, 4205.127930, 4203.076660, 4200.512695, 4202.051270, 4199.487305, 4200.512695, 4201.538574, 4174.871582, 4207.179199, 4209.230469, 4295.384277, 4216.410156, 3447.000000, 8211.000000, 8167.000000, 0.000000, 0.000000, 0.000000, -20832.000000, 45.128204, 4.000000, 4.000000, 4.000000, 4.000000, 4.000000, 4.000000, 4.000000, 4.000000, 0.000000, 4.000000, 4.000000, 4.000000, 4.000000, 4.000000, 4.000000, 4.000000
122.000000, 0.000000, 4202.051270, 4219.487305, 4208.717773, 4203.076660, 4185.127930, 4196.922852, 4196.410156, 4201.025391, 4201.538574, 4164.102539, 4200.512695, 4203.076660, 4295.897461, 4214.871582, 3597.000000, 8211.000000, 8167.000000, 0.000000, 0.000000, 0.000000, -20832.000000, 52.820511, 4.000000, 4.000000, 4.000000, 4.000000, 4.000000, 4.000000, 4.000000, 4.000000, 0.000000, 4.000000, 4.000000, 4.000000, 4.000000, 4.000000, 4.000000, 4.000000
123.000000, 0.000000, 4198.974121, 4220.000000, 4201.025391, 4197.948730, 4186.666504, 4189.743652, 4187.692383, 4175.384277, 4199.487305, 4153.333008, 4196.922852, 4198.461426, 4284.615234, 4203.076660, 3572.000000, 8207.000000, 8166.000000, 0.000000, 0.000000, 0.000000, -20832.000000, 61.025639, 4.000000, 4.000000, 4.000000, 4.000000, 4.000000, 4.000000, 4.000000, 4.000000, 0.000000, 4.000000, 4.000000, 4.000000, 4.000000, 4.000000, 4.000000, 4.000000
124.000000, 0.000000, 4197.948730, 4235.384277, 4204.102539, 4198.974121, 4198.461426, 4184.102539, 4182.563965, 4158.974121, 4199.487305, 4147.179199, 4192.307617, 4198.461426, 4266.153809, 4196.410156, 3516.000000, 8207.000000, 8166.000000, 0.000000, 0.000000, 0.000000, -20832.000000, 68.717949, 4.000000, 4.000000, 4.000000, 4.000000, 4.000000, 4.000000, 4.000000, 4.000000, 0.000000, 4.000000, 4.000000, 4.000000, 4.000000, 4.000000, 4.000000, 4.000000
125.000000, 0.000000, 4205.127930, 4254.871582, 4210.769043, 4209.230469, 4203.589844, 4183.076660, 4185.641113, 4179.487305, 4202.563965, 4144.102539, 4193.846191, 4197.436035, 4255.897461, 4205.127930, 3447.000000, 8204.000000, 8173.000000, 0.000000, 0.000000, 0.000000, -20832.000000, 76.923073, 4.000000, 4.000000, 4.000000, 4.000000, 4.000000, 4.000000, 4.000000, 4.000000, 0.000000, 4.000000, 4.000000, 4.000000, 4.000000, 4.000000, 4.000000, 4.000000
126.000000, 0.000000, 4216.410156, 4266.153809, 4212.307617, 4213.846191, 4208.205078, 4189.230469, 4187.179199, 4193.333008, 4200.512695, 4149.230469, 4202.563965, 4203.076660, 4254.358887, 4215.384277, 3597.000000, 8204.000000, 8173.000000, 0.000000, 0.000000, 0.000000, -20832.000000, 85.128204, 4.000000, 4.000000, 4.000000, 4.000000, 4.000000, 4.000000, 4.000000, 4.000000, 0.000000, 4.000000, 4.000000, 4.000000, 4.000000, 4.000000, 4.000000, 4.000000
127.000000, 0.000000, 4219.487305, 4273.846191, 4213.846191, 4214.871582, 4217.436035, 4196.922852, 4185.641113, 4184.102539, 4196.922852, 4154.358887, 4204.102539, 4216.410156, 4251.794922, 4218.974121, 57.000000, 8196.000000, 8179.000000, 0.000000, 0.000000, 0.000000, -20832.000000, 92.820511, 4.000000, 4.000000, 4.000000, 4.000000, 4.000000, 4.000000, 4.000000, 4.000000, 0.000000, 4.000000, 4.000000, 4.000000, 4.000000, 4.000000, 4.000000, 4.000000
0.000000, 0.000000, 4208.717773, 4283.076660, 4212.307617, 4216.410156, 4217.436035, 4201.025391, 4186.153809, 4185.127930, 4198.974121, 4150.256348, 4200.512695, 4218.461426, 4245.127930, 4218.461426, 3183.000000, 8196.000000, 8179.000000, 0.000000, 0.000000, 0.000000, -20832.000000, 101.025635, 4.000000, 4.000000, 4.000000, 4.000000, 4.000000, 4.000000, 4.000000, 4.000000, 0.000000, 4.000000, 4.000000, 4.000000, 4.000000, 4.000000, 4.000000, 4.000000
1.000000, 0.000000, 4201.538574, 4287.179199, 4207.692383, 4216.410156, 4215.897461, 4200.000000, 4187.179199, 4193.846191, 4201.538574, 4149.743652, 4196.922852, 4206.666504, 4244.102539, 4218.461426, 3537.000000, 8188.000000, 8188.000000, 0.000000, 0.000000, 0.000000, -20832.000000, 108.717949, 4.000000, 4.000000, 4.000000, 4.000000, 4.000000, 4.000000, 4.000000, 4.000000, 0.000000, 4.000000, 4.000000, 4.000000, 4.000000, 4.000000, 4.000000, 4.000000
2.000000, 0.000000, 4198.461426, 4283.076660, 4205.641113, 4214.871582, 4222.563965, 4198.974121, 4185.641113, 4190.769043, 4200.512695, 4150.769043, 4191.281738, 4201.538574, 4246.666504, 4221.025391, 3568.000000, 8188.000000, 8188.000000, 0.000000, 0.000000, 0.000000, -20832.000000, 116.923073, 4.000000, 4.000000, 4.000000, 4.000000, 4.000000, 4.000000, 4.000000, 4.000000, 0.000000, 4.000000, 4.000000, 4.000000, 4.000000, 4.000000, 4.000000, 4.000000
3.000000, 0.000000, 4191.794922, 4284.102539, 4206.153809, 4214.358887, 4215.897461, 4199.487305, 4184.102539, 4184.615234, 4199.487305, 4139.487305, 4188.205078, 4203.589844, 4246.153809, 4217.948730, 2354.000000, 8188.000000, 8193.000000, 0.000000, 0.000000, 0.000000, -20832.000000, 124.615379, 4.000000, 4.000000, 4.000000, 4.000000, 4.000000, 4.000000, 4.000000, 4.000000, 0.000000, 4.000000, 4.000000, 4.000000, 4.000000, 4.000000, 4.000000, 4.000000
4.000000, 0.000000, 4190.256348, 4285.641113, 4198.974121, 4213.846191, 4202.563965, 4200.000000, 4183.589844, 4184.615234, 4200.000000, 4130.769043, 4182.563965, 4200.000000, 4241.538574, 4212.820313, 3547.000000, 8188.000000, 8193.000000, 0.000000, 0.000000, 0.000000, -20832.000000, 132.820511, 4.000000, 4.000000, 4.000000, 4.000000, 4.000000, 4.000000, 4.000000, 4.000000, 0.000000, 4.000000, 4.000000, 4.000000, 4.000000, 4.000000, 4.000000, 4.000000
5.000000, 0.000000, 4197.948730, 4286.153809, 4198.461426, 4213.333008, 4212.307617, 4198.974121, 4182.563965, 4189.743652, 4200.000000, 4140.000000, 4187.179199, 4204.102539, 4246.153809, 4219.487305, 3576.000000, 8180.000000, 8193.000000, 0.000000, 0.000000, 0.000000, -20832.000000, 140.512817, 4.000000, 4.000000, 4.000000, 4.000000, 4.000000, 4.000000, 4.000000, 4.000000, 0.000000, 4.000000, 4.000000, 4.000000, 4.000000, 4.000000, 4.000000, 4.000000
6.000000, 0.000000, 4209.230469, 4289.230469, 4209.230469, 4217.948730, 4228.205078, 4203.589844, 4186.153809, 4202.563965, 4201.025391, 4152.820313, 4202.563965, 4216.410156, 4256.410156, 4234.358887, 3415.000000, 8180.000000, 8193.000000, 0.000000, 0.000000, 0.000000, -20832.000000, 148.717941, 4.000000, 4.000000, 4.000000, 4.000000, 4.000000, 4.000000, 4.000000, 4.000000, 0.000000, 4.000000, 4.000000, 4.000000, 4.000000, 4.000000, 4.000000, 4.000000
7.000000, 0.000000, 4211.794922, 4285.127930, 4210.256348, 4217.948730, 4223.589844, 4211.281738, 4195.897461, 4219.487305, 4201.025391, 4155.897461, 4203.076660, 4214.871582, 4255.384277, 4234.871582, 3497.000000, 8176.000000, 8192.000000, 0.000000, 0.000000, 0.000000, -20832.000000, 156.410248, 4.000000, 4.000000, 4.000000, 4.000000, 4.000000, 4.000000, 4.000000, 4.000000, 0.000000, 4.000000, 4.000000, 4.000000, 4.000000, 4.000000, 4.000000, 4.000000
8.000000, 0.000000, 4204.615234, 4282.051270, 4202.051270, 4210.769043, 4215.897461, 4208.205078, 4202.051270, 4217.948730, 4201.025391, 4149.743652, 4189.743652, 4203.076660, 4244.102539, 4221.025391, 32.000000, 8176.000000, 8192.000000, 0.000000, 0.000000, 0.000000, -20832.000000, 164.615387, 4.000000, 4.000000, 4.000000, 4.000000, 4.000000, 4.000000, 4.000000, 4.000000, 0.000000, 4.000000, 4.000000, 4.000000, 4.000000, 4.000000, 4.000000, 4.000000
9.000000, 0.000000, 4198.974121, 4289.230469, 4202.563965, 4208.717773, 4220.000000, 4199.487305, 4198.974121, 4202.051270, 4201.025391, 4150.256348, 4185.641113, 4199.487305, 4242.563965, 4219.487305, 3057.000000, 8174.000000, 8184.000000, 0.000000, 0.000000, 0.000000, -20832.000000, 172.820511, 4.000000, 4.000000, 4.000000, 4.000000, 4.000000, 4.000000, 4.000000, 4.000000, 0.000000, 4.000000, 4.000000, 4.000000, 4.000000, 4.000000, 4.000000, 4.000000
10.000000, 0.000000, 4203.076660, 4298.461426, 4216.922852, 4213.846191, 4220.512695, 4198.461426, 4189.743652, 4198.974121, 4201.025391, 4155.897461, 4193.333008, 4205.641113, 4251.281738, 4228.205078, 3739.000000, 8174.000000, 8184.000000, 0.000000, 0.000000, 0.000000, -20832.000000, 180.512817, 4.000000, 4.000000, 4.000000, 4.000000, 4.000000, 4.000000, 4.000000, 4.000000, 0.000000, 4.000000, 4.000000, 4.000000, 4.000000, 4.000000, 4.000000, 4.000000
11.000000, 0.000000, 4209.743652, 4296.410156, 4224.102539, 4215.897461, 4215.384277, 4198.974121, 4184.615234, 4200.512695, 4201.025391, 4153.846191, 4197.436035, 4208.717773, 4250.769043, 4229.230469, 3714.000000, 8187.000000, 8178.000000, 0.000000, 0.000000, 0.000000, -20832.000000, 188.717941, 4.000000, 4.000000, 4.000000, 4.000000, 4.000000, 4.000000, 4.000000, 4.000000, 0.000000, 4.000000, 4.000000, 4.000000, 4.000000, 4.000000, 4.000000, 4.000000
12.000000, 0.000000, 4207.179199, 4290.769043, 4221.025391, 4214.871582, 4216.922852, 4195.897461, 4185.641113, 4196.922852, 4201.538574, 4155.384277, 4198.974121, 4208.717773, 4252.307617, 4226.153809, 3520.000000, 8187.000000, 8178.000000, 0.000000, 0.000000, 0.000000, -20832.000000, 196.410248, 4.000000, 4.000000, 4.000000, 4.000000, 4.000000, 4.000000, 4.000000, 4.000000, 0.000000, 4.000000, 4.000000, 4.000000, 4.000000, 4.000000, 4.000000, 4.000000
13.000000, 0.000000, 4207.692383, 4293.846191, 4226.666504, 4216.410156, 4214.871582, 4191.794922, 4188.717773, 4208.717773, 4202.051270, 4167.692383, 4202.051270, 4213.333008, 4259.487305, 4229.230469, 3447.000000, 8191.000000, 8180.000000, 0.000000, 0.000000, 0.000000, -20832.000000, 204.615387, 4.000000, 4.000000, 4.000000, 4.000000, 4.000000, 4.000000, 4.000000, 4.000000, 0.000000, 4.000000, 4.000000, 4.000000, 4.000000, 4.000000, 4.000000, 4.000000
14.000000, 0.000000, 4209.230469, 4294.871582, 4232.307617, 4216.410156, 4201.538574, 4186.666504, 4188.205078, 4215.897461, 4202.051270, 4172.820313, 4199.487305, 4216.410156, 4251.794922, 4231.281738, 3739.000000, 8191.000000, 8180.000000, 0.000000, 0.000000, 0.000000, -20832.000000, 212.307693, 4.000000, 4.000000, 4.000000, 4.000000, 4.000000, 4.000000, 4.000000, 4.000000, 0.000000, 4.000000, 4.000000, 4.000000, 4.000000, 4.000000, 4.000000, 4.000000
15.000000, 0.000000, 4212.307617, 4291.281738, 4232.307617, 4213.333008, 4196.922852, 4184.615234, 4184.615234, 4193.846191, 4201.025391, 4170.256348, 4194.871582, 4212.820313, 4246.153809, 4228.205078, 3714.000000, 8207.000000, 8164.000000, 0.000000, 0.000000, 0.000000, -20832.000000, 220.512817, 4.000000, 4.000000, 4.000000, 4.000000, 4.000000, 4.000000, 4.000000, 4.000000, 0.000000, 4.000000, 4.000000, 4.000000, 4.000000, 4.000000, 4.000000, 4.000000
16.000000, 0.000000, 4218.974121, 4293.333008, 4235.384277, 4218.461426, 4211.281738, 4187.692383, 4188.205078, 4181.025391, 4201.538574, 4171.794922, 4192.307617, 4204.615234, 4246.666504, 4225.127930, 0.000000, 8207.000000, 8164.000000, 0.000000, 0.000000, 0.000000, -20832.000000, 228.205124, 4.000000, 4.000000, 4.000000, 4.000000, 4.000000, 4.000000, 4.000000, 4.000000, 0.000000, 4.000000, 4.000000, 4.000000, 4.000000, 4.000000, 4.000000, 4.000000
17.000000, 0.000000, 4215.384277, 4286.666504, 4231.794922, 4216.410156, 4214.358887, 4191.794922, 4192.820313, 4198.461426, 4202.051270, 4171.794922, 4180.512695, 4192.307617, 4224.102539, 4210.769043, 0.000000, 8213.000000, 8160.000000, 0.000000, 0.000000, 0.000000, -20832.000000, 236.410248, 4.000000, 4.000000, 4.000000, 4.000000, 4.000000, 4.000000, 4.000000, 4.000000, 0.000000, 4.000000, 4.000000, 4.000000, 4.000000, 4.000000, 4.000000, 4.000000
18.000000, 0.000000, 4201.025391, 4272.307617, 4221.025391, 4203.589844, 4202.563965, 4194.871582, 4187.692383, 4203.589844, 4200.000000, 4168.205078, 4166.666504, 4183.589844, 4201.025391, 4195.897461, 0.000000, 8213.000000, 8160.000000, 0.000000, 0.000000, 0.000000, -20832.000000, 244.102554, 4.000000, 4.000000, 4.000000, 4.000000, 4.000000, 4.000000, 4.000000, 4.000000, 0.000000, 4.000000, 4.000000, 4.000000, 4.000000, 4.000000, 4.000000, 4.000000
19.000000, 0.000000, 4197.948730, 4270.256348, 4219.487305, 4202.051270, 4204.102539, 4195.384277, 4186.666504, 4188.717773, 4201.025391, 4179.487305, 4173.333008, 4190.256348, 4210.256348, 4202.563965, 0.000000, 8225.000000, 8151.000000, 0.000000, 0.000000, 0.000000, -20832.000000, 252.307693, 4.000000, 4.000000, 4.000000, 4.000000, 4.000000, 4.000000, 4.000000, 4.000000, 0.000000, 4.000000, 4.000000, 4.000000, 4.000000, 4.000000, 4.000000, 4.000000
20.000000, 0.000000, 4211.794922, 4273.846191, 4224.102539, 4214.358887, 4212.307617, 4199.487305, 4195.384277, 4187.179199, 4202.051270, 4198.974121, 4190.256348, 4202.563965, 4226.153809, 4215.897461, 0.000000, 8225.000000, 8151.000000, 0.000000, 0.000000, 0.000000, -20832.000000, 260.512817, 4.000000, 4.000000, 4.000000, 4.000000, 4.000000, 4.000000, 4.000000, 4.000000, 0.000000, 4.000000, 4.000000, 4.000000, 4.000000, 4.000000, 4.000000, 4.000000
21.000000, 0.000000, 4215.384277, 4268.717773, 4220.000000, 4214.358887, 4206.153809, 4200.512695, 4195.897461, 4196.922852, 4201.025391, 4204.102539, 4197.948730, 4202.051270, 4230.256348, 4216.922852, 0.000000, 8237.000000, 8150.000000, 0.000000, 0.000000, 0.000000, -20832.000000, 268.205109, 4.000000, 4.000000, 4.000000, 4.000000, 4.000000, 4.000000, 4.000000, 4.000000, 0.000000, 4.000000, 4.000000, 4.000000, 4.000000, 4.000000, 4.000000, 4.000000
22.000000, 0.000000, 4208.205078, 4260.512695, 4216.922852, 4204.102539, 4200.000000, 4192.820313, 4186.153809, 4200.000000, 4201.538574, 4204.615234, 4205.641113, 4198.974121, 4238.974121, 4220.512695, 0.000000, 8237.000000, 8150.000000, 0.000000, 0.000000, 0.000000, -20832.000000, 276.410248, 4.000000, 4.000000, 4.000000, 4.000000, 4.000000, 4.000000, 4.000000, 4.000000, 0.000000, 4.000000, 4.000000, 4.000000, 4.000000, 4.000000, 4.000000, 4.000000
23.000000, 0.000000, 4210.256348, 4254.358887, 4220.000000, 4202.051270, 4201.025391, 4186.153809, 4184.615234, 4200.512695, 4202.051270, 4214.871582, 4215.897461, 4203.589844, 4251.794922, 4231.281738, 0.000000, 8242.000000, 8148.000000, 0.000000, 0.000000, 0.000000, -20832.000000, 284.102570, 4.000000, 4.000000, 4.000000, 4.000000, 4.000000, 4.000000, 4.000000, 4.000000, 0.000000, 4.000000, 4.000000, 4.000000, 4.000000, 4.000000, 4.000000, 4.000000
24.000000, 0.000000, 4213.333008, 4246.153809, 4218.974121, 4198.461426, 4193.333008, 4187.692383, 4195.384277, 4202.563965, 4201.025391, 4223.076660, 4218.974121, 4205.127930, 4257.948730, 4234.871582, 0.000000, 8242.000000, 8148.000000, 0.000000, 0.000000, 0.000000, -20832.000000, 291.794861, 4.000000, 4.000000, 4.000000, 4.000000, 4.000000, 4.000000, 4.000000, 4.000000, 0.000000, 4.000000, 4.000000, 4.000000, 4.000000, 4.000000, 4.000000, 4.000000
25.000000, 0.000000, 4207.179199, 4242.563965, 4212.307617, 4191.281738, 4185.127930, 4188.205078, 4196.922852, 4204.102539, 4201.538574, 4224.102539, 4218.974121, 4201.025391, 4254.871582, 4233.333008, 0.000000, 8240.000000, 8140.000000, 0.000000, 0.000000, 0.000000, -20832.000000, 300.000000, 4.000000, 4.000000, 4.000000, 4.000000, 4.000000, 4.000000, 4.000000, 4.000000, 0.000000, 4.000000, 4.000000, 4.000000, 4.000000, 4.000000, 4.000000, 4.000000
26.000000, 0.000000, 4199.487305, 4239.487305, 4207.179199, 4187.692383, 4187.692383, 4187.179199, 4188.205078, 4206.666504, 4201.538574, 4226.666504, 4218.974121, 4198.461426, 4248.205078, 4227.692383, 0.000000, 8240.000000, 8140.000000, 0.000000, 0.000000, 0.000000, -20832.000000, 307.692291, 4.000000, 4.000000, 4.000000, 4.000000, 4.000000, 4.000000, 4.000000, 4.000000, 0.000000, 4.000000, 4.000000, 4.000000, 4.000000, 4.000000, 4.000000, 4.000000
27.000000, 0.000000, 4198.974121, 4234.358887, 4204.615234, 4186.666504, 4185.127930, 4192.820313, 4188.205078, 4214.358887, 4200.512695, 4230.256348, 4218.461426, 4199.487305, 4244.615234, 4221.538574, 0.000000, 8234.000000, 8138.000000, 0.000000, 0.000000, 0.000000, -20832.000000, 315.897430, 4.000000, 4.000000, 4.000000, 4.000000, 4.000000, 4.000000, 4.000000, 4.000000, 0.000000, 4.000000, 4.000000, 4.000000, 4.000000, 4.000000, 4.000000, 4.000000
28.000000, 0.000000, 4203.589844, 4241.538574, 4207.692383, 4192.307617, 4183.076660, 4201.025391, 4196.922852, 4210.769043, 4201.538574, 4231.281738, 4220.512695, 4197.436035, 4240.000000, 4223.076660, 0.000000, 8234.000000, 8138.000000, 0.000000, 0.000000, 0.000000, -20832.000000, 324.102570, 4.000000, 4.000000, 4.000000, 4.000000, 4.000000, 4.000000, 4.000000, 4.000000, 0.000000, 4.000000, 4.000000, 4.000000, 4.000000, 4.000000, 4.000000, 4.000000
29.000000, 0.000000, 4200.512695, 4245.641113, 4208.205078, 4196.410156, 4192.820313, 4201.538574, 4199.487305, 4190.769043, 4202.563965, 4229.230469, 4217.436035, 4189.230469, 4231.794922, 4223.589844, 0.000000, 8221.000000, 8131.000000, 0.000000, 0.000000, 0.000000, -20832.000000, 331.794861, 4.000000, 4.000000, 4.000000, 4.000000, 4.000000, 4.000000, 4.000000, 4.000000, 0.000000, 4.000000, 4.000000, 4.000000, 4.000000, 4.000000, 4.000000, 4.000000
30.000000, 0.000000, 4192.820313, 4239.487305, 4204.615234, 4188.717773, 4192.307617, 4198.461426, 4197.948730, 4185.641113, 4202.051270, 4220.000000, 4205.641113, 4182.051270, 4213.333008, 4212.307617, 0.000000, 8221.000000, 8131.000000, 0.000000, 0.000000, 0.000000, -20832.000000, 340.000000, 4.000000, 4.000000, 4.000000, 4.000000, 4.000000, 4.000000, 4.000000, 4.000000, 0.000000, 4.000000, 4.000000, 4.000000, 4.000000, 4.000000, 4.000000, 4.000000
31.000000, 0.000000, 4195.897461, 4238.974121, 4208.717773, 4186.666504, 4185.127930, 4200.000000, 4202.563965, 4198.974121, 4202.051270, 4210.769043, 4197.436035, 4183.076660, 4199.487305, 4204.615234, 0.000000, 8207.000000, 8128.000000, 0.000000, 0.000000, 0.000000, -20832.000000, 347.692291, 4.000000, 4.000000, 4.000000, 4.000000, 4.000000, 4.000000, 4.000000, 4.000000, 0.000000, 4.000000, 4.000000, 4.000000, 4.000000, 4.000000, 4.000000, 4.000000
32.000000, 0.000000, 4202.563965, 4244.615234, 4213.846191, 4197.436035, 4190.769043, 4197.948730, 4201.025391, 4200.512695, 4201.025391, 4206.153809, 4200.000000, 4186.666504, 4205.127930, 4210.769043, 0.000000, 8207.000000, 8128.000000, 0.000000, 0.000000, 0.000000, -20832.000000, 355.384613, 4.000000, 4.000000, 4.000000, 4.000000, 4.000000, 4.000000, 4.000000, 4.000000, 0.000000, 4.000000, 4.000000, 4.000000, 4.000000, 4.000000, 4.000000, 4.000000
33.000000, 0.000000, 4202.563965, 4249.743652, 4216.922852, 4201.025391, 4194.358887, 4190.256348, 4189.743652, 4189.230469, 4201.025391, 4203.076660, 4206.666504, 4187.692383, 4209.743652, 4216.410156, 0.000000, 8191.000000, 8128.000000, 0.000000, 0.000000, 0.000000, -20832.000000, 363.589722, 4.000000, 4.000000, 4.000000, 4.000000, 4.000000, 4.000000, 4.000000, 4.000000, 0.000000, 4.000000, 4.000000, 4.000000, 4.000000, 4.000000, 4.000000, 4.000000
34.000000, 0.000000, 4207.692383, 4249.743652, 4217.948730, 4199.487305, 4192.820313, 4188.205078, 4179.487305, 4192.307617, 4201.538574, 4202.563965, 4213.846191, 4191.281738, 4208.717773, 4216.922852, 0.000000, 8191.000000, 8128.000000, 0.000000, 0.000000, 0.000000, -20832.000000, 371.282043, 4.000000, 4.000000, 4.000000, 4.000000, 4.000000, 4.000000, 4.000000, 4.000000, 0.000000, 4.000000, 4.000000, 4.000000, 4.000000, 4.000000, 4.000000, 4.000000
35.000000, 0.000000, 4217.436035, 4250.256348, 4219.487305, 4205.641113, 4196.922852, 4192.820313, 4180.000000, 4211.281738, 4202.563965, 4203.589844, 4216.922852, 4197.948730, 4216.410156, 4223.076660, 0.000000, 8156.000000, 8135.000000, 0.000000, 0.000000, 0.000000, -20832.000000, 379.487183, 4.000000, 4.000000, 4.000000, 4.000000, 4.000000, 4.000000, 4.000000, 4.000000, 0.000000, 4.000000, 4.000000, 4.000000, 4.000000, 4.000000, 4.000000, 4.000000
36.000000, 0.000000, 4211.794922, 4251.794922, 4219.487305, 4205.127930, 4195.897461, 4196.410156, 4188.205078, 4222.563965, 4202.563965, 4202.051270, 4216.410156, 4202.563965, 4220.000000, 4230.256348, 0.000000, 8156.000000, 8135.000000, 0.000000, 0.000000, 0.000000, -20832.000000, 387.179474, 4.000000, 4.000000, 4.000000, 4.000000, 4.000000, 4.000000, 4.000000, 4.000000, 0.000000, 4.000000, 4.000000, 4.000000, 4.000000, 4.000000, 4.000000, 4.000000
37.000000, 0.000000, 4201.025391, 4247.179199, 4215.384277, 4194.358887, 4186.666504, 4198.461426, 4195.384277, 4216.922852, 4201.025391, 4200.000000, 4216.410156, 4203.076660, 4214.871582, 4229.743652, 0.000000, 8144.000000, 8133.000000, 0.000000, 0.000000, 0.000000, -20832.000000, 395.384613, 4.000000, 4.000000, 4.000000, 4.000000, 4.000000, 4.000000, 4.000000, 4.000000, 0.000000, 4.000000, 4.000000, 4.000000, 4.000000, 4.000000, 4.000000, 4.000000
38.000000, 0.000000, 4200.000000, 4242.563965, 4211.794922, 4185.127930, 4181.538574, 4199.487305, 4200.512695, 4207.692383, 4200.512695, 4201.025391, 4216.922852, 4203.076660, 4214.871582, 4229.230469, 0.000000, 8144.000000, 8133.000000, 0.000000, 0.000000, 0.000000, -20832.000000, 403.076904, 4.000000, 4.000000, 4.000000, 4.000000, 4.000000, 4.000000, 4.000000, 4.000000, 0.000000, 4.000000, 4.000000, 4.000000, 4.000000, 4.000000, 4.000000, 4.000000
39.000000, 0.000000, 4197.436035, 4240.000000, 4206.153809, 4184.102539, 4184.102539, 4199.487305, 4201.025391, 4209.743652, 4201.538574, 4204.102539, 4216.410156, 4203.589844, 4215.384277, 4227.692383, 0.000000, 8128.000000, 8138.000000, 0.000000, 0.000000, 0.000000, -20832.000000, 411.282043, 4.000000, 4.000000, 4.000000, 4.000000, 4.000000, 4.000000, 4.000000, 4.000000, 0.000000, 4.000000, 4.000000, 4.000000, 4.000000, 4.000000, 4.000000, 4.000000
