title:winkLeft26, recorded:21.05.18 17.05.24, timestamp started:2018-05-12T20:28:52.032863+02:00            , sampling:128, subject:Noé, labels:COUNTER INTERPOLATED AF3 F7 F3 FC5 T7 P7 O1 O2 P8 T8 FC6 F4 F8 AF4 RAW_CQ GYROX GYROY MARKER MARKER_HARDWARE SYNC TIME_STAMP_s TIME_STAMP_ms CQ_AF3 CQ_F7 CQ_F3 CQ_FC5 CQ_T7 CQ_P7 CQ_O1 CQ_O2 CQ_P8 CQ_T8 CQ_FC6 CQ_F4 CQ_F8 CQ_AF4 CQ_CMS CQ_DRL, chan:40, samples:2606, units:emotiv
42.000000, 0.000000, 4193.846191, 4183.076660, 4193.846191, 4196.922852, 4206.153809, 4215.384277, 4202.051270, 4183.589844, 4197.436035, 4208.205078, 4190.769043, 4220.000000, 4242.051270, 4153.846191, 0.000000, 8198.000000, 8230.000000, 0.000000, 0.000000, 0.000000, -21040.000000, 632.820496, 4.000000, 4.000000, 4.000000, 4.000000, 4.000000, 4.000000, 4.000000, 4.000000, 1.000000, 4.000000, 4.000000, 4.000000, 4.000000, 4.000000, 4.000000, 4.000000
43.000000, 0.000000, 4182.563965, 4174.871582, 4183.076660, 4184.615234, 4206.153809, 4216.922852, 4213.333008, 4183.076660, 4197.948730, 4197.948730, 4176.922852, 4212.307617, 4212.307617, 4134.358887, 0.000000, 8203.000000, 8208.000000, 0.000000, 0.000000, 0.000000, -21040.000000, 640.512817, 4.000000, 4.000000, 4.000000, 4.000000, 4.000000, 4.000000, 4.000000, 4.000000, 1.000000, 4.000000, 4.000000, 4.000000, 4.000000, 4.000000, 4.000000, 4.000000
44.000000, 0.000000, 4173.333008, 4173.333008, 4182.563965, 4181.538574, 4196.922852, 4214.358887, 4208.717773, 4193.333008, 4197.436035, 4201.538574, 4181.538574, 4214.358887, 4221.538574, 4137.948730, 0.000000, 8203.000000, 8208.000000, 0.000000, 0.000000, 0.000000, -21040.000000, 648.205139, 4.000000, 4.000000, 4.000000, 4.000000, 4.000000, 4.000000, 4.000000, 4.000000, 1.000000, 4.000000, 4.000000, 4.000000, 4.000000, 4.000000, 4.000000, 4.000000
45.000000, 0.000000, 4187.692383, 4181.025391, 4183.589844, 4183.589844, 4192.307617, 4208.205078, 4197.948730, 4188.717773, 4197.436035, 4210.256348, 4191.794922, 4215.897461, 4252.307617, 4154.871582, 0.000000, 8211.000000, 8138.000000, 0.000000, 0.000000, 0.000000, -21040.000000, 655.897400, 4.000000, 4.000000, 4.000000, 4.000000, 4.000000, 4.000000, 4.000000, 4.000000, 1.000000, 4.000000, 4.000000, 4.000000, 4.000000, 4.000000, 4.000000, 4.000000
46.000000, 0.000000, 4205.127930, 4185.641113, 4181.538574, 4184.102539, 4193.333008, 4203.589844, 4199.487305, 4182.563965, 4197.948730, 4213.333008, 4197.948730, 4216.922852, 4263.076660, 4161.025391, 0.000000, 8211.000000, 8138.000000, 0.000000, 0.000000, 0.000000, -21040.000000, 663.589722, 4.000000, 4.000000, 4.000000, 4.000000, 4.000000, 4.000000, 4.000000, 4.000000, 1.000000, 4.000000, 4.000000, 4.000000, 4.000000, 4.000000, 4.000000, 4.000000
47.000000, 0.000000, 4211.281738, 4185.641113, 4188.205078, 4187.179199, 4186.153809, 4202.563965, 4201.538574, 4188.205078, 4197.948730, 4214.358887, 4203.076660, 4223.076660, 4271.281738, 4166.153809, 0.000000, 8224.000000, 8110.000000, 0.000000, 0.000000, 0.000000, -21040.000000, 671.794861, 4.000000, 4.000000, 4.000000, 4.000000, 4.000000, 4.000000, 4.000000, 4.000000, 1.000000, 4.000000, 4.000000, 4.000000, 4.000000, 4.000000, 4.000000, 4.000000
48.000000, 0.000000, 4221.538574, 4189.230469, 4199.487305, 4198.461426, 4186.666504, 4207.179199, 4199.487305, 4197.948730, 4197.948730, 4222.563965, 4216.410156, 4235.384277, 4298.974121, 4187.179199, 0.000000, 8224.000000, 8110.000000, 0.000000, 0.000000, 0.000000, -21040.000000, 679.487183, 4.000000, 4.000000, 4.000000, 4.000000, 4.000000, 4.000000, 4.000000, 4.000000, 1.000000, 4.000000, 4.000000, 4.000000, 4.000000, 4.000000, 4.000000, 4.000000
49.000000, 0.000000, 4236.922852, 4192.820313, 4204.615234, 4201.025391, 4200.000000, 4211.281738, 4203.076660, 4203.076660, 4198.974121, 4236.922852, 4233.846191, 4250.256348, 4322.051270, 4206.153809, 0.000000, 8226.000000, 8057.000000, 0.000000, 0.000000, 0.000000, -21040.000000, 687.179443, 4.000000, 4.000000, 4.000000, 4.000000, 4.000000, 4.000000, 4.000000, 4.000000, 1.000000, 4.000000, 4.000000, 4.000000, 4.000000, 4.000000, 4.000000, 4.000000
50.000000, 0.000000, 4234.871582, 4185.127930, 4201.538574, 4192.307617, 4196.410156, 4207.179199, 4202.563965, 4200.512695, 4199.487305, 4238.461426, 4236.922852, 4249.230469, 4320.000000, 4201.538574, 0.000000, 8226.000000, 8057.000000, 0.000000, 0.000000, 0.000000, -21040.000000, 694.871765, 4.000000, 4.000000, 4.000000, 4.000000, 4.000000, 4.000000, 4.000000, 4.000000, 1.000000, 4.000000, 4.000000, 4.000000, 4.000000, 4.000000, 4.000000, 4.000000
51.000000, 0.000000, 4220.000000, 4175.384277, 4196.922852, 4184.102539, 4170.769043, 4201.025391, 4200.512695, 4201.025391, 4199.487305, 4228.717773, 4222.051270, 4237.436035, 4303.589844, 4185.127930, 0.000000, 8222.000000, 8027.000000, 0.000000, 0.000000, 0.000000, -21040.000000, 702.564087, 4.000000, 4.000000, 4.000000, 4.000000, 4.000000, 4.000000, 4.000000, 4.000000, 1.000000, 4.000000, 4.000000, 4.000000, 4.000000, 4.000000, 4.000000, 4.000000
52.000000, 0.000000, 4216.922852, 4178.461426, 4196.410156, 4181.538574, 4162.563965, 4202.563965, 4203.076660, 4202.051270, 4197.948730, 4229.230469, 4214.358887, 4236.410156, 4294.871582, 4182.563965, 0.000000, 8222.000000, 8027.000000, 0.000000, 0.000000, 0.000000, -21040.000000, 710.769226, 4.000000, 4.000000, 4.000000, 4.000000, 4.000000, 4.000000, 4.000000, 4.000000, 1.000000, 4.000000, 4.000000, 4.000000, 4.000000, 4.000000, 4.000000, 4.000000
53.000000, 0.000000, 4230.256348, 4187.692383, 4199.487305, 4184.615234, 4170.256348, 4205.641113, 4205.127930, 4201.025391, 4196.922852, 4236.410156, 4222.563965, 4245.127930, 4298.974121, 4191.281738, 0.000000, 8220.000000, 7995.000000, 0.000000, 0.000000, 0.000000, -21040.000000, 718.461548, 4.000000, 4.000000, 4.000000, 4.000000, 4.000000, 4.000000, 4.000000, 4.000000, 1.000000, 4.000000, 4.000000, 4.000000, 4.000000, 4.000000, 4.000000, 4.000000
54.000000, 0.000000, 4234.871582, 4186.153809, 4199.487305, 4186.666504, 4168.717773, 4202.051270, 4202.563965, 4201.025391, 4197.948730, 4236.410156, 4224.102539, 4245.127930, 4297.948730, 4188.205078, 0.000000, 8220.000000, 7995.000000, 0.000000, 0.000000, 0.000000, -21040.000000, 726.153809, 4.000000, 4.000000, 4.000000, 4.000000, 4.000000, 4.000000, 4.000000, 4.000000, 1.000000, 4.000000, 4.000000, 4.000000, 4.000000, 4.000000, 4.000000, 4.000000
55.000000, 0.000000, 4230.256348, 4186.666504, 4199.487305, 4181.538574, 4163.076660, 4200.000000, 4198.461426, 4198.974121, 4198.461426, 4230.769043, 4217.436035, 4238.974121, 4293.333008, 4183.589844, 0.000000, 8215.000000, 7992.000000, 0.000000, 0.000000, 0.000000, -21040.000000, 733.846130, 4.000000, 4.000000, 4.000000, 4.000000, 4.000000, 4.000000, 4.000000, 4.000000, 1.000000, 4.000000, 4.000000, 4.000000, 4.000000, 4.000000, 4.000000, 4.000000
56.000000, 0.000000, 4235.384277, 4195.897461, 4200.512695, 4180.000000, 4165.127930, 4207.179199, 4206.153809, 4196.410156, 4196.410156, 4231.794922, 4217.436035, 4241.025391, 4295.897461, 4188.205078, 0.000000, 8215.000000, 7992.000000, 0.000000, 0.000000, 0.000000, -21040.000000, 741.538452, 4.000000, 4.000000, 4.000000, 4.000000, 4.000000, 4.000000, 4.000000, 4.000000, 1.000000, 4.000000, 4.000000, 4.000000, 4.000000, 4.000000, 4.000000, 4.000000
57.000000, 0.000000, 4247.179199, 4209.743652, 4198.974121, 4185.127930, 4178.974121, 4212.820313, 4215.897461, 4196.922852, 4196.922852, 4240.000000, 4218.974121, 4246.666504, 4301.025391, 4192.307617, 0.000000, 8214.000000, 7994.000000, 0.000000, 0.000000, 0.000000, -21040.000000, 749.743591, 4.000000, 4.000000, 4.000000, 4.000000, 4.000000, 4.000000, 4.000000, 4.000000, 1.000000, 4.000000, 4.000000, 4.000000, 4.000000, 4.000000, 4.000000, 4.000000
58.000000, 0.000000, 4252.307617, 4222.563965, 4198.974121, 4183.589844, 4184.102539, 4205.641113, 4210.769043, 4197.436035, 4199.487305, 4246.153809, 4218.461426, 4248.717773, 4307.692383, 4194.358887, 0.000000, 8214.000000, 7994.000000, 0.000000, 0.000000, 0.000000, -21040.000000, 757.435852, 4.000000, 4.000000, 4.000000, 4.000000, 4.000000, 4.000000, 4.000000, 4.000000, 1.000000, 4.000000, 4.000000, 4.000000, 4.000000, 4.000000, 4.000000, 4.000000
59.000000, 0.000000, 4250.256348, 4230.256348, 4196.922852, 4175.384277, 4174.358887, 4198.461426, 4205.127930, 4195.384277, 4199.487305, 4244.615234, 4222.051270, 4249.230469, 4308.205078, 4197.948730, 0.000000, 8208.000000, 8004.000000, 0.000000, 0.000000, 0.000000, -21040.000000, 765.128174, 4.000000, 4.000000, 4.000000, 4.000000, 4.000000, 4.000000, 4.000000, 4.000000, 1.000000, 4.000000, 4.000000, 4.000000, 4.000000, 4.000000, 4.000000, 4.000000
60.000000, 0.000000, 4254.358887, 4240.512695, 4192.820313, 4174.871582, 4179.487305, 4201.538574, 4210.769043, 4193.846191, 4197.948730, 4238.461426, 4223.076660, 4250.256348, 4303.589844, 4201.538574, 0.000000, 8208.000000, 8004.000000, 0.000000, 0.000000, 0.000000, -21040.000000, 772.820496, 4.000000, 4.000000, 4.000000, 4.000000, 4.000000, 4.000000, 4.000000, 4.000000, 1.000000, 4.000000, 4.000000, 4.000000, 4.000000, 4.000000, 4.000000, 4.000000
61.000000, 0.000000, 4259.487305, 4248.205078, 4189.230469, 4173.846191, 4184.615234, 4203.589844, 4213.333008, 4193.333008, 4197.948730, 4234.358887, 4217.948730, 4250.256348, 4295.384277, 4196.922852, 0.000000, 8209.000000, 8022.000000, 0.000000, 0.000000, 0.000000, -21040.000000, 780.512817, 4.000000, 4.000000, 4.000000, 4.000000, 4.000000, 4.000000, 4.000000, 4.000000, 1.000000, 4.000000, 4.000000, 4.000000, 4.000000, 4.000000, 4.000000, 4.000000
62.000000, 0.000000, 4257.948730, 4247.179199, 4189.230469, 4168.717773, 4170.256348, 4201.025391, 4203.589844, 4187.692383, 4198.461426, 4233.333008, 4213.846191, 4248.205078, 4286.666504, 4191.794922, 0.000000, 8209.000000, 8022.000000, 0.000000, 0.000000, 0.000000, -21040.000000, 788.717957, 4.000000, 4.000000, 4.000000, 4.000000, 4.000000, 4.000000, 4.000000, 4.000000, 1.000000, 4.000000, 4.000000, 4.000000, 4.000000, 4.000000, 4.000000, 4.000000
63.000000, 0.000000, 4259.487305, 4248.717773, 4195.897461, 4168.205078, 4168.717773, 4201.025391, 4200.512695, 4188.717773, 4198.974121, 4235.384277, 4213.333008, 4249.743652, 4282.051270, 4197.436035, 0.000000, 8216.000000, 8051.000000, 0.000000, 0.000000, 0.000000, -21040.000000, 796.410217, 4.000000, 4.000000, 4.000000, 4.000000, 4.000000, 4.000000, 4.000000, 4.000000, 1.000000, 4.000000, 4.000000, 4.000000, 4.000000, 4.000000, 4.000000, 4.000000
64.000000, 0.000000, 4265.127930, 4252.820313, 4202.051270, 4169.743652, 4188.205078, 4201.538574, 4209.743652, 4206.153809, 4200.000000, 4235.384277, 4213.333008, 4250.256348, 4278.974121, 4200.000000, 3161.000000, 8216.000000, 8051.000000, 0.000000, 0.000000, 0.000000, -21040.000000, 804.102539, 4.000000, 4.000000, 4.000000, 4.000000, 4.000000, 4.000000, 4.000000, 4.000000, 1.000000, 4.000000, 4.000000, 4.000000, 4.000000, 4.000000, 4.000000, 4.000000
65.000000, 0.000000, 4272.820313, 4251.794922, 4209.230469, 4173.333008, 4185.641113, 4203.076660, 4213.846191, 4218.461426, 4198.461426, 4234.358887, 4215.897461, 4252.820313, 4282.563965, 4200.000000, 3521.000000, 8227.000000, 8057.000000, 0.000000, 0.000000, 0.000000, -21040.000000, 811.794861, 4.000000, 4.000000, 4.000000, 4.000000, 4.000000, 4.000000, 4.000000, 4.000000, 1.000000, 4.000000, 4.000000, 4.000000, 4.000000, 4.000000, 4.000000, 4.000000
66.000000, 0.000000, 4278.461426, 4247.692383, 4215.384277, 4179.487305, 4170.256348, 4204.102539, 4205.127930, 4206.666504, 4197.948730, 4240.000000, 4221.025391, 4260.512695, 4291.281738, 4208.717773, 3558.000000, 8227.000000, 8057.000000, 0.000000, 0.000000, 0.000000, -21040.000000, 819.487183, 4.000000, 4.000000, 4.000000, 4.000000, 4.000000, 4.000000, 4.000000, 4.000000, 1.000000, 4.000000, 4.000000, 4.000000, 4.000000, 4.000000, 4.000000, 4.000000
67.000000, 0.000000, 4280.512695, 4241.025391, 4215.897461, 4176.922852, 4178.974121, 4202.051270, 4198.461426, 4196.922852, 4198.974121, 4243.589844, 4221.025391, 4262.563965, 4287.179199, 4214.871582, 2383.000000, 8238.000000, 8063.000000, 0.000000, 0.000000, 0.000000, -21040.000000, 827.692261, 4.000000, 4.000000, 4.000000, 4.000000, 4.000000, 4.000000, 4.000000, 4.000000, 1.000000, 4.000000, 4.000000, 4.000000, 4.000000, 4.000000, 4.000000, 4.000000
68.000000, 0.000000, 4284.102539, 4232.820313, 4212.307617, 4170.256348, 4190.256348, 4201.025391, 4205.127930, 4199.487305, 4195.384277, 4238.974121, 4216.410156, 4254.871582, 4277.436035, 4210.769043, 3543.000000, 8238.000000, 8063.000000, 0.000000, 0.000000, 0.000000, -21040.000000, 835.384583, 4.000000, 4.000000, 4.000000, 4.000000, 4.000000, 4.000000, 4.000000, 4.000000, 1.000000, 4.000000, 4.000000, 4.000000, 4.000000, 4.000000, 4.000000, 4.000000
69.000000, 0.000000, 4287.692383, 4227.692383, 4210.769043, 4173.333008, 4186.153809, 4203.076660, 4200.512695, 4190.769043, 4192.820313, 4233.846191, 4215.384277, 4247.179199, 4277.436035, 4208.205078, 3567.000000, 8250.000000, 8084.000000, 0.000000, 0.000000, 0.000000, -21040.000000, 843.076904, 4.000000, 4.000000, 4.000000, 4.000000, 4.000000, 4.000000, 4.000000, 4.000000, 1.000000, 4.000000, 4.000000, 4.000000, 4.000000, 4.000000, 4.000000, 4.000000
70.000000, 0.000000, 4283.589844, 4222.051270, 4206.666504, 4172.820313, 4182.051270, 4195.897461, 4187.692383, 4182.563965, 4197.948730, 4232.820313, 4215.384277, 4245.641113, 4274.358887, 4205.641113, 3390.000000, 8250.000000, 8084.000000, 0.000000, 0.000000, 0.000000, -21040.000000, 850.769226, 4.000000, 4.000000, 4.000000, 4.000000, 4.000000, 4.000000, 4.000000, 4.000000, 1.000000, 4.000000, 4.000000, 4.000000, 4.000000, 4.000000, 4.000000, 4.000000
71.000000, 0.000000, 4276.410156, 4211.794922, 4197.436035, 4165.127930, 4180.512695, 4183.589844, 4184.615234, 4185.641113, 4201.025391, 4229.743652, 4209.230469, 4245.127930, 4260.000000, 4198.974121, 3516.000000, 8234.000000, 8102.000000, 0.000000, 0.000000, 0.000000, -21040.000000, 858.974365, 4.000000, 4.000000, 4.000000, 4.000000, 4.000000, 4.000000, 4.000000, 4.000000, 1.000000, 4.000000, 4.000000, 4.000000, 4.000000, 4.000000, 4.000000, 4.000000
72.000000, 0.000000, 4278.974121, 4204.615234, 4197.436035, 4166.666504, 4180.512695, 4185.641113, 4182.051270, 4185.641113, 4195.897461, 4230.769043, 4209.743652, 4245.127930, 4258.461426, 4200.000000, 71.000000, 8234.000000, 8102.000000, 0.000000, 0.000000, 0.000000, -21040.000000, 866.666626, 4.000000, 4.000000, 4.000000, 4.000000, 4.000000, 4.000000, 4.000000, 4.000000, 1.000000, 4.000000, 4.000000, 4.000000, 4.000000, 4.000000, 4.000000, 4.000000
73.000000, 0.000000, 4283.589844, 4199.487305, 4200.000000, 4166.153809, 4174.871582, 4199.487305, 4192.820313, 4189.230469, 4194.871582, 4231.281738, 4213.333008, 4243.589844, 4257.948730, 4200.512695, 2900.000000, 8200.000000, 8141.000000, 0.000000, 0.000000, 0.000000, -21040.000000, 874.358948, 4.000000, 4.000000, 4.000000, 4.000000, 4.000000, 4.000000, 4.000000, 4.000000, 1.000000, 4.000000, 4.000000, 4.000000, 4.000000, 4.000000, 4.000000, 4.000000
74.000000, 0.000000, 4287.692383, 4198.461426, 4201.025391, 4160.000000, 4166.153809, 4202.051270, 4210.769043, 4197.436035, 4200.512695, 4227.179199, 4206.666504, 4241.538574, 4245.641113, 4195.897461, 3582.000000, 8200.000000, 8141.000000, 0.000000, 0.000000, 0.000000, -21040.000000, 882.051270, 4.000000, 4.000000, 4.000000, 4.000000, 4.000000, 4.000000, 4.000000, 4.000000, 1.000000, 4.000000, 4.000000, 4.000000, 4.000000, 4.000000, 4.000000, 4.000000
75.000000, 0.000000, 4297.948730, 4209.743652, 4207.179199, 4166.153809, 4175.897461, 4196.922852, 4203.589844, 4197.948730, 4201.025391, 4232.820313, 4208.717773, 4246.666504, 4250.769043, 4207.179199, 3561.000000, 8181.000000, 8153.000000, 0.000000, 0.000000, 0.000000, -21040.000000, 889.743591, 4.000000, 4.000000, 4.000000, 4.000000, 4.000000, 4.000000, 4.000000, 4.000000, 1.000000, 4.000000, 4.000000, 4.000000, 4.000000, 4.000000, 4.000000, 4.000000
76.000000, 0.000000, 4302.051270, 4218.974121, 4208.717773, 4173.846191, 4195.384277, 4199.487305, 4190.256348, 4195.897461, 4197.436035, 4240.000000, 4218.974121, 4251.794922, 4260.512695, 4217.948730, 3515.000000, 8181.000000, 8153.000000, 0.000000, 0.000000, 0.000000, -21040.000000, 897.948669, 4.000000, 4.000000, 4.000000, 4.000000, 4.000000, 4.000000, 4.000000, 4.000000, 1.000000, 4.000000, 4.000000, 4.000000, 4.000000, 4.000000, 4.000000, 4.000000
77.000000, 0.000000, 4295.384277, 4221.025391, 4202.051270, 4169.230469, 4192.820313, 4202.563965, 4197.948730, 4200.000000, 4196.922852, 4234.358887, 4217.436035, 4249.743652, 4251.281738, 4211.281738, 3456.000000, 8158.000000, 8162.000000, 0.000000, 0.000000, 0.000000, -21040.000000, 905.640991, 4.000000, 4.000000, 4.000000, 4.000000, 4.000000, 4.000000, 4.000000, 4.000000, 1.000000, 4.000000, 4.000000, 4.000000, 4.000000, 4.000000, 4.000000, 4.000000
78.000000, 0.000000, 4297.436035, 4228.205078, 4201.025391, 4165.127930, 4184.615234, 4202.563965, 4207.179199, 4204.102539, 4200.000000, 4230.769043, 4214.358887, 4247.692383, 4244.102539, 4208.717773, 3582.000000, 8158.000000, 8162.000000, 0.000000, 0.000000, 0.000000, -21040.000000, 913.333313, 4.000000, 4.000000, 4.000000, 4.000000, 4.000000, 4.000000, 4.000000, 4.000000, 1.000000, 4.000000, 4.000000, 4.000000, 4.000000, 4.000000, 4.000000, 4.000000
79.000000, 0.000000, 4305.641113, 4240.512695, 4202.563965, 4168.717773, 4193.333008, 4201.025391, 4201.538574, 4198.461426, 4199.487305, 4234.358887, 4217.948730, 4248.205078, 4250.769043, 4210.256348, 3561.000000, 8128.000000, 8156.000000, 0.000000, 0.000000, 0.000000, -21040.000000, 921.025635, 4.000000, 4.000000, 4.000000, 4.000000, 4.000000, 4.000000, 4.000000, 4.000000, 1.000000, 4.000000, 4.000000, 4.000000, 4.000000, 4.000000, 4.000000, 4.000000
80.000000, 0.000000, 4305.127930, 4244.615234, 4198.461426, 4167.179199, 4197.436035, 4195.897461, 4191.281738, 4187.692383, 4197.436035, 4231.281738, 4214.358887, 4245.127930, 4246.153809, 4200.512695, 3515.000000, 8128.000000, 8156.000000, 0.000000, 0.000000, 0.000000, -21040.000000, 928.717896, 4.000000, 4.000000, 4.000000, 4.000000, 4.000000, 4.000000, 4.000000, 4.000000, 1.000000, 4.000000, 4.000000, 4.000000, 4.000000, 4.000000, 4.000000, 4.000000
81.000000, 0.000000, 4310.769043, 4248.205078, 4199.487305, 4168.205078, 4200.000000, 4195.384277, 4182.563965, 4186.666504, 4198.974121, 4227.692383, 4217.436035, 4250.769043, 4244.102539, 4195.897461, 3456.000000, 8123.000000, 8154.000000, 0.000000, 0.000000, 0.000000, -21040.000000, 936.410217, 4.000000, 4.000000, 4.000000, 4.000000, 4.000000, 4.000000, 4.000000, 4.000000, 1.000000, 4.000000, 4.000000, 4.000000, 4.000000, 4.000000, 4.000000, 4.000000
82.000000, 0.000000, 4324.102539, 4261.025391, 4205.127930, 4167.692383, 4205.127930, 4196.410156, 4183.589844, 4192.307617, 4198.461426, 4233.846191, 4227.692383, 4260.512695, 4261.025391, 4204.615234, 3582.000000, 8123.000000, 8154.000000, 0.000000, 0.000000, 0.000000, -21040.000000, 944.615356, 4.000000, 4.000000, 4.000000, 4.000000, 4.000000, 4.000000, 4.000000, 4.000000, 1.000000, 4.000000, 4.000000, 4.000000, 4.000000, 4.000000, 4.000000, 4.000000
83.000000, 0.000000, 4327.179199, 4264.102539, 4205.641113, 4162.563965, 4201.025391, 4194.358887, 4186.153809, 4189.743652, 4196.410156, 4229.743652, 4223.589844, 4255.384277, 4261.025391, 4204.615234, 3561.000000, 8067.000000, 8158.000000, 0.000000, 0.000000, 0.000000, -21040.000000, 952.307678, 4.000000, 4.000000, 4.000000, 4.000000, 4.000000, 4.000000, 4.000000, 4.000000, 1.000000, 4.000000, 4.000000, 4.000000, 4.000000, 4.000000, 4.000000, 4.000000
84.000000, 0.000000, 4326.666504, 4261.538574, 4204.615234, 4161.538574, 4204.615234, 4196.410156, 4187.692383, 4186.666504, 4197.948730, 4218.974121, 4213.333008, 4246.153809, 4245.127930, 4198.974121, 3515.000000, 8067.000000, 8158.000000, 0.000000, 0.000000, 0.000000, -21040.000000, 960.000000, 4.000000, 4.000000, 4.000000, 4.000000, 4.000000, 4.000000, 4.000000, 4.000000, 1.000000, 4.000000, 4.000000, 4.000000, 4.000000, 4.000000, 4.000000, 4.000000
85.000000, 0.000000, 4337.436035, 4262.051270, 4202.051270, 4160.000000, 4230.769043, 4203.589844, 4197.948730, 4196.410156, 4198.974121, 4222.051270, 4216.922852, 4249.230469, 4251.281738, 4201.538574, 3456.000000, 8055.000000, 8156.000000, 0.000000, 0.000000, 0.000000, -21040.000000, 967.692261, 4.000000, 4.000000, 4.000000, 4.000000, 4.000000, 4.000000, 4.000000, 4.000000, 1.000000, 4.000000, 4.000000, 4.000000, 4.000000, 4.000000, 4.000000, 4.000000
86.000000, 0.000000, 4344.615234, 4258.974121, 4198.974121, 4153.846191, 4250.256348, 4201.025391, 4202.563965, 4201.025391, 4197.948730, 4225.127930, 4224.615234, 4251.281738, 4262.563965, 4204.615234, 3582.000000, 8055.000000, 8156.000000, 0.000000, 0.000000, 0.000000, -21040.000000, 975.384583, 4.000000, 4.000000, 4.000000, 4.000000, 4.000000, 4.000000, 4.000000, 4.000000, 1.000000, 4.000000, 4.000000, 4.000000, 4.000000, 4.000000, 4.000000, 4.000000
87.000000, 0.000000, 4332.820313, 4243.589844, 4197.948730, 4149.743652, 4243.589844, 4197.436035, 4201.025391, 4190.256348, 4198.461426, 4211.794922, 4215.384277, 4242.051270, 4241.025391, 4196.410156, 3561.000000, 8042.000000, 8178.000000, 0.000000, 0.000000, 0.000000, -21040.000000, 983.589722, 4.000000, 4.000000, 4.000000, 4.000000, 4.000000, 4.000000, 4.000000, 4.000000, 1.000000, 4.000000, 4.000000, 4.000000, 4.000000, 4.000000, 4.000000, 4.000000
88.000000, 0.000000, 4328.717773, 4232.820313, 4198.974121, 4151.281738, 4233.333008, 4203.076660, 4198.974121, 4183.076660, 4199.487305, 4206.153809, 4207.179199, 4240.000000, 4223.076660, 4191.794922, 3515.000000, 8042.000000, 8178.000000, 0.000000, 0.000000, 0.000000, -21040.000000, 991.282043, 4.000000, 4.000000, 4.000000, 4.000000, 4.000000, 4.000000, 4.000000, 4.000000, 1.000000, 4.000000, 4.000000, 4.000000, 4.000000, 4.000000, 4.000000, 4.000000
89.000000, 0.000000, 4340.000000, 4234.871582, 4200.512695, 4153.333008, 4232.307617, 4200.512695, 4192.820313, 4185.127930, 4199.487305, 4216.410156, 4216.410156, 4247.692383, 4242.563965, 4203.589844, 3456.000000, 8049.000000, 8179.000000, 0.000000, 0.000000, 0.000000, -21040.000000, 998.974304, 4.000000, 4.000000, 4.000000, 4.000000, 4.000000, 4.000000, 4.000000, 4.000000, 1.000000, 4.000000, 4.000000, 4.000000, 4.000000, 4.000000, 4.000000, 4.000000
90.000000, 0.000000, 4339.487305, 4233.333008, 4200.512695, 4153.333008, 4236.410156, 4193.333008, 4188.717773, 4186.153809, 4198.974121, 4218.974121, 4223.589844, 4251.794922, 4255.384277, 4214.358887, 3582.000000, 8049.000000, 8179.000000, 0.000000, 0.000000, 0.000000, -21039.000000, 7.179487, 4.000000, 4.000000, 4.000000, 4.000000, 4.000000, 4.000000, 4.000000, 4.000000, 1.000000, 4.000000, 4.000000, 4.000000, 4.000000, 4.000000, 4.000000, 4.000000
91.000000, 0.000000, 4336.922852, 4228.205078, 4197.948730, 4156.922852, 4240.000000, 4195.897461, 4188.717773, 4183.076660, 4199.487305, 4213.846191, 4217.948730, 4244.102539, 4247.179199, 4212.820313, 3561.000000, 8047.000000, 8186.000000, 0.000000, 0.000000, 0.000000, -21039.000000, 14.871795, 4.000000, 4.000000, 4.000000, 4.000000, 4.000000, 4.000000, 4.000000, 4.000000, 1.000000, 4.000000, 4.000000, 4.000000, 4.000000, 4.000000, 4.000000, 4.000000
92.000000, 0.000000, 4341.538574, 4223.589844, 4197.948730, 4167.692383, 4237.948730, 4200.512695, 4185.641113, 4185.127930, 4200.000000, 4216.922852, 4217.436035, 4237.948730, 4247.692383, 4207.692383, 3515.000000, 8047.000000, 8186.000000, 0.000000, 0.000000, 0.000000, -21039.000000, 22.564102, 4.000000, 4.000000, 4.000000, 4.000000, 4.000000, 4.000000, 4.000000, 4.000000, 1.000000, 4.000000, 4.000000, 4.000000, 4.000000, 4.000000, 4.000000, 4.000000
93.000000, 0.000000, 4337.948730, 4215.897461, 4203.076660, 4170.769043, 4233.846191, 4196.410156, 4184.102539, 4182.563965, 4198.974121, 4217.948730, 4218.974121, 4240.000000, 4246.666504, 4203.076660, 3456.000000, 8071.000000, 8193.000000, 0.000000, 0.000000, 0.000000, -21039.000000, 30.769230, 4.000000, 4.000000, 4.000000, 4.000000, 4.000000, 4.000000, 4.000000, 4.000000, 1.000000, 4.000000, 4.000000, 4.000000, 4.000000, 4.000000, 4.000000, 4.000000
94.000000, 0.000000, 4329.743652, 4200.512695, 4201.025391, 4159.487305, 4231.281738, 4188.205078, 4184.102539, 4177.948730, 4197.948730, 4214.358887, 4214.358887, 4240.512695, 4232.307617, 4199.487305, 3582.000000, 8071.000000, 8193.000000, 0.000000, 0.000000, 0.000000, -21039.000000, 38.461536, 4.000000, 4.000000, 4.000000, 4.000000, 4.000000, 4.000000, 4.000000, 4.000000, 1.000000, 4.000000, 4.000000, 4.000000, 4.000000, 4.000000, 4.000000, 4.000000
95.000000, 0.000000, 4331.281738, 4188.717773, 4192.307617, 4161.025391, 4231.281738, 4187.179199, 4184.102539, 4195.384277, 4200.000000, 4215.897461, 4216.410156, 4240.000000, 4228.205078, 4202.563965, 3561.000000, 8086.000000, 8191.000000, 0.000000, 0.000000, 0.000000, -21039.000000, 46.153847, 4.000000, 4.000000, 4.000000, 4.000000, 4.000000, 4.000000, 4.000000, 4.000000, 1.000000, 4.000000, 4.000000, 4.000000, 4.000000, 4.000000, 4.000000, 4.000000
96.000000, 0.000000, 4327.692383, 4185.641113, 4188.717773, 4168.205078, 4233.333008, 4192.820313, 4186.666504, 4201.538574, 4200.000000, 4219.487305, 4220.000000, 4242.051270, 4232.307617, 4203.076660, 3515.000000, 8086.000000, 8191.000000, 0.000000, 0.000000, 0.000000, -21039.000000, 54.358974, 4.000000, 4.000000, 4.000000, 4.000000, 4.000000, 4.000000, 4.000000, 4.000000, 1.000000, 4.000000, 4.000000, 4.000000, 4.000000, 4.000000, 4.000000, 4.000000
97.000000, 0.000000, 4321.025391, 4177.948730, 4189.230469, 4166.153809, 4233.333008, 4195.384277, 4187.692383, 4177.436035, 4197.948730, 4216.410156, 4217.948730, 4244.102539, 4232.307617, 4198.974121, 3456.000000, 8108.000000, 8183.000000, 0.000000, 0.000000, 0.000000, -21039.000000, 62.051281, 4.000000, 4.000000, 4.000000, 4.000000, 4.000000, 4.000000, 4.000000, 4.000000, 1.000000, 4.000000, 4.000000, 4.000000, 4.000000, 4.000000, 4.000000, 4.000000
98.000000, 0.000000, 4327.179199, 4170.769043, 4190.256348, 4167.692383, 4236.410156, 4193.333008, 4185.641113, 4176.922852, 4199.487305, 4216.410156, 4218.974121, 4243.076660, 4231.281738, 4201.025391, 3582.000000, 8108.000000, 8183.000000, 0.000000, 0.000000, 0.000000, -21039.000000, 69.743591, 4.000000, 4.000000, 4.000000, 4.000000, 4.000000, 4.000000, 4.000000, 4.000000, 1.000000, 4.000000, 4.000000, 4.000000, 4.000000, 4.000000, 4.000000, 4.000000
99.000000, 0.000000, 4326.666504, 4165.127930, 4187.692383, 4167.692383, 4238.974121, 4196.922852, 4185.127930, 4200.512695, 4201.025391, 4215.897461, 4215.384277, 4238.974121, 4223.589844, 4198.461426, 3561.000000, 8116.000000, 8190.000000, 0.000000, 0.000000, 0.000000, -21039.000000, 77.948715, 4.000000, 4.000000, 4.000000, 4.000000, 4.000000, 4.000000, 4.000000, 4.000000, 1.000000, 4.000000, 4.000000, 4.000000, 4.000000, 4.000000, 4.000000, 4.000000
100.000000, 0.000000, 4311.281738, 4156.410156, 4185.641113, 4158.461426, 4229.743652, 4200.512695, 4183.589844, 4193.333008, 4197.948730, 4206.666504, 4207.692383, 4229.743652, 4214.358887, 4188.717773, 3515.000000, 8116.000000, 8190.000000, 0.000000, 0.000000, 0.000000, -21039.000000, 85.641022, 4.000000, 4.000000, 4.000000, 4.000000, 4.000000, 4.000000, 4.000000, 4.000000, 1.000000, 4.000000, 4.000000, 4.000000, 4.000000, 4.000000, 4.000000, 4.000000
101.000000, 0.000000, 4305.641113, 4153.333008, 4185.127930, 4158.974121, 4233.846191, 4200.512695, 4182.051270, 4174.871582, 4197.948730, 4204.615234, 4211.794922, 4229.743652, 4216.410156, 4189.743652, 3456.000000, 8125.000000, 8195.000000, 0.000000, 0.000000, 0.000000, -21039.000000, 93.846153, 4.000000, 4.000000, 4.000000, 4.000000, 4.000000, 4.000000, 4.000000, 4.000000, 1.000000, 4.000000, 4.000000, 4.000000, 4.000000, 4.000000, 4.000000, 4.000000
102.000000, 0.000000, 4317.436035, 4155.897461, 4185.127930, 4169.230469, 4248.205078, 4198.974121, 4186.666504, 4181.538574, 4199.487305, 4214.358887, 4220.000000, 4244.615234, 4222.051270, 4200.512695, 3582.000000, 8125.000000, 8195.000000, 0.000000, 0.000000, 0.000000, -21039.000000, 102.051277, 4.000000, 4.000000, 4.000000, 4.000000, 4.000000, 4.000000, 4.000000, 4.000000, 1.000000, 4.000000, 4.000000, 4.000000, 4.000000, 4.000000, 4.000000, 4.000000
103.000000, 0.000000, 4317.436035, 4149.743652, 4192.820313, 4169.230469, 4240.000000, 4190.256348, 4189.743652, 4186.666504, 4195.897461, 4213.846191, 4218.974121, 4246.153809, 4215.384277, 4202.051270, 3561.000000, 8143.000000, 8200.000000, 0.000000, 0.000000, 0.000000, -21039.000000, 109.743584, 4.000000, 4.000000, 4.000000, 4.000000, 4.000000, 4.000000, 4.000000, 4.000000, 1.000000, 4.000000, 4.000000, 4.000000, 4.000000, 4.000000, 4.000000, 4.000000
104.000000, 0.000000, 4309.230469, 4145.641113, 4199.487305, 4168.205078, 4233.333008, 4186.666504, 4186.153809, 4181.538574, 4193.846191, 4205.641113, 4214.358887, 4235.897461, 4204.615234, 4198.974121, 3515.000000, 8143.000000, 8200.000000, 0.000000, 0.000000, 0.000000, -21039.000000, 117.948715, 4.000000, 4.000000, 4.000000, 4.000000, 4.000000, 4.000000, 4.000000, 4.000000, 1.000000, 4.000000, 4.000000, 4.000000, 4.000000, 4.000000, 4.000000, 4.000000
105.000000, 0.000000, 4318.974121, 4149.230469, 4192.820313, 4170.769043, 4249.230469, 4198.974121, 4190.769043, 4179.487305, 4198.461426, 4203.076660, 4208.205078, 4227.692383, 4201.538574, 4194.871582, 3456.000000, 8155.000000, 8210.000000, 0.000000, 0.000000, 0.000000, -21039.000000, 125.641022, 4.000000, 4.000000, 4.000000, 4.000000, 4.000000, 4.000000, 4.000000, 4.000000, 1.000000, 4.000000, 4.000000, 4.000000, 4.000000, 4.000000, 4.000000, 4.000000
106.000000, 0.000000, 4328.205078, 4143.589844, 4182.051270, 4160.512695, 4256.922852, 4206.153809, 4202.051270, 4185.641113, 4200.000000, 4203.076660, 4202.563965, 4223.076660, 4198.461426, 4184.615234, 3582.000000, 8155.000000, 8210.000000, 0.000000, 0.000000, 0.000000, -21039.000000, 133.846146, 4.000000, 4.000000, 4.000000, 4.000000, 4.000000, 4.000000, 4.000000, 4.000000, 1.000000, 4.000000, 4.000000, 4.000000, 4.000000, 4.000000, 4.000000, 4.000000
107.000000, 0.000000, 4318.974121, 4135.897461, 4182.051270, 4153.846191, 4247.179199, 4199.487305, 4197.436035, 4198.461426, 4198.461426, 4203.589844, 4205.127930, 4222.563965, 4191.281738, 4182.563965, 3561.000000, 8160.000000, 8218.000000, 0.000000, 0.000000, 0.000000, -21039.000000, 141.538452, 4.000000, 4.000000, 4.000000, 4.000000, 4.000000, 4.000000, 4.000000, 4.000000, 1.000000, 4.000000, 4.000000, 4.000000, 4.000000, 4.000000, 4.000000, 4.000000
108.000000, 0.000000, 4312.307617, 4139.487305, 4185.127930, 4160.512695, 4243.076660, 4198.974121, 4186.666504, 4198.461426, 4198.974121, 4197.436035, 4200.512695, 4221.025391, 4177.948730, 4188.205078, 3515.000000, 8160.000000, 8218.000000, 0.000000, 0.000000, 0.000000, -21039.000000, 149.743591, 4.000000, 4.000000, 4.000000, 4.000000, 4.000000, 4.000000, 4.000000, 4.000000, 1.000000, 4.000000, 4.000000, 4.000000, 4.000000, 4.000000, 4.000000, 4.000000
109.000000, 0.000000, 4315.384277, 4138.974121, 4184.102539, 4160.000000, 4246.666504, 4205.641113, 4197.436035, 4195.897461, 4200.000000, 4188.717773, 4188.717773, 4216.410156, 4167.179199, 4181.538574, 3456.000000, 8166.000000, 8228.000000, 0.000000, 0.000000, 0.000000, -21039.000000, 157.948715, 4.000000, 4.000000, 4.000000, 4.000000, 4.000000, 4.000000, 4.000000, 4.000000, 1.000000, 4.000000, 4.000000, 4.000000, 4.000000, 4.000000, 4.000000, 4.000000
110.000000, 0.000000, 4313.333008, 4127.179199, 4179.487305, 4150.769043, 4248.205078, 4207.692383, 4214.871582, 4207.179199, 4198.461426, 4196.410156, 4190.769043, 4216.410156, 4170.256348, 4176.410156, 3582.000000, 8166.000000, 8228.000000, 0.000000, 0.000000, 0.000000, -21039.000000, 165.641022, 4.000000, 4.000000, 4.000000, 4.000000, 4.000000, 4.000000, 4.000000, 4.000000, 1.000000, 4.000000, 4.000000, 4.000000, 4.000000, 4.000000, 4.000000, 4.000000
111.000000, 0.000000, 4309.230469, 4125.641113, 4175.897461, 4148.717773, 4244.615234, 4201.025391, 4206.153809, 4207.692383, 4196.922852, 4210.769043, 4200.512695, 4220.000000, 4175.384277, 4182.051270, 3561.000000, 8166.000000, 8276.000000, 0.000000, 0.000000, 0.000000, -21039.000000, 173.846146, 4.000000, 4.000000, 4.000000, 4.000000, 4.000000, 4.000000, 4.000000, 4.000000, 1.000000, 4.000000, 4.000000, 4.000000, 4.000000, 4.000000, 4.000000, 4.000000
112.000000, 0.000000, 4315.384277, 4132.307617, 4181.538574, 4157.948730, 4242.051270, 4192.820313, 4186.666504, 4184.615234, 4196.410156, 4220.000000, 4202.051270, 4218.974121, 4188.205078, 4186.153809, 3515.000000, 8166.000000, 8276.000000, 0.000000, 0.000000, 0.000000, -21039.000000, 181.538452, 4.000000, 4.000000, 4.000000, 4.000000, 4.000000, 4.000000, 4.000000, 4.000000, 1.000000, 4.000000, 4.000000, 4.000000, 4.000000, 4.000000, 4.000000, 4.000000
113.000000, 0.000000, 4317.436035, 4132.307617, 4186.153809, 4165.127930, 4245.127930, 4194.871582, 4181.025391, 4168.205078, 4197.948730, 4246.153809, 4200.000000, 4216.922852, 4226.666504, 4181.025391, 3456.000000, 8215.000000, 8334.000000, 0.000000, 0.000000, 0.000000, -21039.000000, 189.743591, 4.000000, 4.000000, 4.000000, 4.000000, 4.000000, 4.000000, 4.000000, 4.000000, 1.000000, 4.000000, 4.000000, 4.000000, 4.000000, 4.000000, 4.000000, 4.000000
114.000000, 0.000000, 4311.794922, 4127.179199, 4184.102539, 4159.487305, 4248.717773, 4203.589844, 4192.307617, 4177.436035, 4198.461426, 4287.179199, 4201.538574, 4215.384277, 4261.538574, 4176.410156, 3582.000000, 8215.000000, 8334.000000, 0.000000, 0.000000, 0.000000, -21039.000000, 197.435898, 4.000000, 4.000000, 4.000000, 4.000000, 4.000000, 4.000000, 4.000000, 4.000000, 1.000000, 4.000000, 4.000000, 4.000000, 4.000000, 4.000000, 4.000000, 4.000000
115.000000, 0.000000, 4314.871582, 4125.127930, 4179.487305, 4152.307617, 4251.281738, 4198.461426, 4201.025391, 4190.256348, 4199.487305, 4306.153809, 4203.589844, 4217.436035, 4263.589844, 4180.000000, 3561.000000, 8199.000000, 8307.000000, 0.000000, 0.000000, 0.000000, -21039.000000, 205.641022, 4.000000, 4.000000, 4.000000, 4.000000, 4.000000, 4.000000, 4.000000, 4.000000, 1.000000, 4.000000, 4.000000, 4.000000, 4.000000, 4.000000, 4.000000, 4.000000
116.000000, 0.000000, 4320.512695, 4118.461426, 4176.410156, 4149.743652, 4256.410156, 4183.589844, 4190.256348, 4182.563965, 4199.487305, 4302.563965, 4198.461426, 4221.025391, 4269.230469, 4180.512695, 3515.000000, 8199.000000, 8307.000000, 0.000000, 0.000000, 0.000000, -21039.000000, 213.333328, 4.000000, 4.000000, 4.000000, 4.000000, 4.000000, 4.000000, 4.000000, 4.000000, 1.000000, 4.000000, 4.000000, 4.000000, 4.000000, 4.000000, 4.000000, 4.000000
117.000000, 0.000000, 4322.051270, 4118.974121, 4180.000000, 4145.127930, 4274.358887, 4183.589844, 4182.563965, 4175.384277, 4197.948730, 4334.871582, 4191.281738, 4217.948730, 4322.563965, 4175.897461, 3456.000000, 8201.000000, 8344.000000, 0.000000, 0.000000, 0.000000, -21039.000000, 221.538452, 4.000000, 4.000000, 4.000000, 4.000000, 4.000000, 4.000000, 4.000000, 4.000000, 1.000000, 4.000000, 4.000000, 4.000000, 4.000000, 4.000000, 4.000000, 4.000000
118.000000, 0.000000, 4339.487305, 4134.358887, 4183.076660, 4140.000000, 4303.589844, 4186.666504, 4193.333008, 4182.563965, 4196.922852, 4420.000000, 4190.769043, 4218.974121, 4398.461426, 4174.871582, 3582.000000, 8201.000000, 8344.000000, 0.000000, 0.000000, 0.000000, -21039.000000, 229.743591, 4.000000, 4.000000, 4.000000, 4.000000, 4.000000, 4.000000, 4.000000, 4.000000, 1.000000, 4.000000, 4.000000, 4.000000, 4.000000, 4.000000, 4.000000, 4.000000
119.000000, 0.000000, 4360.512695, 4135.897461, 4178.974121, 4137.436035, 4327.692383, 4175.897461, 4197.436035, 4176.410156, 4197.948730, 4485.641113, 4191.281738, 4218.974121, 4438.974121, 4174.358887, 3561.000000, 8164.000000, 8358.000000, 0.000000, 0.000000, 0.000000, -21039.000000, 237.435898, 4.000000, 4.000000, 4.000000, 4.000000, 4.000000, 4.000000, 4.000000, 4.000000, 1.000000, 4.000000, 4.000000, 4.000000, 4.000000, 4.000000, 4.000000, 4.000000
120.000000, 0.000000, 4365.127930, 4132.820313, 4171.281738, 4125.641113, 4354.871582, 4163.589844, 4184.102539, 4157.948730, 4198.974121, 4486.153809, 4183.076660, 4206.153809, 4439.487305, 4164.615234, 3515.000000, 8164.000000, 8358.000000, 0.000000, 0.000000, 0.000000, -21039.000000, 245.641022, 4.000000, 4.000000, 4.000000, 4.000000, 4.000000, 4.000000, 4.000000, 4.000000, 1.000000, 4.000000, 4.000000, 4.000000, 4.000000, 4.000000, 4.000000, 4.000000
121.000000, 0.000000, 4371.794922, 4150.769043, 4161.025391, 4109.743652, 4388.205078, 4157.436035, 4181.025391, 4153.333008, 4197.948730, 4465.127930, 4170.256348, 4190.769043, 4450.769043, 4148.205078, 3456.000000, 8153.000000, 8341.000000, 0.000000, 0.000000, 0.000000, -21039.000000, 253.333328, 4.000000, 4.000000, 4.000000, 4.000000, 4.000000, 4.000000, 4.000000, 4.000000, 1.000000, 4.000000, 4.000000, 4.000000, 4.000000, 4.000000, 4.000000, 4.000000
122.000000, 0.000000, 4391.281738, 4168.717773, 4153.333008, 4103.589844, 4420.512695, 4154.358887, 4183.076660, 4152.820313, 4196.410156, 4462.563965, 4157.436035, 4179.487305, 4482.051270, 4138.461426, 3582.000000, 8153.000000, 8341.000000, 0.000000, 0.000000, 0.000000, -21039.000000, 261.538452, 4.000000, 4.000000, 4.000000, 4.000000, 4.000000, 4.000000, 4.000000, 4.000000, 1.000000, 4.000000, 4.000000, 4.000000, 4.000000, 4.000000, 4.000000, 4.000000
123.000000, 0.000000, 4413.333008, 4174.871582, 4149.743652, 4095.384521, 4453.846191, 4143.076660, 4172.820313, 4140.512695, 4195.897461, 4460.512695, 4144.102539, 4171.281738, 4502.051270, 4133.333008, 3561.000000, 8145.000000, 8301.000000, 0.000000, 0.000000, 0.000000, -21039.000000, 269.230774, 4.000000, 4.000000, 4.000000, 4.000000, 4.000000, 4.000000, 4.000000, 4.000000, 1.000000, 4.000000, 4.000000, 4.000000, 4.000000, 4.000000, 4.000000, 4.000000
124.000000, 0.000000, 4438.974121, 4191.794922, 4144.102539, 4080.000000, 4478.974121, 4123.076660, 4165.127930, 4128.205078, 4196.922852, 4446.666504, 4134.358887, 4165.127930, 4505.641113, 4130.769043, 3515.000000, 8145.000000, 8301.000000, 0.000000, 0.000000, 0.000000, -21039.000000, 277.435883, 4.000000, 4.000000, 4.000000, 4.000000, 4.000000, 4.000000, 4.000000, 4.000000, 1.000000, 4.000000, 4.000000, 4.000000, 4.000000, 4.000000, 4.000000, 4.000000
125.000000, 0.000000, 4478.974121, 4226.153809, 4136.922852, 4069.743408, 4502.051270, 4121.538574, 4167.692383, 4122.051270, 4198.461426, 4441.538574, 4127.179199, 4160.000000, 4509.230469, 4136.922852, 3456.000000, 8147.000000, 8261.000000, 0.000000, 0.000000, 0.000000, -21039.000000, 285.641022, 4.000000, 4.000000, 4.000000, 4.000000, 4.000000, 4.000000, 4.000000, 4.000000, 1.000000, 4.000000, 4.000000, 4.000000, 4.000000, 4.000000, 4.000000, 4.000000
126.000000, 0.000000, 4541.025391, 4263.589844, 4137.948730, 4067.692139, 4545.127930, 4137.948730, 4169.743652, 4120.512695, 4198.974121, 4452.820313, 4124.615234, 4157.948730, 4513.846191, 4159.487305, 3582.000000, 8147.000000, 8261.000000, 0.000000, 0.000000, 0.000000, -21039.000000, 293.333313, 4.000000, 4.000000, 4.000000, 4.000000, 4.000000, 4.000000, 4.000000, 4.000000, 1.000000, 4.000000, 4.000000, 4.000000, 4.000000, 4.000000, 4.000000, 4.000000
127.000000, 0.000000, 4617.948730, 4309.230469, 4139.487305, 4073.333252, 4590.256348, 4146.666504, 4169.230469, 4121.538574, 4200.512695, 4466.666504, 4144.102539, 4158.974121, 4514.358887, 4195.897461, 57.000000, 8159.000000, 8238.000000, 0.000000, 0.000000, 0.000000, -21039.000000, 301.538452, 4.000000, 4.000000, 4.000000, 4.000000, 4.000000, 4.000000, 4.000000, 4.000000, 1.000000, 4.000000, 4.000000, 4.000000, 4.000000, 4.000000, 4.000000, 4.000000
0.000000, 0.000000, 4709.743652, 4366.666504, 4133.333008, 4083.589600, 4617.435547, 4148.205078, 4169.743652, 4123.589844, 4199.487305, 4484.102539, 4193.333008, 4158.461426, 4514.358887, 4245.641113, 3163.000000, 8159.000000, 8238.000000, 0.000000, 0.000000, 0.000000, -21039.000000, 309.230774, 4.000000, 4.000000, 4.000000, 4.000000, 4.000000, 4.000000, 4.000000, 4.000000, 1.000000, 4.000000, 4.000000, 4.000000, 4.000000, 4.000000, 4.000000, 4.000000
1.000000, 0.000000, 4825.127930, 4418.974121, 4126.666504, 4091.281982, 4646.666504, 4144.615234, 4171.794922, 4123.589844, 4198.461426, 4510.256348, 4254.358887, 4158.461426, 4527.692383, 4298.461426, 3522.000000, 8156.000000, 8234.000000, 0.000000, 0.000000, 0.000000, -21039.000000, 317.435883, 4.000000, 4.000000, 4.000000, 4.000000, 4.000000, 4.000000, 4.000000, 4.000000, 1.000000, 4.000000, 4.000000, 4.000000, 4.000000, 4.000000, 4.000000, 4.000000
2.000000, 0.000000, 4949.743652, 4454.358887, 4121.538574, 4096.410156, 4676.922852, 4143.589844, 4171.794922, 4117.436035, 4198.974121, 4543.076660, 4333.846191, 4157.436035, 4545.641113, 4328.717773, 3494.000000, 8156.000000, 8234.000000, 0.000000, 0.000000, 0.000000, -21039.000000, 325.128204, 4.000000, 4.000000, 4.000000, 4.000000, 4.000000, 4.000000, 4.000000, 4.000000, 1.000000, 4.000000, 4.000000, 4.000000, 4.000000, 4.000000, 4.000000, 4.000000
3.000000, 0.000000, 5072.307617, 4483.589844, 4118.974121, 4096.922852, 4700.512695, 4145.127930, 4162.051270, 4108.205078, 4200.000000, 4590.256348, 4466.666504, 4149.230469, 4560.000000, 4349.230469, 2368.000000, 8168.000000, 8238.000000, 0.000000, 0.000000, 0.000000, -21039.000000, 333.333313, 4.000000, 4.000000, 4.000000, 4.000000, 4.000000, 4.000000, 4.000000, 4.000000, 1.000000, 4.000000, 4.000000, 4.000000, 4.000000, 4.000000, 4.000000, 4.000000
4.000000, 0.000000, 5250.769043, 4520.000000, 4105.641113, 4088.717773, 4740.512695, 4122.563965, 4144.102539, 4104.102539, 4200.512695, 4658.461426, 4652.307617, 4136.410156, 4588.205078, 4390.769043, 3497.000000, 8168.000000, 8238.000000, 0.000000, 0.000000, 0.000000, -21039.000000, 341.025635, 4.000000, 4.000000, 4.000000, 4.000000, 4.000000, 4.000000, 4.000000, 4.000000, 1.000000, 4.000000, 4.000000, 4.000000, 4.000000, 4.000000, 4.000000, 4.000000
5.000000, 0.000000, 5516.922852, 4551.281738, 4085.128174, 4091.281982, 4788.717773, 4112.307617, 4137.436035, 4100.512695, 4202.051270, 4782.051270, 4903.076660, 4124.102539, 4628.717773, 4453.333008, 3575.000000, 8185.000000, 8252.000000, 0.000000, 0.000000, 0.000000, -21039.000000, 349.230774, 4.000000, 4.000000, 4.000000, 4.000000, 4.000000, 4.000000, 4.000000, 4.000000, 1.000000, 4.000000, 4.000000, 4.000000, 4.000000, 4.000000, 4.000000, 4.000000
6.000000, 0.000000, 5793.333008, 4563.589844, 4064.102539, 4109.743652, 4828.717773, 4110.769043, 4130.769043, 4077.435791, 4203.076660, 4960.512695, 5237.435547, 4106.666504, 4655.897461, 4520.512695, 3400.000000, 8185.000000, 8252.000000, 0.000000, 0.000000, 0.000000, -21039.000000, 356.923065, 4.000000, 4.000000, 4.000000, 4.000000, 4.000000, 4.000000, 4.000000, 4.000000, 1.000000, 4.000000, 4.000000, 4.000000, 4.000000, 4.000000, 4.000000, 4.000000
7.000000, 0.000000, 6060.000000, 4566.666504, 4031.794678, 4111.794922, 4878.974121, 4060.000000, 4100.000000, 4031.794678, 4201.538574, 5117.948730, 5525.641113, 4077.948730, 4675.384277, 4593.333008, 3524.000000, 8189.000000, 8261.000000, 0.000000, 0.000000, 0.000000, -21039.000000, 365.128204, 4.000000, 4.000000, 4.000000, 4.000000, 4.000000, 4.000000, 4.000000, 4.000000, 1.000000, 4.000000, 4.000000, 4.000000, 4.000000, 4.000000, 4.000000, 4.000000
8.000000, 0.000000, 6407.179199, 4575.897461, 3989.743408, 4099.487305, 4958.461426, 4005.640869, 4061.025635, 3979.487061, 4201.025391, 5276.922852, 5672.820313, 4034.871582, 4694.871582, 4689.230469, 77.000000, 8189.000000, 8261.000000, 0.000000, 0.000000, 0.000000, -21039.000000, 372.820496, 4.000000, 4.000000, 4.000000, 4.000000, 4.000000, 4.000000, 4.000000, 4.000000, 1.000000, 4.000000, 4.000000, 4.000000, 4.000000, 4.000000, 4.000000, 4.000000
9.000000, 0.000000, 6890.769043, 4582.051270, 3942.563965, 4098.461426, 5062.563965, 3984.102539, 4024.102539, 3908.717773, 4195.897461, 5541.025391, 5843.589844, 3989.230713, 4698.974121, 4808.205078, 2790.000000, 8214.000000, 8256.000000, 0.000000, 0.000000, 0.000000, -21039.000000, 381.025635, 4.000000, 4.000000, 4.000000, 4.000000, 4.000000, 4.000000, 4.000000, 4.000000, 1.000000, 4.000000, 4.000000, 4.000000, 4.000000, 4.000000, 4.000000, 4.000000
10.000000, 0.000000, 7378.461426, 4573.846191, 3880.512695, 4077.435791, 5170.769043, 3938.974365, 3972.307617, 3823.076904, 4187.179199, 5890.769043, 6094.358887, 3961.538330, 4698.974121, 4959.486816, 3548.000000, 8214.000000, 8256.000000, 0.000000, 0.000000, 0.000000, -21039.000000, 388.717926, 4.000000, 4.000000, 4.000000, 4.000000, 4.000000, 4.000000, 4.000000, 4.000000, 1.000000, 4.000000, 4.000000, 4.000000, 4.000000, 4.000000, 4.000000, 4.000000
11.000000, 0.000000, 7641.025391, 4564.615234, 3800.000000, 4007.692139, 5260.000000, 3862.563965, 3905.128174, 3757.435791, 4184.615234, 6245.641113, 6165.641113, 3924.102539, 4712.307617, 5198.461426, 3439.000000, 8219.000000, 8263.000000, 0.000000, 0.000000, 0.000000, -21039.000000, 396.923065, 4.000000, 4.000000, 4.000000, 4.000000, 4.000000, 4.000000, 4.000000, 4.000000, 1.000000, 4.000000, 4.000000, 4.000000, 4.000000, 4.000000, 4.000000, 4.000000
12.000000, 0.000000, 7661.025391, 4553.846191, 3698.974365, 3920.512695, 5385.127930, 3754.358887, 3815.384521, 3699.487061, 4184.615234, 6642.051270, 5981.025391, 3836.410156, 4721.025391, 5494.871582, 3455.000000, 8219.000000, 8263.000000, 0.000000, 0.000000, 0.000000, -21039.000000, 404.615387, 4.000000, 4.000000, 4.000000, 4.000000, 4.000000, 4.000000, 4.000000, 4.000000, 1.000000, 4.000000, 4.000000, 4.000000, 4.000000, 4.000000, 4.000000, 4.000000
13.000000, 0.000000, 7630.769043, 4560.512695, 3607.179443, 3859.487061, 5614.871582, 3651.281982, 3726.666504, 3661.538330, 4190.769043, 7120.512695, 5781.538086, 3742.563965, 4746.153809, 5853.846191, 3483.000000, 8231.000000, 8271.000000, 0.000000, 0.000000, 0.000000, -21039.000000, 412.820496, 4.000000, 4.000000, 4.000000, 4.000000, 4.000000, 4.000000, 4.000000, 4.000000, 1.000000, 4.000000, 4.000000, 4.000000, 4.000000, 4.000000, 4.000000, 4.000000
14.000000, 0.000000, 7634.871582, 4628.717773, 3588.205078, 3841.025635, 5901.025391, 3669.230713, 3719.487061, 3737.948730, 4199.487305, 7531.794922, 5729.743652, 3731.281982, 4866.153809, 6530.769043, 3548.000000, 8231.000000, 8271.000000, 0.000000, 0.000000, 0.000000, -21039.000000, 421.025635, 4.000000, 4.000000, 4.000000, 4.000000, 4.000000, 4.000000, 4.000000, 4.000000, 1.000000, 4.000000, 4.000000, 4.000000, 4.000000, 4.000000, 4.000000, 4.000000
15.000000, 0.000000, 7622.563965, 4713.333008, 3604.102539, 3861.538330, 6213.846191, 3695.384521, 3763.076904, 3886.153809, 4203.076660, 7685.127930, 5741.538086, 3755.897461, 5056.410156, 7371.794922, 3439.000000, 8237.000000, 8259.000000, 0.000000, 0.000000, 0.000000, -21039.000000, 428.717926, 4.000000, 4.000000, 4.000000, 4.000000, 4.000000, 4.000000, 4.000000, 4.000000, 1.000000, 4.000000, 4.000000, 4.000000, 4.000000, 4.000000, 4.000000, 4.000000
16.000000, 0.000000, 7601.538086, 4775.897461, 3594.871826, 3929.230713, 6549.743652, 3668.717773, 3768.205078, 3979.487061, 4207.692383, 7649.230469, 5695.897461, 3746.666504, 5249.743652, 7750.769043, 0.000000, 8237.000000, 8259.000000, 0.000000, 0.000000, 0.000000, -21039.000000, 436.923065, 4.000000, 4.000000, 4.000000, 4.000000, 4.000000, 4.000000, 4.000000, 4.000000, 1.000000, 4.000000, 4.000000, 4.000000, 4.000000, 4.000000, 4.000000, 4.000000
17.000000, 0.000000, 7600.000000, 4841.538574, 3570.769043, 3996.410156, 6804.102539, 3732.820313, 3749.743408, 4023.589600, 4218.461426, 7624.615234, 5558.461426, 3729.743408, 5438.974121, 7665.640625, 0.000000, 8243.000000, 8247.000000, 0.000000, 0.000000, 0.000000, -21039.000000, 444.615387, 4.000000, 4.000000, 4.000000, 4.000000, 4.000000, 4.000000, 4.000000, 4.000000, 1.000000, 4.000000, 4.000000, 4.000000, 4.000000, 4.000000, 4.000000, 4.000000
18.000000, 0.000000, 7601.025391, 4890.769043, 3521.025635, 3987.692139, 6932.820313, 3804.615234, 3722.563965, 4061.538330, 4221.538574, 7631.281738, 5404.102539, 3701.025635, 5628.205078, 7624.102539, 0.000000, 8243.000000, 8247.000000, 0.000000, 0.000000, 0.000000, -21039.000000, 452.820496, 4.000000, 4.000000, 4.000000, 4.000000, 4.000000, 4.000000, 4.000000, 4.000000, 1.000000, 4.000000, 4.000000, 4.000000, 4.000000, 4.000000, 4.000000, 4.000000
19.000000, 0.000000, 7601.025391, 4876.410156, 3422.563965, 3949.743408, 6996.922852, 3723.076904, 3638.974365, 4049.743408, 4217.948730, 7613.333008, 5246.666504, 3610.256348, 5780.000000, 7668.717773, 0.000000, 8231.000000, 8254.000000, 0.000000, 0.000000, 0.000000, -21039.000000, 460.512817, 4.000000, 4.000000, 4.000000, 4.000000, 4.000000, 4.000000, 4.000000, 4.000000, 1.000000, 4.000000, 4.000000, 4.000000, 4.000000, 4.000000, 4.000000, 4.000000
20.000000, 0.000000, 7600.000000, 4836.922852, 3300.000000, 3942.563965, 7002.563965, 3620.512695, 3509.230713, 3988.205078, 4222.563965, 7598.461426, 4966.153809, 3462.563965, 5843.076660, 7628.717773, 0.000000, 8231.000000, 8254.000000, 0.000000, 0.000000, 0.000000, -21039.000000, 468.717926, 4.000000, 4.000000, 4.000000, 4.000000, 4.000000, 4.000000, 4.000000, 4.000000, 1.000000, 4.000000, 4.000000, 4.000000, 4.000000, 4.000000, 4.000000, 4.000000
21.000000, 0.000000, 7600.000000, 4830.769043, 3181.538330, 3952.307617, 6959.486816, 3620.512695, 3389.230713, 3987.692139, 4228.205078, 7600.512695, 4723.589844, 3311.794678, 5827.692383, 7593.846191, 0.000000, 8217.000000, 8255.000000, 0.000000, 0.000000, 0.000000, -21039.000000, 476.410248, 4.000000, 4.000000, 4.000000, 4.000000, 4.000000, 4.000000, 4.000000, 4.000000, 1.000000, 4.000000, 4.000000, 4.000000, 4.000000, 4.000000, 4.000000, 4.000000
22.000000, 0.000000, 7600.512695, 4829.743652, 3084.615234, 4013.333252, 6980.000000, 3636.410156, 3326.666504, 4076.923096, 4232.307617, 7607.179199, 4749.743652, 3188.717773, 5805.127930, 7602.563965, 0.000000, 8217.000000, 8255.000000, 0.000000, 0.000000, 0.000000, -21039.000000, 484.615387, 4.000000, 4.000000, 4.000000, 4.000000, 4.000000, 4.000000, 4.000000, 4.000000, 1.000000, 4.000000, 4.000000, 4.000000, 4.000000, 4.000000, 4.000000, 4.000000
23.000000, 0.000000, 7600.000000, 4794.871582, 3028.205078, 4155.384277, 7103.589355, 3675.897461, 3366.153809, 4121.025391, 4231.794922, 7631.794922, 4815.897461, 3112.307617, 5810.256348, 7599.486816, 0.000000, 8184.000000, 8199.000000, 0.000000, 0.000000, 0.000000, -21039.000000, 492.307678, 4.000000, 4.000000, 4.000000, 4.000000, 4.000000, 4.000000, 4.000000, 4.000000, 1.000000, 4.000000, 4.000000, 4.000000, 4.000000, 4.000000, 4.000000, 4.000000
24.000000, 0.000000, 7600.000000, 4755.384277, 2975.897461, 4288.205078, 7212.820313, 3748.717773, 3469.230713, 4043.076904, 4222.051270, 7648.717773, 4670.769043, 3050.256348, 5817.435547, 7599.486816, 0.000000, 8184.000000, 8199.000000, 0.000000, 0.000000, 0.000000, -21039.000000, 500.512817, 4.000000, 4.000000, 4.000000, 4.000000, 4.000000, 4.000000, 4.000000, 4.000000, 1.000000, 4.000000, 4.000000, 4.000000, 4.000000, 4.000000, 4.000000, 4.000000
25.000000, 0.000000, 7600.000000, 4753.333008, 2914.358887, 4365.127930, 7251.281738, 3782.563965, 3678.461426, 3923.589600, 4215.384277, 7646.153809, 4482.051270, 2967.179443, 5844.102539, 7598.974121, 0.000000, 8180.000000, 8143.000000, 0.000000, 0.000000, 0.000000, -21039.000000, 508.205109, 4.000000, 4.000000, 4.000000, 4.000000, 4.000000, 4.000000, 4.000000, 4.000000, 1.000000, 4.000000, 4.000000, 4.000000, 4.000000, 4.000000, 4.000000, 4.000000
26.000000, 0.000000, 7600.000000, 4778.974121, 2885.640869, 4441.025391, 7205.640625, 3818.974365, 4050.256348, 3862.563965, 4215.384277, 7659.486816, 4421.538574, 2915.897461, 5912.820313, 7598.974121, 0.000000, 8180.000000, 8143.000000, 0.000000, 0.000000, 0.000000, -21039.000000, 516.410217, 4.000000, 4.000000, 4.000000, 4.000000, 4.000000, 4.000000, 4.000000, 4.000000, 1.000000, 4.000000, 4.000000, 4.000000, 4.000000, 4.000000, 4.000000, 4.000000
27.000000, 0.000000, 7600.000000, 4800.000000, 2873.846191, 4498.461426, 7041.025391, 3906.153809, 4284.615234, 3855.384521, 4216.410156, 7582.563965, 4328.717773, 2916.923096, 5984.102539, 7599.486816, 0.000000, 8170.000000, 8071.000000, 0.000000, 0.000000, 0.000000, -21039.000000, 524.102539, 4.000000, 4.000000, 4.000000, 4.000000, 4.000000, 4.000000, 4.000000, 4.000000, 1.000000, 4.000000, 4.000000, 4.000000, 4.000000, 4.000000, 4.000000, 4.000000
28.000000, 0.000000, 7600.000000, 4851.281738, 2856.923096, 4521.538574, 6837.948730, 3967.179443, 4245.127930, 3854.358887, 4217.948730, 7194.358887, 4091.281982, 2924.102539, 6037.435547, 7599.486816, 0.000000, 8170.000000, 8071.000000, 0.000000, 0.000000, 0.000000, -21039.000000, 532.307678, 4.000000, 4.000000, 4.000000, 4.000000, 4.000000, 4.000000, 4.000000, 4.000000, 1.000000, 4.000000, 4.000000, 4.000000, 4.000000, 4.000000, 4.000000, 4.000000
29.000000, 0.000000, 7600.000000, 4977.435547, 2836.923096, 4622.563965, 6689.743652, 3956.410156, 4252.307617, 3799.487061, 4220.000000, 6522.051270, 3870.769043, 2896.923096, 6072.307617, 7600.512695, 0.000000, 8166.000000, 8065.000000, 0.000000, 0.000000, 0.000000, -21039.000000, 540.512817, 4.000000, 4.000000, 4.000000, 4.000000, 4.000000, 4.000000, 4.000000, 4.000000, 1.000000, 4.000000, 4.000000, 4.000000, 4.000000, 4.000000, 4.000000, 4.000000
30.000000, 0.000000, 7600.000000, 5151.281738, 2829.230713, 4836.922852, 6515.384277, 4010.256348, 4286.666504, 3667.692139, 4217.436035, 5903.076660, 3820.512695, 2865.640869, 6137.435547, 7600.000000, 0.000000, 8166.000000, 8065.000000, 0.000000, 0.000000, 0.000000, -21039.000000, 548.205139, 4.000000, 4.000000, 4.000000, 4.000000, 4.000000, 4.000000, 4.000000, 4.000000, 1.000000, 4.000000, 4.000000, 4.000000, 4.000000, 4.000000, 4.000000, 4.000000
31.000000, 0.000000, 7600.000000, 5312.307617, 2866.153809, 4988.717773, 6301.025391, 4145.641113, 4092.307617, 3542.563965, 4215.384277, 5610.256348, 3753.333252, 2871.794922, 6297.948730, 7600.000000, 0.000000, 8162.000000, 8069.000000, 0.000000, 0.000000, 0.000000, -21039.000000, 555.897400, 4.000000, 4.000000, 4.000000, 4.000000, 4.000000, 4.000000, 4.000000, 4.000000, 1.000000, 4.000000, 4.000000, 4.000000, 4.000000, 4.000000, 4.000000, 4.000000
32.000000, 0.000000, 7600.000000, 5496.410156, 2957.948730, 4983.589844, 6222.051270, 4209.230469, 3829.230713, 3471.281982, 4220.000000, 5570.769043, 3560.000000, 2897.948730, 6497.435547, 7600.000000, 0.000000, 8162.000000, 8069.000000, 0.000000, 0.000000, 0.000000, -21039.000000, 564.102539, 4.000000, 4.000000, 4.000000, 4.000000, 4.000000, 4.000000, 4.000000, 4.000000, 1.000000, 4.000000, 4.000000, 4.000000, 4.000000, 4.000000, 4.000000, 4.000000
33.000000, 0.000000, 7600.000000, 5829.230469, 3094.358887, 4929.743652, 6295.897461, 4171.281738, 3676.923096, 3434.358887, 4216.410156, 5497.435547, 3455.897461, 2895.897461, 6643.589355, 7600.000000, 0.000000, 8158.000000, 8069.000000, 0.000000, 0.000000, 0.000000, -21039.000000, 572.307678, 4.000000, 4.000000, 4.000000, 4.000000, 4.000000, 4.000000, 4.000000, 4.000000, 1.000000, 4.000000, 4.000000, 4.000000, 4.000000, 4.000000, 4.000000, 4.000000
34.000000, 0.000000, 7600.000000, 6291.281738, 3276.410156, 4865.641113, 6347.692383, 4100.000000, 3576.410156, 3418.974365, 4199.487305, 5260.512695, 3459.487061, 2845.640869, 6742.563965, 7600.000000, 0.000000, 8158.000000, 8069.000000, 0.000000, 0.000000, 0.000000, -21039.000000, 580.000000, 4.000000, 4.000000, 4.000000, 4.000000, 4.000000, 4.000000, 4.000000, 4.000000, 1.000000, 4.000000, 4.000000, 4.000000, 4.000000, 4.000000, 4.000000, 4.000000
35.000000, 0.000000, 7600.000000, 6741.025391, 3509.230713, 4760.512695, 6290.256348, 4034.358887, 3584.102539, 3407.692139, 4185.641113, 5049.743652, 3467.179443, 2786.666504, 6829.743652, 7600.000000, 0.000000, 8163.000000, 8092.000000, 0.000000, 0.000000, 0.000000, -21039.000000, 588.205139, 4.000000, 4.000000, 4.000000, 4.000000, 4.000000, 4.000000, 4.000000, 4.000000, 1.000000, 4.000000, 4.000000, 4.000000, 4.000000, 4.000000, 4.000000, 4.000000
36.000000, 0.000000, 7600.000000, 7149.230469, 3741.538330, 4660.000000, 6126.666504, 3993.845947, 3744.615234, 3340.000000, 4185.127930, 4912.307617, 3458.461426, 2734.871826, 6925.640625, 7600.000000, 0.000000, 8163.000000, 8092.000000, 0.000000, 0.000000, 0.000000, -21039.000000, 595.897400, 4.000000, 4.000000, 4.000000, 4.000000, 4.000000, 4.000000, 4.000000, 4.000000, 1.000000, 4.000000, 4.000000, 4.000000, 4.000000, 4.000000, 4.000000, 4.000000
37.000000, 0.000000, 7600.000000, 7498.974121, 3929.230713, 4582.051270, 5923.589355, 3959.487061, 4011.794678, 3206.666504, 4182.051270, 4631.281738, 3349.743408, 2672.307617, 7057.435547, 7600.000000, 0.000000, 8167.000000, 8184.000000, 0.000000, 0.000000, 0.000000, -21039.000000, 604.102539, 4.000000, 4.000000, 4.000000, 4.000000, 4.000000, 4.000000, 4.000000, 4.000000, 1.000000, 4.000000, 4.000000, 4.000000, 4.000000, 4.000000, 4.000000, 4.000000
38.000000, 0.000000, 7600.000000, 7668.205078, 4080.000000, 4490.769043, 5756.410156, 3880.512695, 4400.512695, 3116.410156, 4170.769043, 4322.563965, 3172.307617, 2600.000000, 7194.871582, 7600.000000, 0.000000, 8167.000000, 8184.000000, 0.000000, 0.000000, 0.000000, -21039.000000, 611.794861, 4.000000, 4.000000, 4.000000, 4.000000, 4.000000, 4.000000, 4.000000, 4.000000, 1.000000, 4.000000, 4.000000, 4.000000, 4.000000, 4.000000, 4.000000, 4.000000
39.000000, 0.000000, 7600.000000, 7655.384277, 4106.153809, 4376.410156, 5572.820313, 3760.000000, 4737.948730, 3069.743408, 4166.666504, 4263.589844, 3035.897461, 2510.769287, 7276.410156, 7600.000000, 0.000000, 8152.000000, 8210.000000, 0.000000, 0.000000, 0.000000, -21039.000000, 620.000000, 4.000000, 4.000000, 4.000000, 4.000000, 4.000000, 4.000000, 4.000000, 4.000000, 1.000000, 4.000000, 4.000000, 4.000000, 4.000000, 4.000000, 4.000000, 4.000000
40.000000, 0.000000, 7600.000000, 7624.102539, 3943.589600, 4320.512695, 5357.435547, 3674.871826, 4801.025391, 2971.281982, 4168.205078, 4246.153809, 2881.538330, 2413.846191, 7328.717773, 7600.000000, 0.000000, 8152.000000, 8210.000000, 0.000000, 0.000000, 0.000000, -21039.000000, 628.205139, 4.000000, 4.000000, 4.000000, 4.000000, 4.000000, 4.000000, 4.000000, 4.000000, 1.000000, 4.000000, 4.000000, 4.000000, 4.000000, 4.000000, 4.000000, 4.000000
41.000000, 0.000000, 7600.512695, 7626.153809, 3710.769043, 4407.692383, 5261.538574, 3667.692139, 4678.461426, 2870.769043, 4164.615234, 4049.230713, 2771.281982, 2354.358887, 7396.410156, 7600.000000, 0.000000, 8130.000000, 8193.000000, 0.000000, 0.000000, 0.000000, -21039.000000, 635.897400, 4.000000, 4.000000, 4.000000, 4.000000, 4.000000, 4.000000, 4.000000, 4.000000, 1.000000, 4.000000, 4.000000, 4.000000, 4.000000, 4.000000, 4.000000, 4.000000
42.000000, 0.000000, 7603.076660, 7613.846191, 3531.281982, 4555.897461, 5344.615234, 3696.923096, 4580.512695, 2883.589600, 4167.179199, 3874.871582, 2846.153809, 2368.717773, 7481.025391, 7600.000000, 0.000000, 8130.000000, 8193.000000, 0.000000, 0.000000, 0.000000, -21039.000000, 644.102539, 4.000000, 4.000000, 4.000000, 4.000000, 4.000000, 4.000000, 4.000000, 4.000000, 1.000000, 4.000000, 4.000000, 4.000000, 4.000000, 4.000000, 4.000000, 4.000000
43.000000, 0.000000, 7608.205078, 7603.076660, 3381.025635, 4612.820313, 5446.153809, 3724.102539, 4552.307617, 2937.948730, 4181.025391, 3778.974365, 2957.948730, 2421.025635, 7569.743164, 7600.000000, 0.000000, 8146.000000, 8162.000000, 0.000000, 0.000000, 0.000000, -21039.000000, 651.794861, 4.000000, 4.000000, 4.000000, 4.000000, 4.000000, 4.000000, 4.000000, 4.000000, 1.000000, 4.000000, 4.000000, 4.000000, 4.000000, 4.000000, 4.000000, 4.000000
44.000000, 0.000000, 7605.127930, 7606.666504, 3204.102539, 4555.897461, 5448.717773, 3747.179443, 4522.563965, 2911.794922, 4188.717773, 3648.717773, 3033.333252, 2458.461426, 7617.435547, 7600.000000, 0.000000, 8146.000000, 8162.000000, 0.000000, 0.000000, 0.000000, -21039.000000, 660.000000, 4.000000, 4.000000, 4.000000, 4.000000, 4.000000, 4.000000, 4.000000, 4.000000, 1.000000, 4.000000, 4.000000, 4.000000, 4.000000, 4.000000, 4.000000, 4.000000
45.000000, 0.000000, 7607.179199, 7603.589355, 3022.563965, 4460.000000, 5365.641113, 3760.000000, 4476.922852, 2846.153809, 4183.076660, 3592.820313, 3153.333252, 2477.435791, 7613.846191, 7600.000000, 0.000000, 8170.000000, 8144.000000, 0.000000, 0.000000, 0.000000, -21039.000000, 667.692322, 4.000000, 4.000000, 4.000000, 4.000000, 4.000000, 4.000000, 4.000000, 4.000000, 1.000000, 4.000000, 4.000000, 4.000000, 4.000000, 4.000000, 4.000000, 4.000000
46.000000, 0.000000, 7622.563965, 7605.127930, 2853.846191, 4366.153809, 5249.743652, 3763.076904, 4418.974121, 2787.692139, 4181.538574, 3598.974365, 3225.128174, 2487.692139, 7603.076660, 7600.000000, 0.000000, 8170.000000, 8144.000000, 0.000000, 0.000000, 0.000000, -21039.000000, 675.897400, 4.000000, 4.000000, 4.000000, 4.000000, 4.000000, 4.000000, 4.000000, 4.000000, 1.000000, 4.000000, 4.000000, 4.000000, 4.000000, 4.000000, 4.000000, 4.000000
47.000000, 0.000000, 7591.281738, 7608.717773, 2674.871826, 4285.641113, 5191.794922, 3771.281982, 4344.615234, 2754.358887, 4194.871582, 3521.025635, 3177.948730, 2536.923096, 7607.179199, 7600.000000, 0.000000, 8208.000000, 8172.000000, 0.000000, 0.000000, 0.000000, -21039.000000, 683.589722, 4.000000, 4.000000, 4.000000, 4.000000, 4.000000, 4.000000, 4.000000, 4.000000, 1.000000, 4.000000, 4.000000, 4.000000, 4.000000, 4.000000, 4.000000, 4.000000
48.000000, 0.000000, 7489.230469, 7579.486816, 2504.102539, 4221.538574, 5180.512695, 3757.948730, 4265.127930, 2769.743408, 4203.076660, 3485.640869, 3120.512695, 2640.000000, 7605.640625, 7600.000000, 0.000000, 8208.000000, 8172.000000, 0.000000, 0.000000, 0.000000, -21039.000000, 691.794861, 4.000000, 4.000000, 4.000000, 4.000000, 4.000000, 4.000000, 4.000000, 4.000000, 1.000000, 4.000000, 4.000000, 4.000000, 4.000000, 4.000000, 4.000000, 4.000000
49.000000, 0.000000, 7419.486816, 7504.102539, 2409.230713, 4176.410156, 5127.692383, 3705.640869, 4178.974121, 2812.820557, 4197.436035, 3543.076904, 3086.153809, 2704.102539, 7598.974121, 7600.000000, 0.000000, 8212.000000, 8196.000000, 0.000000, 0.000000, 0.000000, -21039.000000, 699.487183, 4.000000, 4.000000, 4.000000, 4.000000, 4.000000, 4.000000, 4.000000, 4.000000, 1.000000, 4.000000, 4.000000, 4.000000, 4.000000, 4.000000, 4.000000, 4.000000
50.000000, 0.000000, 7381.538086, 7439.486816, 2369.230713, 4140.000000, 5034.871582, 3642.563965, 4088.717773, 2868.717773, 4195.384277, 3459.487061, 3035.897461, 2683.076904, 7600.512695, 7600.000000, 0.000000, 8212.000000, 8196.000000, 0.000000, 0.000000, 0.000000, -21039.000000, 707.692261, 4.000000, 4.000000, 4.000000, 4.000000, 4.000000, 4.000000, 4.000000, 4.000000, 1.000000, 4.000000, 4.000000, 4.000000, 4.000000, 4.000000, 4.000000, 4.000000
51.000000, 0.000000, 7214.871582, 7420.000000, 2314.871826, 4112.307617, 4935.384277, 3589.230713, 3995.384521, 2931.794922, 4201.025391, 3276.410156, 3035.897461, 2654.871826, 7601.025391, 7600.000000, 0.000000, 8230.000000, 8205.000000, 0.000000, 0.000000, 0.000000, -21039.000000, 715.384583, 4.000000, 4.000000, 4.000000, 4.000000, 4.000000, 4.000000, 4.000000, 4.000000, 1.000000, 4.000000, 4.000000, 4.000000, 4.000000, 4.000000, 4.000000, 4.000000
52.000000, 0.000000, 6919.486816, 7393.333008, 2269.230713, 4145.641113, 4857.948730, 3556.410156, 3913.333252, 2948.205078, 4203.076660, 3228.205078, 3120.000000, 2650.769287, 7601.025391, 7600.000000, 0.000000, 8230.000000, 8205.000000, 0.000000, 0.000000, 0.000000, -21039.000000, 723.589722, 4.000000, 4.000000, 4.000000, 4.000000, 4.000000, 4.000000, 4.000000, 4.000000, 1.000000, 4.000000, 4.000000, 4.000000, 4.000000, 4.000000, 4.000000, 4.000000
53.000000, 0.000000, 6610.256348, 7371.794922, 2247.692139, 4216.410156, 4852.820313, 3532.820313, 3850.256348, 2917.435791, 4198.974121, 3222.563965, 3185.640869, 2635.897461, 7600.512695, 7600.000000, 0.000000, 8239.000000, 8210.000000, 0.000000, 0.000000, 0.000000, -21039.000000, 731.282043, 4.000000, 4.000000, 4.000000, 4.000000, 4.000000, 4.000000, 4.000000, 4.000000, 1.000000, 4.000000, 4.000000, 4.000000, 4.000000, 4.000000, 4.000000, 4.000000
54.000000, 0.000000, 6330.256348, 7349.230469, 2238.974365, 4250.256348, 4882.563965, 3497.435791, 3801.538330, 2911.281982, 4197.948730, 3116.923096, 3162.051270, 2625.128174, 7600.000000, 7600.000000, 0.000000, 8239.000000, 8210.000000, 0.000000, 0.000000, 0.000000, -21039.000000, 739.487183, 4.000000, 4.000000, 4.000000, 4.000000, 4.000000, 4.000000, 4.000000, 4.000000, 1.000000, 4.000000, 4.000000, 4.000000, 4.000000, 4.000000, 4.000000, 4.000000
55.000000, 0.000000, 6095.384277, 7231.794922, 2245.128174, 4255.897461, 4867.179199, 3473.845947, 3757.435791, 2934.358887, 4200.512695, 3027.692139, 3131.794678, 2589.743408, 7600.512695, 7600.000000, 0.000000, 8263.000000, 8233.000000, 0.000000, 0.000000, 0.000000, -21039.000000, 747.692261, 4.000000, 4.000000, 4.000000, 4.000000, 4.000000, 4.000000, 4.000000, 4.000000, 1.000000, 4.000000, 4.000000, 4.000000, 4.000000, 4.000000, 4.000000, 4.000000
56.000000, 0.000000, 5894.871582, 7067.691895, 2249.230713, 4264.615234, 4846.666504, 3483.076904, 3711.281982, 2965.640869, 4202.051270, 3044.102539, 3175.384521, 2521.538330, 7600.000000, 7600.000000, 0.000000, 8263.000000, 8233.000000, 0.000000, 0.000000, 0.000000, -21039.000000, 755.384583, 4.000000, 4.000000, 4.000000, 4.000000, 4.000000, 4.000000, 4.000000, 4.000000, 1.000000, 4.000000, 4.000000, 4.000000, 4.000000, 4.000000, 4.000000, 4.000000
57.000000, 0.000000, 5686.666504, 7002.563965, 2248.205078, 4277.436035, 4826.153809, 3492.307617, 3673.333252, 3010.769043, 4202.051270, 3064.102539, 3220.512695, 2490.256348, 7600.000000, 7600.000000, 0.000000, 8308.000000, 8306.000000, 0.000000, 0.000000, 0.000000, -21039.000000, 763.589722, 4.000000, 4.000000, 4.000000, 4.000000, 4.000000, 4.000000, 4.000000, 4.000000, 1.000000, 4.000000, 4.000000, 4.000000, 4.000000, 4.000000, 4.000000, 4.000000
58.000000, 0.000000, 5529.230469, 6993.846191, 2226.666504, 4297.436035, 4725.127930, 3500.000000, 3642.563965, 3044.102539, 4203.076660, 3025.640869, 3221.538330, 2498.974365, 7600.000000, 7600.000000, 0.000000, 8308.000000, 8306.000000, 0.000000, 0.000000, 0.000000, -21039.000000, 771.282043, 4.000000, 4.000000, 4.000000, 4.000000, 4.000000, 4.000000, 4.000000, 4.000000, 1.000000, 4.000000, 4.000000, 4.000000, 4.000000, 4.000000, 4.000000, 4.000000
59.000000, 0.000000, 5454.358887, 6943.589355, 2180.512695, 4312.820313, 4594.358887, 3516.410156, 3594.358887, 3034.871826, 4203.589844, 3031.281982, 3236.410156, 2504.102539, 7600.512695, 7600.000000, 0.000000, 8325.000000, 8325.000000, 0.000000, 0.000000, 0.000000, -21039.000000, 779.487183, 4.000000, 4.000000, 4.000000, 4.000000, 4.000000, 4.000000, 4.000000, 4.000000, 1.000000, 4.000000, 4.000000, 4.000000, 4.000000, 4.000000, 4.000000, 4.000000
60.000000, 0.000000, 5337.948730, 6913.333008, 2160.000000, 4310.769043, 4540.000000, 3520.512695, 3531.281982, 3026.153809, 4202.051270, 3079.487061, 3281.538330, 2490.769287, 7604.102539, 7600.000000, 0.000000, 8325.000000, 8325.000000, 0.000000, 0.000000, 0.000000, -21039.000000, 787.179443, 4.000000, 4.000000, 4.000000, 4.000000, 4.000000, 4.000000, 4.000000, 4.000000, 1.000000, 4.000000, 4.000000, 4.000000, 4.000000, 4.000000, 4.000000, 4.000000
61.000000, 0.000000, 5155.384277, 6904.615234, 2178.461426, 4327.692383, 4534.358887, 3518.974365, 3478.974365, 3068.717773, 4202.563965, 3080.000000, 3309.743408, 2456.923096, 7616.922852, 7600.000000, 0.000000, 8380.000000, 8376.000000, 0.000000, 0.000000, 0.000000, -21039.000000, 795.384583, 4.000000, 4.000000, 4.000000, 4.000000, 4.000000, 4.000000, 4.000000, 4.000000, 1.000000, 4.000000, 4.000000, 4.000000, 4.000000, 4.000000, 4.000000, 4.000000
62.000000, 0.000000, 4976.922852, 6829.743652, 2188.717773, 4370.769043, 4521.538574, 3525.640869, 3434.358887, 3103.076904, 4204.615234, 3118.974365, 3313.846191, 2434.871826, 7626.666504, 7600.000000, 0.000000, 8380.000000, 8376.000000, 0.000000, 0.000000, 0.000000, -21039.000000, 803.589722, 4.000000, 4.000000, 4.000000, 4.000000, 4.000000, 4.000000, 4.000000, 4.000000, 1.000000, 4.000000, 4.000000, 4.000000, 4.000000, 4.000000, 4.000000, 4.000000
63.000000, 0.000000, 4811.794922, 6697.435547, 2193.846191, 4404.102539, 4504.102539, 3528.205078, 3390.769043, 3077.948730, 4204.102539, 3241.538330, 3323.076904, 2444.615234, 7629.743164, 7600.000000, 0.000000, 8397.000000, 8411.000000, 0.000000, 0.000000, 0.000000, -21039.000000, 811.282043, 4.000000, 4.000000, 4.000000, 4.000000, 4.000000, 4.000000, 4.000000, 4.000000, 1.000000, 4.000000, 4.000000, 4.000000, 4.000000, 4.000000, 4.000000, 4.000000
64.000000, 0.000000, 4654.871582, 6573.333008, 2209.743652, 4433.333008, 4496.410156, 3514.358887, 3349.743408, 3045.640869, 4204.615234, 3328.717773, 3343.076904, 2441.025635, 7646.666504, 7600.000000, 3099.000000, 8397.000000, 8411.000000, 0.000000, 0.000000, 0.000000, -21039.000000, 819.487183, 4.000000, 4.000000, 4.000000, 4.000000, 4.000000, 4.000000, 4.000000, 4.000000, 1.000000, 4.000000, 4.000000, 4.000000, 4.000000, 4.000000, 4.000000, 4.000000
65.000000, 0.000000, 4481.538574, 6472.307617, 2212.307617, 4462.563965, 4492.820313, 3499.487061, 3300.000000, 3053.333252, 4210.769043, 3423.076904, 3362.563965, 2409.743652, 7613.333008, 7600.000000, 3670.000000, 8402.000000, 8471.000000, 0.000000, 0.000000, 0.000000, -21039.000000, 827.179443, 4.000000, 4.000000, 4.000000, 4.000000, 4.000000, 4.000000, 4.000000, 4.000000, 1.000000, 4.000000, 4.000000, 4.000000, 4.000000, 4.000000, 4.000000, 4.000000
66.000000, 0.000000, 4249.230469, 6363.589355, 2207.692139, 4477.948730, 4489.743652, 3490.769043, 3253.333252, 3072.820557, 4216.410156, 3601.538330, 3367.179443, 2393.846191, 7403.076660, 7600.000000, 1776.000000, 8402.000000, 8471.000000, 0.000000, 0.000000, 0.000000, -21039.000000, 834.871765, 4.000000, 4.000000, 4.000000, 4.000000, 4.000000, 4.000000, 4.000000, 4.000000, 1.000000, 4.000000, 4.000000, 4.000000, 4.000000, 4.000000, 4.000000, 4.000000
67.000000, 0.000000, 3999.487061, 6248.717773, 2209.230713, 4505.641113, 4510.769043, 3474.871826, 3220.000000, 3077.435791, 4214.871582, 3761.538330, 3357.435791, 2401.538330, 7037.948730, 7600.000000, 1716.000000, 8369.000000, 8474.000000, 0.000000, 0.000000, 0.000000, -21039.000000, 843.076904, 4.000000, 4.000000, 4.000000, 4.000000, 4.000000, 4.000000, 4.000000, 4.000000, 1.000000, 4.000000, 4.000000, 4.000000, 4.000000, 4.000000, 4.000000, 4.000000
68.000000, 0.000000, 3792.820313, 6140.000000, 2213.333252, 4567.179199, 4577.948730, 3446.666504, 3156.410156, 3091.794678, 4214.358887, 3935.384521, 3355.384521, 2418.461426, 6659.486816, 7600.000000, 3485.000000, 8369.000000, 8474.000000, 0.000000, 0.000000, 0.000000, -21039.000000, 851.282043, 4.000000, 4.000000, 4.000000, 4.000000, 4.000000, 4.000000, 4.000000, 4.000000, 1.000000, 4.000000, 4.000000, 4.000000, 4.000000, 4.000000, 4.000000, 4.000000
69.000000, 0.000000, 3590.256348, 6030.769043, 2214.871826, 4635.384277, 4660.512695, 3421.025635, 3077.435791, 3116.923096, 4217.436035, 4243.589844, 3358.461426, 2432.820557, 6311.281738, 7600.000000, 3593.000000, 8335.000000, 8433.000000, 0.000000, 0.000000, 0.000000, -21039.000000, 858.974365, 4.000000, 4.000000, 4.000000, 4.000000, 4.000000, 4.000000, 4.000000, 4.000000, 1.000000, 4.000000, 4.000000, 4.000000, 4.000000, 4.000000, 4.000000, 4.000000
70.000000, 0.000000, 3371.794678, 5912.820313, 2210.256348, 4706.153809, 4741.025391, 3413.333252, 3042.051270, 3122.563965, 4212.307617, 4625.127930, 3339.487061, 2426.666504, 5974.358887, 7600.000000, 3453.000000, 8335.000000, 8433.000000, 0.000000, 0.000000, 0.000000, -21039.000000, 867.179443, 4.000000, 4.000000, 4.000000, 4.000000, 4.000000, 4.000000, 4.000000, 4.000000, 1.000000, 4.000000, 4.000000, 4.000000, 4.000000, 4.000000, 4.000000, 4.000000
71.000000, 0.000000, 3161.025635, 5795.897461, 2199.487061, 4829.230469, 4845.641113, 3392.307617, 3010.256348, 3093.846191, 4202.051270, 5033.333008, 3310.256348, 2390.769287, 5665.641113, 7600.000000, 3589.000000, 8294.000000, 8292.000000, 0.000000, 0.000000, 0.000000, -21039.000000, 874.871765, 4.000000, 4.000000, 4.000000, 4.000000, 4.000000, 4.000000, 4.000000, 4.000000, 1.000000, 4.000000, 4.000000, 4.000000, 4.000000, 4.000000, 4.000000, 4.000000
72.000000, 0.000000, 2951.794678, 5687.692383, 2188.205078, 5017.435547, 4951.281738, 3351.281982, 2938.974365, 3085.128174, 4201.025391, 5499.486816, 3326.153809, 2337.948730, 5380.000000, 7600.512695, 77.000000, 8294.000000, 8292.000000, 0.000000, 0.000000, 0.000000, -21039.000000, 883.076904, 4.000000, 4.000000, 4.000000, 4.000000, 4.000000, 4.000000, 4.000000, 4.000000, 1.000000, 4.000000, 4.000000, 4.000000, 4.000000, 4.000000, 4.000000, 4.000000
73.000000, 0.000000, 2735.897461, 5574.871582, 2173.333252, 5213.333008, 5027.692383, 3325.640869, 2885.640869, 3112.307617, 4203.589844, 5971.794922, 3295.897461, 2299.487061, 5111.794922, 7604.615234, 2507.000000, 8284.000000, 8221.000000, 0.000000, 0.000000, 0.000000, -21039.000000, 890.769226, 4.000000, 4.000000, 4.000000, 4.000000, 4.000000, 4.000000, 4.000000, 4.000000, 1.000000, 4.000000, 4.000000, 4.000000, 4.000000, 4.000000, 4.000000, 4.000000
74.000000, 0.000000, 2534.871826, 5455.897461, 2154.358887, 5362.051270, 5091.794922, 3320.000000, 2868.205078, 3112.820557, 4203.076660, 6352.307617, 3135.897461, 2283.589600, 4876.922852, 7609.230469, 2057.000000, 8284.000000, 8221.000000, 0.000000, 0.000000, 0.000000, -21039.000000, 898.974365, 4.000000, 4.000000, 4.000000, 4.000000, 4.000000, 4.000000, 4.000000, 4.000000, 1.000000, 4.000000, 4.000000, 4.000000, 4.000000, 4.000000, 4.000000, 4.000000
75.000000, 0.000000, 2365.128174, 5350.256348, 2149.230713, 5460.000000, 5141.538574, 3309.743408, 2841.538330, 3094.358887, 4202.563965, 6636.410156, 3018.461426, 2270.769287, 4671.794922, 7609.230469, 368.000000, 8255.000000, 8101.000000, 0.000000, 0.000000, 0.000000, -21039.000000, 906.666626, 4.000000, 4.000000, 4.000000, 4.000000, 4.000000, 4.000000, 4.000000, 4.000000, 1.000000, 4.000000, 4.000000, 4.000000, 4.000000, 4.000000, 4.000000, 4.000000
76.000000, 0.000000, 2202.563965, 5259.486816, 2160.512695, 5543.076660, 5153.333008, 3294.358887, 2805.128174, 3098.974365, 4203.589844, 6862.051270, 3045.128174, 2255.384521, 4492.307617, 7616.410156, 3596.000000, 8255.000000, 8101.000000, 0.000000, 0.000000, 0.000000, -21039.000000, 914.358948, 4.000000, 4.000000, 4.000000, 4.000000, 4.000000, 4.000000, 4.000000, 4.000000, 1.000000, 4.000000, 4.000000, 4.000000, 4.000000, 4.000000, 4.000000, 4.000000
77.000000, 0.000000, 2022.051270, 5158.461426, 2164.102539, 5645.641113, 5148.205078, 3274.871826, 2771.281982, 3089.230713, 4202.563965, 7011.281738, 3068.205078, 2234.871826, 4328.717773, 7621.025391, 3589.000000, 8250.000000, 8081.000000, 0.000000, 0.000000, 0.000000, -21039.000000, 922.564087, 4.000000, 4.000000, 4.000000, 4.000000, 4.000000, 4.000000, 4.000000, 4.000000, 1.000000, 4.000000, 4.000000, 4.000000, 4.000000, 4.000000, 4.000000, 4.000000
78.000000, 0.000000, 1849.230713, 5042.563965, 2147.692139, 5741.025391, 5161.025391, 3242.051270, 2724.615234, 3036.923096, 4204.102539, 7096.410156, 3044.615234, 2210.256348, 4161.538574, 7562.563965, 2057.000000, 8250.000000, 8081.000000, 0.000000, 0.000000, 0.000000, -21039.000000, 930.256409, 4.000000, 4.000000, 4.000000, 4.000000, 4.000000, 4.000000, 4.000000, 4.000000, 1.000000, 4.000000, 4.000000, 4.000000, 4.000000, 4.000000, 4.000000, 4.000000
79.000000, 0.000000, 1716.923096, 4938.461426, 2134.358887, 5762.051270, 5163.589844, 3213.846191, 2671.794922, 2994.358887, 4204.615234, 7180.512695, 3060.000000, 2194.358887, 3993.333252, 7445.127930, 368.000000, 8219.000000, 8064.000000, 0.000000, 0.000000, 0.000000, -21039.000000, 937.948669, 4.000000, 4.000000, 4.000000, 4.000000, 4.000000, 4.000000, 4.000000, 4.000000, 1.000000, 4.000000, 4.000000, 4.000000, 4.000000, 4.000000, 4.000000, 4.000000
80.000000, 0.000000, 1598.461548, 4852.820313, 2126.666504, 5726.666504, 5114.871582, 3199.487061, 2632.820557, 2985.128174, 4203.076660, 7278.461426, 3084.615234, 2177.435791, 3840.000000, 7324.615234, 3596.000000, 8219.000000, 8064.000000, 0.000000, 0.000000, 0.000000, -21039.000000, 946.153809, 4.000000, 4.000000, 4.000000, 4.000000, 4.000000, 4.000000, 4.000000, 4.000000, 1.000000, 4.000000, 4.000000, 4.000000, 4.000000, 4.000000, 4.000000, 4.000000
81.000000, 0.000000, 1464.102539, 4765.127930, 2112.307617, 5717.948730, 5048.717773, 3188.205078, 2603.589600, 2987.692139, 4207.692383, 7354.358887, 3083.076904, 2147.179443, 3695.384521, 7173.333008, 3589.000000, 8174.000000, 8050.000000, 0.000000, 0.000000, 0.000000, -21039.000000, 953.846130, 4.000000, 4.000000, 4.000000, 4.000000, 4.000000, 4.000000, 4.000000, 4.000000, 1.000000, 4.000000, 4.000000, 4.000000, 4.000000, 4.000000, 4.000000, 4.000000
82.000000, 0.000000, 1355.384521, 4684.615234, 2105.640869, 5730.769043, 5009.743652, 3178.974365, 2573.333252, 2996.923096, 4215.384277, 7383.589355, 3096.410156, 2126.666504, 3560.000000, 6969.743652, 2057.000000, 8174.000000, 8050.000000, 0.000000, 0.000000, 0.000000, -21039.000000, 962.051270, 4.000000, 4.000000, 4.000000, 4.000000, 4.000000, 4.000000, 4.000000, 4.000000, 1.000000, 4.000000, 4.000000, 4.000000, 4.000000, 4.000000, 4.000000, 4.000000
83.000000, 0.000000, 1296.410278, 4627.692383, 2120.000000, 5703.076660, 4971.281738, 3180.000000, 2550.256348, 3009.743408, 4216.922852, 7374.358887, 3129.743408, 2138.461426, 3455.384521, 6781.538086, 368.000000, 8159.000000, 8059.000000, 0.000000, 0.000000, 0.000000, -21039.000000, 969.743591, 4.000000, 4.000000, 4.000000, 4.000000, 4.000000, 4.000000, 4.000000, 4.000000, 1.000000, 4.000000, 4.000000, 4.000000, 4.000000, 4.000000, 4.000000, 4.000000
84.000000, 0.000000, 1245.640991, 4583.076660, 2142.051270, 5635.384277, 4896.922852, 3190.769043, 2542.051270, 3018.974365, 4215.384277, 7348.205078, 3160.000000, 2162.051270, 3372.820313, 6632.820313, 3596.000000, 8159.000000, 8059.000000, 0.000000, 0.000000, 0.000000, -21039.000000, 977.435852, 4.000000, 4.000000, 4.000000, 4.000000, 4.000000, 4.000000, 4.000000, 4.000000, 1.000000, 4.000000, 4.000000, 4.000000, 4.000000, 4.000000, 4.000000, 4.000000
85.000000, 0.000000, 1186.153809, 4539.487305, 2150.769287, 5555.897461, 4795.897461, 3204.102539, 2542.051270, 3024.615234, 4216.410156, 7291.794922, 3177.948730, 2172.307617, 3292.820313, 6478.461426, 3589.000000, 8141.000000, 8102.000000, 0.000000, 0.000000, 0.000000, -21039.000000, 985.640991, 4.000000, 4.000000, 4.000000, 4.000000, 4.000000, 4.000000, 4.000000, 4.000000, 1.000000, 4.000000, 4.000000, 4.000000, 4.000000, 4.000000, 4.000000, 4.000000
86.000000, 0.000000, 1141.538452, 4501.538574, 2154.871826, 5463.589844, 4678.974121, 3220.000000, 2541.538330, 3029.230713, 4218.974121, 7189.743652, 3196.410156, 2179.487061, 3228.205078, 6326.666504, 2057.000000, 8141.000000, 8102.000000, 0.000000, 0.000000, 0.000000, -21039.000000, 993.846130, 4.000000, 4.000000, 4.000000, 4.000000, 4.000000, 4.000000, 4.000000, 4.000000, 1.000000, 4.000000, 4.000000, 4.000000, 4.000000, 4.000000, 4.000000, 4.000000
87.000000, 0.000000, 1114.871826, 4469.743652, 2166.666504, 5374.871582, 4548.205078, 3238.461426, 2542.563965, 3029.230713, 4217.948730, 7099.486816, 3217.948730, 2202.051270, 3182.051270, 6201.025391, 368.000000, 8152.000000, 8141.000000, 0.000000, 0.000000, 0.000000, -21038.000000, 1.538461, 4.000000, 4.000000, 4.000000, 4.000000, 4.000000, 4.000000, 4.000000, 4.000000, 1.000000, 4.000000, 4.000000, 4.000000, 4.000000, 4.000000, 4.000000, 4.000000
88.000000, 0.000000, 1090.769165, 4438.974121, 2181.025635, 5311.794922, 4429.230469, 3258.974365, 2537.948730, 3021.538330, 4217.948730, 7053.333008, 3233.846191, 2229.230713, 3125.640869, 6076.922852, 3596.000000, 8152.000000, 8141.000000, 0.000000, 0.000000, 0.000000, -21038.000000, 9.230769, 4.000000, 4.000000, 4.000000, 4.000000, 4.000000, 4.000000, 4.000000, 4.000000, 1.000000, 4.000000, 4.000000, 4.000000, 4.000000, 4.000000, 4.000000, 4.000000
89.000000, 0.000000, 1069.230713, 4409.230469, 2198.461426, 5263.076660, 4337.948730, 3284.615234, 2531.281982, 3025.640869, 4223.589844, 6974.358887, 3243.076904, 2242.563965, 3048.205078, 5942.051270, 3589.000000, 8155.000000, 8149.000000, 0.000000, 0.000000, 0.000000, -21038.000000, 17.435898, 4.000000, 4.000000, 4.000000, 4.000000, 4.000000, 4.000000, 4.000000, 4.000000, 1.000000, 4.000000, 4.000000, 4.000000, 4.000000, 4.000000, 4.000000, 4.000000
90.000000, 0.000000, 1056.410278, 4384.102539, 2224.102539, 5214.871582, 4254.871582, 3312.820313, 2535.384521, 3050.769043, 4226.666504, 6825.127930, 3258.974365, 2257.948730, 2975.384521, 5820.512695, 2057.000000, 8155.000000, 8149.000000, 0.000000, 0.000000, 0.000000, -21038.000000, 25.641026, 4.000000, 4.000000, 4.000000, 4.000000, 4.000000, 4.000000, 4.000000, 4.000000, 1.000000, 4.000000, 4.000000, 4.000000, 4.000000, 4.000000, 4.000000, 4.000000
91.000000, 0.000000, 1054.359009, 4361.538574, 2253.846191, 5177.435547, 4177.436035, 3337.948730, 2541.538330, 3062.563965, 4224.615234, 6672.307617, 3283.589600, 2289.230713, 2917.948730, 5722.051270, 368.000000, 8156.000000, 8183.000000, 0.000000, 0.000000, 0.000000, -21038.000000, 33.333332, 4.000000, 4.000000, 4.000000, 4.000000, 4.000000, 4.000000, 4.000000, 4.000000, 1.000000, 4.000000, 4.000000, 4.000000, 4.000000, 4.000000, 4.000000, 4.000000
92.000000, 0.000000, 1057.435913, 4337.948730, 2276.410156, 5155.384277, 4126.666504, 3366.666504, 2548.205078, 3064.615234, 4227.179199, 6551.281738, 3302.563965, 2318.974365, 2862.563965, 5628.717773, 3596.000000, 8156.000000, 8183.000000, 0.000000, 0.000000, 0.000000, -21038.000000, 41.538460, 4.000000, 4.000000, 4.000000, 4.000000, 4.000000, 4.000000, 4.000000, 4.000000, 1.000000, 4.000000, 4.000000, 4.000000, 4.000000, 4.000000, 4.000000, 4.000000
93.000000, 0.000000, 1055.897461, 4307.179199, 2298.974365, 5141.025391, 4080.000000, 3394.871826, 2561.025635, 3100.000000, 4231.281738, 6448.205078, 3325.128174, 2346.153809, 2810.256348, 5536.922852, 3589.000000, 8171.000000, 8203.000000, 0.000000, 0.000000, 0.000000, -21038.000000, 49.230766, 4.000000, 4.000000, 4.000000, 4.000000, 4.000000, 4.000000, 4.000000, 4.000000, 1.000000, 4.000000, 4.000000, 4.000000, 4.000000, 4.000000, 4.000000, 4.000000
94.000000, 0.000000, 1057.948730, 4275.384277, 2333.846191, 5132.307617, 4015.384521, 3408.205078, 2567.692139, 3145.640869, 4231.794922, 6363.589355, 3360.000000, 2383.589600, 2768.717773, 5456.410156, 2057.000000, 8171.000000, 8203.000000, 0.000000, 0.000000, 0.000000, -21038.000000, 57.435898, 4.000000, 4.000000, 4.000000, 4.000000, 4.000000, 4.000000, 4.000000, 4.000000, 1.000000, 4.000000, 4.000000, 4.000000, 4.000000, 4.000000, 4.000000, 4.000000
95.000000, 0.000000, 1068.205078, 4251.794922, 2365.640869, 5130.769043, 3967.692139, 3425.128174, 2563.076904, 3163.589600, 4232.820313, 6290.769043, 3390.769043, 2422.563965, 2734.358887, 5377.435547, 368.000000, 8223.000000, 8206.000000, 0.000000, 0.000000, 0.000000, -21038.000000, 65.128204, 4.000000, 4.000000, 4.000000, 4.000000, 4.000000, 4.000000, 4.000000, 4.000000, 1.000000, 4.000000, 4.000000, 4.000000, 4.000000, 4.000000, 4.000000, 4.000000
96.000000, 0.000000, 1076.410278, 4230.256348, 2384.102539, 5131.794922, 3944.615234, 3455.384521, 2564.615234, 3175.897461, 4233.333008, 6209.230469, 3405.128174, 2453.846191, 2694.358887, 5293.846191, 3596.000000, 8223.000000, 8206.000000, 0.000000, 0.000000, 0.000000, -21038.000000, 73.333328, 4.000000, 4.000000, 4.000000, 4.000000, 4.000000, 4.000000, 4.000000, 4.000000, 1.000000, 4.000000, 4.000000, 4.000000, 4.000000, 4.000000, 4.000000, 4.000000
97.000000, 0.000000, 1076.410278, 4201.538574, 2401.025635, 5130.256348, 3913.845947, 3469.743408, 2566.153809, 3194.358887, 4230.256348, 6124.102539, 3413.846191, 2475.897461, 2648.717773, 5204.615234, 3589.000000, 8248.000000, 8205.000000, 0.000000, 0.000000, 0.000000, -21038.000000, 81.538460, 4.000000, 4.000000, 4.000000, 4.000000, 4.000000, 4.000000, 4.000000, 4.000000, 1.000000, 4.000000, 4.000000, 4.000000, 4.000000, 4.000000, 4.000000, 4.000000
98.000000, 0.000000, 1073.333252, 4172.307617, 2420.512695, 5131.281738, 3873.845947, 3475.897461, 2560.512695, 3206.666504, 4231.794922, 6045.641113, 3423.076904, 2488.205078, 2607.179443, 5113.846191, 2057.000000, 8248.000000, 8205.000000, 0.000000, 0.000000, 0.000000, -21038.000000, 89.230766, 4.000000, 4.000000, 4.000000, 4.000000, 4.000000, 4.000000, 4.000000, 4.000000, 1.000000, 4.000000, 4.000000, 4.000000, 4.000000, 4.000000, 4.000000, 4.000000
99.000000, 0.000000, 1073.846069, 4150.256348, 2437.948730, 5134.871582, 3831.794678, 3498.974365, 2562.563965, 3213.846191, 4233.333008, 5968.205078, 3432.820313, 2506.153809, 2570.256348, 5031.281738, 368.000000, 8267.000000, 8233.000000, 0.000000, 0.000000, 0.000000, -21038.000000, 97.435898, 4.000000, 4.000000, 4.000000, 4.000000, 4.000000, 4.000000, 4.000000, 4.000000, 1.000000, 4.000000, 4.000000, 4.000000, 4.000000, 4.000000, 4.000000, 4.000000
100.000000, 0.000000, 1073.846069, 4123.076660, 2455.384521, 5132.820313, 3783.589600, 3511.794678, 2564.615234, 3218.461426, 4233.333008, 5886.666504, 3440.000000, 2532.307617, 2522.563965, 4953.333008, 3596.000000, 8267.000000, 8233.000000, 0.000000, 0.000000, 0.000000, -21038.000000, 105.128204, 4.000000, 4.000000, 4.000000, 4.000000, 4.000000, 4.000000, 4.000000, 4.000000, 1.000000, 4.000000, 4.000000, 4.000000, 4.000000, 4.000000, 4.000000, 4.000000
101.000000, 0.000000, 1076.923096, 4084.102539, 2468.717773, 5131.281738, 3743.589600, 3513.333252, 2560.000000, 3232.820313, 4232.307617, 5814.871582, 3441.025635, 2549.230713, 2464.102539, 4867.179199, 3589.000000, 8269.000000, 8243.000000, 0.000000, 0.000000, 0.000000, -21038.000000, 113.333328, 4.000000, 4.000000, 4.000000, 4.000000, 4.000000, 4.000000, 4.000000, 4.000000, 1.000000, 4.000000, 4.000000, 4.000000, 4.000000, 4.000000, 4.000000, 4.000000
102.000000, 0.000000, 1091.281982, 4053.845947, 2482.051270, 5137.948730, 3709.230713, 3529.743408, 2558.461426, 3251.281982, 4233.846191, 5754.871582, 3449.743408, 2564.615234, 2417.948730, 4784.615234, 2057.000000, 8269.000000, 8243.000000, 0.000000, 0.000000, 0.000000, -21038.000000, 121.025635, 4.000000, 4.000000, 4.000000, 4.000000, 4.000000, 4.000000, 4.000000, 4.000000, 1.000000, 4.000000, 4.000000, 4.000000, 4.000000, 4.000000, 4.000000, 4.000000
103.000000, 0.000000, 1113.333252, 4037.948730, 2504.615234, 5143.076660, 3668.205078, 3544.615234, 2552.820557, 3253.333252, 4233.846191, 5686.666504, 3471.281982, 2592.307617, 2384.615234, 4715.897461, 368.000000, 8275.000000, 8230.000000, 0.000000, 0.000000, 0.000000, -21038.000000, 129.230759, 4.000000, 4.000000, 4.000000, 4.000000, 4.000000, 4.000000, 4.000000, 4.000000, 1.000000, 4.000000, 4.000000, 4.000000, 4.000000, 4.000000, 4.000000, 4.000000
104.000000, 0.000000, 1136.923096, 4013.333252, 2528.717773, 5132.820313, 3621.025635, 3549.743408, 2538.974365, 3254.358887, 4232.820313, 5597.948730, 3484.615234, 2614.871826, 2344.615234, 4645.641113, 3596.000000, 8275.000000, 8230.000000, 0.000000, 0.000000, 0.000000, -21038.000000, 136.923080, 4.000000, 4.000000, 4.000000, 4.000000, 4.000000, 4.000000, 4.000000, 4.000000, 1.000000, 4.000000, 4.000000, 4.000000, 4.000000, 4.000000, 4.000000, 4.000000
105.000000, 0.000000, 1167.179443, 3987.179443, 2549.743408, 5121.025391, 3570.256348, 3565.128174, 2536.923096, 3276.923096, 4232.820313, 5511.281738, 3494.871826, 2633.333252, 2309.230713, 4576.922852, 3589.000000, 8279.000000, 8133.000000, 0.000000, 0.000000, 0.000000, -21038.000000, 145.128204, 4.000000, 4.000000, 4.000000, 4.000000, 4.000000, 4.000000, 4.000000, 4.000000, 1.000000, 4.000000, 4.000000, 4.000000, 4.000000, 4.000000, 4.000000, 4.000000
106.000000, 0.000000, 1201.538452, 3971.281982, 2569.230713, 5122.051270, 3515.897461, 3582.051270, 2544.102539, 3300.000000, 4232.820313, 5440.000000, 3514.871826, 2658.974365, 2286.666504, 4522.563965, 2057.000000, 8279.000000, 8133.000000, 0.000000, 0.000000, 0.000000, -21038.000000, 152.820511, 4.000000, 4.000000, 4.000000, 4.000000, 4.000000, 4.000000, 4.000000, 4.000000, 1.000000, 4.000000, 4.000000, 4.000000, 4.000000, 4.000000, 4.000000, 4.000000
107.000000, 0.000000, 1224.102539, 3954.358887, 2586.153809, 5121.538574, 3466.153809, 3586.666504, 2547.179443, 3307.692139, 4232.307617, 5356.922852, 3527.692139, 2678.974365, 2258.461426, 4466.153809, 368.000000, 8294.000000, 8105.000000, 0.000000, 0.000000, 0.000000, -21038.000000, 161.025635, 4.000000, 4.000000, 4.000000, 4.000000, 4.000000, 4.000000, 4.000000, 4.000000, 1.000000, 4.000000, 4.000000, 4.000000, 4.000000, 4.000000, 4.000000, 4.000000
108.000000, 0.000000, 1244.615356, 3938.461426, 2602.563965, 5115.897461, 3435.897461, 3600.512695, 2549.743408, 3319.487061, 4232.820313, 5258.974121, 3531.794678, 2695.897461, 2222.563965, 4399.487305, 3596.000000, 8294.000000, 8105.000000, 0.000000, 0.000000, 0.000000, -21038.000000, 168.717941, 4.000000, 4.000000, 4.000000, 4.000000, 4.000000, 4.000000, 4.000000, 4.000000, 1.000000, 4.000000, 4.000000, 4.000000, 4.000000, 4.000000, 4.000000, 4.000000
109.000000, 0.000000, 1272.307617, 3931.281982, 2621.025635, 5106.666504, 3413.333252, 3617.948730, 2542.051270, 3328.717773, 4234.358887, 5158.974121, 3539.487061, 2717.435791, 2183.589600, 4332.307617, 3589.000000, 8339.000000, 8235.000000, 0.000000, 0.000000, 0.000000, -21038.000000, 176.923065, 4.000000, 4.000000, 4.000000, 4.000000, 4.000000, 4.000000, 4.000000, 4.000000, 1.000000, 4.000000, 4.000000, 4.000000, 4.000000, 4.000000, 4.000000, 4.000000
110.000000, 0.000000, 1283.076904, 3926.153809, 2633.333252, 5078.461426, 3394.358887, 3620.512695, 2518.461426, 3326.666504, 4233.333008, 5049.230469, 3545.128174, 2731.281982, 2130.256348, 4260.512695, 2057.000000, 8339.000000, 8235.000000, 0.000000, 0.000000, 0.000000, -21038.000000, 184.615387, 4.000000, 4.000000, 4.000000, 4.000000, 4.000000, 4.000000, 4.000000, 4.000000, 1.000000, 4.000000, 4.000000, 4.000000, 4.000000, 4.000000, 4.000000, 4.000000
111.000000, 0.000000, 1275.384644, 3920.000000, 2638.461426, 5032.820313, 3416.410156, 3625.128174, 2501.538330, 3324.102539, 4232.307617, 4936.922852, 3549.743408, 2737.948730, 2074.358887, 4187.692383, 368.000000, 8308.000000, 8301.000000, 0.000000, 0.000000, 0.000000, -21038.000000, 192.820511, 4.000000, 4.000000, 4.000000, 4.000000, 4.000000, 4.000000, 4.000000, 4.000000, 1.000000, 4.000000, 4.000000, 4.000000, 4.000000, 4.000000, 4.000000, 4.000000
112.000000, 0.000000, 1270.256348, 3912.307617, 2647.692139, 4986.666504, 3473.845947, 3637.948730, 2494.358887, 3331.794678, 4233.333008, 4841.538574, 3562.563965, 2750.769043, 2036.922974, 4135.384277, 3596.000000, 8308.000000, 8301.000000, 0.000000, 0.000000, 0.000000, -21038.000000, 200.512817, 4.000000, 4.000000, 4.000000, 4.000000, 4.000000, 4.000000, 4.000000, 4.000000, 1.000000, 4.000000, 4.000000, 4.000000, 4.000000, 4.000000, 4.000000, 4.000000
113.000000, 0.000000, 1266.153809, 3897.948730, 2663.076904, 4945.127930, 3504.615234, 3645.128174, 2485.640869, 3338.461426, 4233.333008, 4755.897461, 3576.923096, 2768.205078, 2011.281982, 4090.256348, 3589.000000, 8277.000000, 8267.000000, 0.000000, 0.000000, 0.000000, -21038.000000, 208.717941, 4.000000, 4.000000, 4.000000, 4.000000, 4.000000, 4.000000, 4.000000, 4.000000, 1.000000, 4.000000, 4.000000, 4.000000, 4.000000, 4.000000, 4.000000, 4.000000
114.000000, 0.000000, 1262.051270, 3883.076904, 2681.538330, 4917.948730, 3498.461426, 3658.974365, 2492.820557, 3347.179443, 4233.846191, 4665.127930, 3590.256348, 2785.640869, 1996.410156, 4040.512695, 2057.000000, 8277.000000, 8267.000000, 0.000000, 0.000000, 0.000000, -21038.000000, 216.923065, 4.000000, 4.000000, 4.000000, 4.000000, 4.000000, 4.000000, 4.000000, 4.000000, 1.000000, 4.000000, 4.000000, 4.000000, 4.000000, 4.000000, 4.000000, 4.000000
115.000000, 0.000000, 1283.589722, 3875.384521, 2709.230713, 4913.846191, 3492.307617, 3684.615234, 2511.281982, 3385.128174, 4236.410156, 4583.076660, 3613.333252, 2812.820557, 2010.256348, 4004.615234, 368.000000, 8243.000000, 8102.000000, 0.000000, 0.000000, 0.000000, -21038.000000, 224.615372, 4.000000, 4.000000, 4.000000, 4.000000, 4.000000, 4.000000, 4.000000, 4.000000, 1.000000, 4.000000, 4.000000, 4.000000, 4.000000, 4.000000, 4.000000, 4.000000
116.000000, 0.000000, 1321.538452, 3868.717773, 2735.384521, 4906.666504, 3485.128174, 3695.897461, 2514.871826, 3416.410156, 4236.410156, 4510.256348, 3634.871826, 2844.615234, 2028.717896, 3977.435791, 3596.000000, 8243.000000, 8102.000000, 0.000000, 0.000000, 0.000000, -21038.000000, 232.820511, 4.000000, 4.000000, 4.000000, 4.000000, 4.000000, 4.000000, 4.000000, 4.000000, 1.000000, 4.000000, 4.000000, 4.000000, 4.000000, 4.000000, 4.000000, 4.000000
117.000000, 0.000000, 1343.076904, 3854.358887, 2746.153809, 4883.589844, 3464.615234, 3691.794678, 2510.256348, 3405.128174, 4234.871582, 4435.384277, 3642.051270, 2862.051270, 2027.179443, 3937.948730, 3589.000000, 8225.000000, 8066.000000, 0.000000, 0.000000, 0.000000, -21038.000000, 240.512817, 4.000000, 4.000000, 4.000000, 4.000000, 4.000000, 4.000000, 4.000000, 4.000000, 1.000000, 4.000000, 4.000000, 4.000000, 4.000000, 4.000000, 4.000000, 4.000000
118.000000, 0.000000, 1355.384521, 3834.871582, 2756.410156, 4861.538574, 3438.974365, 3699.487061, 2517.948730, 3408.205078, 4236.410156, 4370.769043, 3648.205078, 2877.435791, 2024.102539, 3893.845947, 2057.000000, 8225.000000, 8066.000000, 0.000000, 0.000000, 0.000000, -21038.000000, 248.717941, 4.000000, 4.000000, 4.000000, 4.000000, 4.000000, 4.000000, 4.000000, 4.000000, 1.000000, 4.000000, 4.000000, 4.000000, 4.000000, 4.000000, 4.000000, 4.000000
119.000000, 0.000000, 1373.846069, 3817.948730, 2776.923096, 4835.384277, 3413.846191, 3715.897461, 2532.307617, 3450.256348, 4237.436035, 4329.230469, 3667.692139, 2900.512695, 2029.743530, 3855.384521, 368.000000, 8210.000000, 8056.000000, 0.000000, 0.000000, 0.000000, -21038.000000, 256.410248, 4.000000, 4.000000, 4.000000, 4.000000, 4.000000, 4.000000, 4.000000, 4.000000, 1.000000, 4.000000, 4.000000, 4.000000, 4.000000, 4.000000, 4.000000, 4.000000
120.000000, 0.000000, 1384.102539, 3804.102539, 2798.974365, 4794.871582, 3397.435791, 3724.102539, 2541.025635, 3477.948730, 4234.358887, 4289.743652, 3690.256348, 2920.000000, 2031.281982, 3814.871582, 3596.000000, 8210.000000, 8056.000000, 0.000000, 0.000000, 0.000000, -21038.000000, 264.615387, 4.000000, 4.000000, 4.000000, 4.000000, 4.000000, 4.000000, 4.000000, 4.000000, 1.000000, 4.000000, 4.000000, 4.000000, 4.000000, 4.000000, 4.000000, 4.000000
121.000000, 0.000000, 1387.179443, 3791.281982, 2816.923096, 4755.384277, 3398.974365, 3728.717773, 2547.692139, 3486.666504, 4233.846191, 4239.487305, 3706.153809, 2940.000000, 2023.589722, 3772.307617, 3589.000000, 8206.000000, 8066.000000, 0.000000, 0.000000, 0.000000, -21038.000000, 272.307678, 4.000000, 4.000000, 4.000000, 4.000000, 4.000000, 4.000000, 4.000000, 4.000000, 1.000000, 4.000000, 4.000000, 4.000000, 4.000000, 4.000000, 4.000000, 4.000000
122.000000, 0.000000, 1402.564087, 3780.512695, 2839.487061, 4728.717773, 3401.538330, 3740.512695, 2561.025635, 3503.589600, 4235.897461, 4194.871582, 3725.128174, 2969.743408, 2017.948608, 3738.461426, 2057.000000, 8206.000000, 8066.000000, 0.000000, 0.000000, 0.000000, -21038.000000, 280.512817, 4.000000, 4.000000, 4.000000, 4.000000, 4.000000, 4.000000, 4.000000, 4.000000, 1.000000, 4.000000, 4.000000, 4.000000, 4.000000, 4.000000, 4.000000, 4.000000
123.000000, 0.000000, 1420.512817, 3765.128174, 2864.102539, 4702.563965, 3387.179443, 3746.666504, 2571.281982, 3514.358887, 4235.384277, 4155.384277, 3739.487061, 2990.769043, 2010.769165, 3703.076904, 368.000000, 8207.000000, 8097.000000, 0.000000, 0.000000, 0.000000, -21038.000000, 288.205109, 4.000000, 4.000000, 4.000000, 4.000000, 4.000000, 4.000000, 4.000000, 4.000000, 1.000000, 4.000000, 4.000000, 4.000000, 4.000000, 4.000000, 4.000000, 4.000000
124.000000, 0.000000, 1429.230713, 3744.102539, 2878.974365, 4673.846191, 3372.307617, 3738.974365, 2572.820557, 3516.410156, 4233.846191, 4104.102539, 3738.974365, 2997.435791, 1995.897339, 3656.923096, 3596.000000, 8207.000000, 8097.000000, 0.000000, 0.000000, 0.000000, -21038.000000, 296.410248, 4.000000, 4.000000, 4.000000, 4.000000, 4.000000, 4.000000, 4.000000, 4.000000, 1.000000, 4.000000, 4.000000, 4.000000, 4.000000, 4.000000, 4.000000, 4.000000
125.000000, 0.000000, 1447.179443, 3733.333252, 2897.435791, 4657.948730, 3372.307617, 3742.563965, 2587.179443, 3527.692139, 4234.358887, 4061.025635, 3748.717773, 3018.974365, 1990.769165, 3619.487061, 3589.000000, 8208.000000, 8121.000000, 0.000000, 0.000000, 0.000000, -21038.000000, 304.615387, 4.000000, 4.000000, 4.000000, 4.000000, 4.000000, 4.000000, 4.000000, 4.000000, 1.000000, 4.000000, 4.000000, 4.000000, 4.000000, 4.000000, 4.000000, 4.000000
126.000000, 0.000000, 1476.410278, 3726.153809, 2922.563965, 4647.179199, 3369.230713, 3764.615234, 2610.769287, 3554.358887, 4234.871582, 4038.461426, 3774.358887, 3053.333252, 1995.897339, 3598.461426, 2057.000000, 8208.000000, 8121.000000, 0.000000, 0.000000, 0.000000, -21038.000000, 312.307678, 4.000000, 4.000000, 4.000000, 4.000000, 4.000000, 4.000000, 4.000000, 4.000000, 1.000000, 4.000000, 4.000000, 4.000000, 4.000000, 4.000000, 4.000000, 4.000000
127.000000, 0.000000, 1497.948730, 3707.179443, 2940.512695, 4624.615234, 3346.666504, 3773.845947, 2620.512695, 3572.820313, 4234.358887, 4009.743408, 3786.666504, 3071.281982, 1995.897339, 3570.256348, 57.000000, 8203.000000, 8142.000000, 0.000000, 0.000000, 0.000000, -21038.000000, 320.512817, 4.000000, 4.000000, 4.000000, 4.000000, 4.000000, 4.000000, 4.000000, 4.000000, 1.000000, 4.000000, 4.000000, 4.000000, 4.000000, 4.000000, 4.000000, 4.000000
0.000000, 0.000000, 1515.384521, 3693.333252, 2958.974365, 4604.615234, 3329.743408, 3770.769043, 2616.923096, 3561.025635, 4233.333008, 3969.230713, 3787.692139, 3079.487061, 1996.410156, 3535.897461, 3155.000000, 8203.000000, 8142.000000, 0.000000, 0.000000, 0.000000, -21038.000000, 328.205109, 4.000000, 4.000000, 4.000000, 4.000000, 4.000000, 4.000000, 4.000000, 4.000000, 1.000000, 4.000000, 4.000000, 4.000000, 4.000000, 4.000000, 4.000000, 4.000000
1.000000, 0.000000, 1536.923096, 3687.179443, 2984.102539, 4589.230469, 3327.179443, 3778.974365, 2627.692139, 3547.692139, 4233.846191, 3931.794678, 3788.717773, 3096.410156, 1994.871704, 3502.563965, 3556.000000, 8159.000000, 8131.000000, 0.000000, 0.000000, 0.000000, -21038.000000, 336.410248, 4.000000, 4.000000, 4.000000, 4.000000, 4.000000, 4.000000, 4.000000, 4.000000, 1.000000, 4.000000, 4.000000, 4.000000, 4.000000, 4.000000, 4.000000, 4.000000
2.000000, 0.000000, 1551.794800, 3672.820313, 2996.923096, 4566.153809, 3321.538330, 3789.743408, 2651.281982, 3555.897461, 4233.333008, 3892.820313, 3787.179443, 3112.307617, 1982.051270, 3467.179443, 3195.000000, 8159.000000, 8131.000000, 0.000000, 0.000000, 0.000000, -21038.000000, 344.102570, 4.000000, 4.000000, 4.000000, 4.000000, 4.000000, 4.000000, 4.000000, 4.000000, 1.000000, 4.000000, 4.000000, 4.000000, 4.000000, 4.000000, 4.000000, 4.000000
3.000000, 0.000000, 1556.923096, 3652.820313, 3001.025635, 4537.948730, 3316.410156, 3791.794678, 2658.461426, 3567.692139, 4231.281738, 3851.794678, 3790.769043, 3116.923096, 1982.564087, 3435.897461, 2312.000000, 8156.000000, 8138.000000, 0.000000, 0.000000, 0.000000, -21038.000000, 352.307678, 4.000000, 4.000000, 4.000000, 4.000000, 4.000000, 4.000000, 4.000000, 4.000000, 1.000000, 4.000000, 4.000000, 4.000000, 4.000000, 4.000000, 4.000000, 4.000000
4.000000, 0.000000, 1570.769165, 3638.461426, 3016.923096, 4521.538574, 3315.897461, 3790.769043, 2652.820557, 3580.000000, 4231.281738, 3818.974365, 3805.128174, 3126.153809, 1999.487183, 3410.769043, 3592.000000, 8156.000000, 8138.000000, 0.000000, 0.000000, 0.000000, -21038.000000, 360.000000, 4.000000, 4.000000, 4.000000, 4.000000, 4.000000, 4.000000, 4.000000, 4.000000, 1.000000, 4.000000, 4.000000, 4.000000, 4.000000, 4.000000, 4.000000, 4.000000
5.000000, 0.000000, 1594.871704, 3623.589600, 3038.974365, 4519.487305, 3299.487061, 3790.769043, 2661.025635, 3597.948730, 4233.333008, 3790.256348, 3814.358887, 3145.128174, 1997.435791, 3380.512695, 3606.000000, 8167.000000, 8204.000000, 0.000000, 0.000000, 0.000000, -21038.000000, 368.205109, 4.000000, 4.000000, 4.000000, 4.000000, 4.000000, 4.000000, 4.000000, 4.000000, 1.000000, 4.000000, 4.000000, 4.000000, 4.000000, 4.000000, 4.000000, 4.000000
6.000000, 0.000000, 1620.512817, 3598.974365, 3056.923096, 4513.846191, 3267.179443, 3788.717773, 2684.102539, 3606.666504, 4233.333008, 3761.538330, 3820.000000, 3161.538330, 1977.435791, 3346.153809, 3592.000000, 8167.000000, 8204.000000, 0.000000, 0.000000, 0.000000, -21038.000000, 376.410248, 4.000000, 4.000000, 4.000000, 4.000000, 4.000000, 4.000000, 4.000000, 4.000000, 1.000000, 4.000000, 4.000000, 4.000000, 4.000000, 4.000000, 4.000000, 4.000000
7.000000, 0.000000, 1651.281982, 3569.230713, 3076.410156, 4505.641113, 3251.281982, 3789.230713, 2697.948730, 3614.358887, 4232.820313, 3740.000000, 3834.358887, 3173.333252, 1969.230713, 3316.410156, 3553.000000, 8165.000000, 8208.000000, 0.000000, 0.000000, 0.000000, -21038.000000, 384.102570, 4.000000, 4.000000, 4.000000, 4.000000, 4.000000, 4.000000, 4.000000, 4.000000, 1.000000, 4.000000, 4.000000, 4.000000, 4.000000, 4.000000, 4.000000, 4.000000
8.000000, 0.000000, 1668.205078, 3537.435791, 3089.230713, 4509.230469, 3248.717773, 3790.256348, 2702.563965, 3632.307617, 4233.333008, 3722.051270, 3835.897461, 3184.615234, 1963.589722, 3283.589600, 77.000000, 8165.000000, 8208.000000, 0.000000, 0.000000, 0.000000, -21038.000000, 392.307678, 4.000000, 4.000000, 4.000000, 4.000000, 4.000000, 4.000000, 4.000000, 4.000000, 1.000000, 4.000000, 4.000000, 4.000000, 4.000000, 4.000000, 4.000000, 4.000000
9.000000, 0.000000, 1665.640991, 3508.717773, 3094.358887, 4528.205078, 3247.179443, 3789.743408, 2712.307617, 3643.589600, 4233.333008, 3700.000000, 3823.076904, 3189.743408, 1948.717896, 3246.153809, 2849.000000, 8158.000000, 8195.000000, 0.000000, 0.000000, 0.000000, -21038.000000, 400.000000, 4.000000, 4.000000, 4.000000, 4.000000, 4.000000, 4.000000, 4.000000, 4.000000, 1.000000, 4.000000, 4.000000, 4.000000, 4.000000, 4.000000, 4.000000, 4.000000
10.000000, 0.000000, 1670.256348, 3487.692139, 3107.179443, 4549.230469, 3255.384521, 3790.256348, 2730.256348, 3643.076904, 4232.307617, 3680.512695, 3814.871582, 3193.333252, 1943.076904, 3213.846191, 3426.000000, 8158.000000, 8195.000000, 0.000000, 0.000000, 0.000000, -21038.000000, 408.205109, 4.000000, 4.000000, 4.000000, 4.000000, 4.000000, 4.000000, 4.000000, 4.000000, 1.000000, 4.000000, 4.000000, 4.000000, 4.000000, 4.000000, 4.000000, 4.000000
11.000000, 0.000000, 1669.743530, 3470.769043, 3123.076904, 4557.948730, 3266.153809, 3791.281982, 2740.512695, 3637.435791, 4232.820313, 3667.692139, 3812.820313, 3203.076904, 1958.461548, 3191.794678, 2899.000000, 8182.000000, 8237.000000, 0.000000, 0.000000, 0.000000, -21038.000000, 415.897430, 4.000000, 4.000000, 4.000000, 4.000000, 4.000000, 4.000000, 4.000000, 4.000000, 1.000000, 4.000000, 4.000000, 4.000000, 4.000000, 4.000000, 4.000000, 4.000000
12.000000, 0.000000, 1629.230713, 3445.128174, 3128.205078, 4555.384277, 3257.435791, 3786.666504, 2731.281982, 3624.615234, 4230.769043, 3655.384521, 3808.205078, 3210.256348, 1982.564087, 3168.205078, 3559.000000, 8182.000000, 8237.000000, 0.000000, 0.000000, 0.000000, -21038.000000, 424.102539, 4.000000, 4.000000, 4.000000, 4.000000, 4.000000, 4.000000, 4.000000, 4.000000, 1.000000, 4.000000, 4.000000, 4.000000, 4.000000, 4.000000, 4.000000, 4.000000
13.000000, 0.000000, 1561.538452, 3402.563965, 3127.692139, 4562.563965, 3229.230713, 3768.717773, 2721.538330, 3609.743408, 4230.256348, 3636.410156, 3792.307617, 3207.179443, 1998.974365, 3129.743408, 3541.000000, 8191.000000, 8242.000000, 0.000000, 0.000000, 0.000000, -21038.000000, 432.307678, 4.000000, 4.000000, 4.000000, 4.000000, 4.000000, 4.000000, 4.000000, 4.000000, 1.000000, 4.000000, 4.000000, 4.000000, 4.000000, 4.000000, 4.000000, 4.000000
14.000000, 1.000000, 1520.512817, 3362.051270, 3134.358887, 4567.179199, 3255.384521, 3747.692139, 2720.512695, 3588.717773, 4228.205078, 3607.179443, 3769.230713, 3198.461426, 2019.487183, 3090.256348, 2951.000000, 8191.000000, 8242.000000, 0.000000, 0.000000, 0.000000, -21038.000000, 440.000000, 4.000000, 4.000000, 4.000000, 4.000000, 4.000000, 4.000000, 4.000000, 4.000000, 1.000000, 4.000000, 4.000000, 4.000000, 4.000000, 4.000000, 4.000000, 4.000000
15.000000, 1.000000, 1479.487183, 3321.025635, 3140.512695, 4572.307617, 3282.051270, 3727.179443, 2720.000000, 3567.692139, 4226.153809, 3578.461426, 3746.153809, 3189.743408, 2040.000000, 3050.769043, 2361.000000, 8191.000000, 8242.000000, 0.000000, 0.000000, 0.000000, -21038.000000, 447.692291, 4.000000, 4.000000, 4.000000, 4.000000, 4.000000, 4.000000, 4.000000, 4.000000, 1.000000, 4.000000, 4.000000, 4.000000, 4.000000, 4.000000, 4.000000, 4.000000
16.000000, 1.000000, 1438.974365, 3280.512695, 3146.666504, 4576.922852, 3308.205078, 3706.153809, 2718.974365, 3547.179443, 4224.102539, 3549.230713, 3722.563965, 3181.025635, 2060.000000, 3011.281982, 1771.000000, 8191.000000, 8242.000000, 0.000000, 0.000000, 0.000000, -21038.000000, 455.897430, 4.000000, 4.000000, 4.000000, 4.000000, 4.000000, 4.000000, 4.000000, 4.000000, 1.000000, 4.000000, 4.000000, 4.000000, 4.000000, 4.000000, 4.000000, 4.000000
17.000000, 1.000000, 1397.948730, 3239.487061, 3152.820557, 4582.051270, 3334.358887, 3685.128174, 2718.461426, 3526.153809, 4222.051270, 3520.000000, 3699.487061, 3172.820557, 2080.512695, 2971.794678, 1181.000000, 8191.000000, 8242.000000, 0.000000, 0.000000, 0.000000, -21038.000000, 463.589722, 4.000000, 4.000000, 4.000000, 4.000000, 4.000000, 4.000000, 4.000000, 4.000000, 1.000000, 4.000000, 4.000000, 4.000000, 4.000000, 4.000000, 4.000000, 4.000000
18.000000, 1.000000, 1356.923096, 3198.974365, 3159.487061, 4586.666504, 3360.512695, 3664.102539, 2717.435791, 3505.128174, 4220.000000, 3490.769043, 3676.410156, 3164.102539, 2101.025635, 2932.307617, 591.000000, 8191.000000, 8242.000000, 0.000000, 0.000000, 0.000000, -21038.000000, 471.282043, 4.000000, 4.000000, 4.000000, 4.000000, 4.000000, 4.000000, 4.000000, 4.000000, 1.000000, 4.000000, 4.000000, 4.000000, 4.000000, 4.000000, 4.000000, 4.000000
19.000000, 0.000000, 1315.897461, 3157.948730, 3166.153809, 4591.794922, 3387.692139, 3643.076904, 2716.410156, 3484.102539, 4217.948730, 3461.025635, 3652.820313, 3155.384521, 2121.538330, 2892.307617, 0.000000, 8191.000000, 8242.000000, 0.000000, 0.000000, 0.000000, -21038.000000, 479.487183, 4.000000, 4.000000, 4.000000, 4.000000, 4.000000, 4.000000, 4.000000, 4.000000, 1.000000, 4.000000, 4.000000, 4.000000, 4.000000, 4.000000, 4.000000, 4.000000
20.000000, 0.000000, 1277.435913, 3136.923096, 3175.384521, 4584.615234, 3438.974365, 3624.615234, 2713.846191, 3452.307617, 4216.922852, 3412.820313, 3627.692139, 3137.948730, 2122.051270, 2849.743408, 0.000000, 8191.000000, 8242.000000, 0.000000, 0.000000, 0.000000, -21038.000000, 487.179474, 4.000000, 4.000000, 4.000000, 4.000000, 4.000000, 4.000000, 4.000000, 4.000000, 1.000000, 4.000000, 4.000000, 4.000000, 4.000000, 4.000000, 4.000000, 4.000000
21.000000, 0.000000, 1265.640991, 3116.923096, 3190.256348, 4643.076660, 3463.076904, 3607.692139, 2701.538330, 3425.640869, 4216.410156, 3375.384521, 3617.435791, 3129.230713, 2130.769287, 2820.000000, 0.000000, 8111.000000, 8214.000000, 0.000000, 0.000000, 0.000000, -21038.000000, 495.384613, 4.000000, 4.000000, 4.000000, 4.000000, 4.000000, 4.000000, 4.000000, 4.000000, 1.000000, 4.000000, 4.000000, 4.000000, 4.000000, 4.000000, 4.000000, 4.000000
22.000000, 0.000000, 1303.076904, 3089.743408, 3201.025635, 4680.000000, 3475.897461, 3604.615234, 2707.179443, 3429.230713, 4216.410156, 3338.974365, 3619.487061, 3131.794678, 2164.615234, 2804.615234, 0.000000, 8111.000000, 8214.000000, 0.000000, 0.000000, 0.000000, -21038.000000, 503.076904, 4.000000, 4.000000, 4.000000, 4.000000, 4.000000, 4.000000, 4.000000, 4.000000, 1.000000, 4.000000, 4.000000, 4.000000, 4.000000, 4.000000, 4.000000, 4.000000
23.000000, 0.000000, 1362.564087, 3068.717773, 3205.640869, 4593.846191, 3498.974365, 3605.640869, 2723.589600, 3429.230713, 4217.436035, 3295.897461, 3614.358887, 3130.256348, 2211.794922, 2785.128174, 0.000000, 8065.000000, 8192.000000, 0.000000, 0.000000, 0.000000, -21038.000000, 510.769226, 4.000000, 4.000000, 4.000000, 4.000000, 4.000000, 4.000000, 4.000000, 4.000000, 1.000000, 4.000000, 4.000000, 4.000000, 4.000000, 4.000000, 4.000000, 4.000000
24.000000, 0.000000, 1415.897461, 3057.948730, 3214.871826, 4473.846191, 3534.871826, 3596.923096, 2720.512695, 3399.487061, 4216.922852, 3248.717773, 3605.640869, 3120.512695, 2267.692139, 2748.205078, 0.000000, 8065.000000, 8192.000000, 0.000000, 0.000000, 0.000000, -21038.000000, 518.974365, 4.000000, 4.000000, 4.000000, 4.000000, 4.000000, 4.000000, 4.000000, 4.000000, 1.000000, 4.000000, 4.000000, 4.000000, 4.000000, 4.000000, 4.000000, 4.000000
25.000000, 0.000000, 1468.717896, 3047.692139, 3233.846191, 4421.025391, 3582.051270, 3583.076904, 2713.333252, 3381.538330, 4216.922852, 3202.563965, 3602.051270, 3113.846191, 2344.615234, 2701.538330, 0.000000, 7997.000000, 8199.000000, 0.000000, 0.000000, 0.000000, -21038.000000, 526.666626, 4.000000, 4.000000, 4.000000, 4.000000, 4.000000, 4.000000, 4.000000, 4.000000, 1.000000, 4.000000, 4.000000, 4.000000, 4.000000, 4.000000, 4.000000, 4.000000
26.000000, 0.000000, 1531.281982, 3027.692139, 3251.281982, 4404.615234, 3628.205078, 3568.205078, 2719.487061, 3374.871826, 4215.897461, 3146.153809, 3589.743408, 3104.102539, 2417.948730, 2654.358887, 0.000000, 7997.000000, 8199.000000, 0.000000, 0.000000, 0.000000, -21038.000000, 534.358948, 4.000000, 4.000000, 4.000000, 4.000000, 4.000000, 4.000000, 4.000000, 4.000000, 1.000000, 4.000000, 4.000000, 4.000000, 4.000000, 4.000000, 4.000000, 4.000000
27.000000, 0.000000, 1612.307617, 3001.538330, 3285.128174, 4392.820313, 3663.589600, 3555.384521, 2715.897461, 3342.563965, 4213.846191, 3085.128174, 3571.794678, 3083.076904, 2473.846191, 2613.333252, 0.000000, 7993.000000, 8207.000000, 0.000000, 0.000000, 0.000000, -21038.000000, 542.051270, 4.000000, 4.000000, 4.000000, 4.000000, 4.000000, 4.000000, 4.000000, 4.000000, 1.000000, 4.000000, 4.000000, 4.000000, 4.000000, 4.000000, 4.000000, 4.000000
28.000000, 0.000000, 1701.025635, 2977.948730, 3363.076904, 4378.461426, 3722.563965, 3548.717773, 2704.615234, 3313.333252, 4213.846191, 3041.538330, 3564.102539, 3070.769043, 2534.358887, 2580.512695, 0.000000, 7993.000000, 8207.000000, 0.000000, 0.000000, 0.000000, -21038.000000, 550.256409, 4.000000, 4.000000, 4.000000, 4.000000, 4.000000, 4.000000, 4.000000, 4.000000, 1.000000, 4.000000, 4.000000, 4.000000, 4.000000, 4.000000, 4.000000, 4.000000
29.000000, 0.000000, 1762.051270, 2953.846191, 3454.358887, 4343.076660, 3823.589600, 3543.076904, 2708.717773, 3300.512695, 4215.897461, 3010.256348, 3561.025635, 3064.615234, 2593.846191, 2545.128174, 0.000000, 8035.000000, 8159.000000, 0.000000, 0.000000, 0.000000, -21038.000000, 557.948730, 4.000000, 4.000000, 4.000000, 4.000000, 4.000000, 4.000000, 4.000000, 4.000000, 1.000000, 4.000000, 4.000000, 4.000000, 4.000000, 4.000000, 4.000000, 4.000000
30.000000, 0.000000, 1821.538452, 2930.769043, 3522.563965, 4317.948730, 3931.794678, 3533.845947, 2721.025635, 3278.461426, 4212.820313, 2974.358887, 3553.333252, 3051.281982, 2637.435791, 2504.102539, 0.000000, 8035.000000, 8159.000000, 0.000000, 0.000000, 0.000000, -21038.000000, 565.640991, 4.000000, 4.000000, 4.000000, 4.000000, 4.000000, 4.000000, 4.000000, 4.000000, 1.000000, 4.000000, 4.000000, 4.000000, 4.000000, 4.000000, 4.000000, 4.000000
31.000000, 0.000000, 1924.102539, 2925.640869, 3585.128174, 4330.769043, 4005.640869, 3534.358887, 2729.743408, 3268.205078, 4207.179199, 2945.128174, 3549.230713, 3042.563965, 2678.974365, 2475.384521, 0.000000, 8054.000000, 8143.000000, 0.000000, 0.000000, 0.000000, -21038.000000, 573.333313, 4.000000, 4.000000, 4.000000, 4.000000, 4.000000, 4.000000, 4.000000, 4.000000, 1.000000, 4.000000, 4.000000, 4.000000, 4.000000, 4.000000, 4.000000, 4.000000
32.000000, 0.000000, 2031.281982, 2936.410156, 3652.820313, 4340.000000, 4027.179443, 3544.102539, 2743.076904, 3286.153809, 4212.307617, 2943.076904, 3556.923096, 3046.153809, 2727.692139, 2469.230713, 0.000000, 8054.000000, 8143.000000, 0.000000, 0.000000, 0.000000, -21038.000000, 581.025635, 4.000000, 4.000000, 4.000000, 4.000000, 4.000000, 4.000000, 4.000000, 4.000000, 1.000000, 4.000000, 4.000000, 4.000000, 4.000000, 4.000000, 4.000000, 4.000000
33.000000, 0.000000, 2121.025635, 2947.179443, 3690.769043, 4321.538574, 4006.153809, 3550.769043, 2769.743408, 3298.461426, 4216.922852, 2935.384521, 3568.717773, 3054.871826, 2766.666504, 2464.102539, 0.000000, 8067.000000, 8133.000000, 0.000000, 0.000000, 0.000000, -21038.000000, 589.230774, 4.000000, 4.000000, 4.000000, 4.000000, 4.000000, 4.000000, 4.000000, 4.000000, 1.000000, 4.000000, 4.000000, 4.000000, 4.000000, 4.000000, 4.000000, 4.000000
34.000000, 0.000000, 2254.358887, 2955.897461, 3700.000000, 4300.000000, 3952.820313, 3560.000000, 2797.435791, 3303.076904, 4208.205078, 2899.487061, 3578.461426, 3068.717773, 2795.897461, 2448.205078, 0.000000, 8067.000000, 8133.000000, 0.000000, 0.000000, 0.000000, -21038.000000, 596.923035, 4.000000, 4.000000, 4.000000, 4.000000, 4.000000, 4.000000, 4.000000, 4.000000, 1.000000, 4.000000, 4.000000, 4.000000, 4.000000, 4.000000, 4.000000, 4.000000
35.000000, 0.000000, 2428.717773, 2983.589600, 3719.487061, 4287.692383, 3866.666504, 3583.589600, 2821.025635, 3325.640869, 4198.461426, 2879.487061, 3594.358887, 3092.820557, 2836.410156, 2440.000000, 0.000000, 8080.000000, 8101.000000, 0.000000, 0.000000, 0.000000, -21038.000000, 604.615356, 4.000000, 4.000000, 4.000000, 4.000000, 4.000000, 4.000000, 4.000000, 4.000000, 1.000000, 4.000000, 4.000000, 4.000000, 4.000000, 4.000000, 4.000000, 4.000000
36.000000, 0.000000, 2574.871826, 3028.205078, 3746.666504, 4266.666504, 3763.589600, 3620.512695, 2851.281982, 3354.871826, 4205.641113, 2894.358887, 3624.615234, 3120.512695, 2892.820557, 2446.666504, 0.000000, 8080.000000, 8101.000000, 0.000000, 0.000000, 0.000000, -21038.000000, 612.307678, 4.000000, 4.000000, 4.000000, 4.000000, 4.000000, 4.000000, 4.000000, 4.000000, 1.000000, 4.000000, 4.000000, 4.000000, 4.000000, 4.000000, 4.000000, 4.000000
37.000000, 0.000000, 2730.256348, 3069.230713, 3766.153809, 4234.358887, 3669.230713, 3665.128174, 2894.358887, 3378.461426, 4214.358887, 2893.846191, 3655.384521, 3148.717773, 2959.487061, 2450.769287, 0.000000, 8096.000000, 8118.000000, 0.000000, 0.000000, 0.000000, -21038.000000, 620.000000, 4.000000, 4.000000, 4.000000, 4.000000, 4.000000, 4.000000, 4.000000, 4.000000, 1.000000, 4.000000, 4.000000, 4.000000, 4.000000, 4.000000, 4.000000, 4.000000
38.000000, 0.000000, 2961.538330, 3113.846191, 3797.435791, 4214.871582, 3591.281982, 3718.461426, 2949.230713, 3398.974365, 4207.692383, 2882.563965, 3693.845947, 3186.666504, 3036.923096, 2459.487061, 0.000000, 8096.000000, 8118.000000, 0.000000, 0.000000, 0.000000, -21038.000000, 627.692322, 4.000000, 4.000000, 4.000000, 4.000000, 4.000000, 4.000000, 4.000000, 4.000000, 1.000000, 4.000000, 4.000000, 4.000000, 4.000000, 4.000000, 4.000000, 4.000000
39.000000, 0.000000, 3229.230713, 3166.666504, 3841.025635, 4203.076660, 3508.717773, 3739.487061, 2992.307617, 3415.384521, 4205.127930, 2900.512695, 3751.281982, 3227.692139, 3120.512695, 2494.358887, 0.000000, 8159.000000, 8176.000000, 0.000000, 0.000000, 0.000000, -21038.000000, 635.897400, 4.000000, 4.000000, 4.000000, 4.000000, 4.000000, 4.000000, 4.000000, 4.000000, 1.000000, 4.000000, 4.000000, 4.000000, 4.000000, 4.000000, 4.000000, 4.000000
40.000000, 0.000000, 3444.102539, 3212.307617, 3873.845947, 4182.051270, 3427.692139, 3725.640869, 3019.487061, 3430.769043, 4214.358887, 2927.179443, 3805.640869, 3258.974365, 3191.794678, 2536.410156, 0.000000, 8159.000000, 8176.000000, 0.000000, 0.000000, 0.000000, -21038.000000, 643.589722, 4.000000, 4.000000, 4.000000, 4.000000, 4.000000, 4.000000, 4.000000, 4.000000, 1.000000, 4.000000, 4.000000, 4.000000, 4.000000, 4.000000, 4.000000, 4.000000
41.000000, 0.000000, 3568.717773, 3236.923096, 3890.256348, 4154.871582, 3361.538330, 3748.205078, 3058.974365, 3450.256348, 4213.333008, 2942.563965, 3843.076904, 3281.025635, 3232.820313, 2548.205078, 0.000000, 8202.000000, 8188.000000, 0.000000, 0.000000, 0.000000, -21038.000000, 651.282043, 4.000000, 4.000000, 4.000000, 4.000000, 4.000000, 4.000000, 4.000000, 4.000000, 1.000000, 4.000000, 4.000000, 4.000000, 4.000000, 4.000000, 4.000000, 4.000000
42.000000, 0.000000, 3681.025635, 3266.153809, 3911.794678, 4138.461426, 3311.794678, 3812.307617, 3110.256348, 3481.538330, 4207.692383, 2949.743408, 3888.205078, 3312.307617, 3264.102539, 2551.281982, 0.000000, 8202.000000, 8188.000000, 0.000000, 0.000000, 0.000000, -21038.000000, 658.974365, 4.000000, 4.000000, 4.000000, 4.000000, 4.000000, 4.000000, 4.000000, 4.000000, 1.000000, 4.000000, 4.000000, 4.000000, 4.000000, 4.000000, 4.000000, 4.000000
43.000000, 0.000000, 3864.102539, 3313.333252, 3937.948730, 4133.333008, 3276.923096, 3808.205078, 3134.871826, 3519.487061, 4213.333008, 2928.205078, 3933.845947, 3350.256348, 3302.051270, 2576.410156, 0.000000, 8232.000000, 8200.000000, 0.000000, 0.000000, 0.000000, -21038.000000, 666.666626, 4.000000, 4.000000, 4.000000, 4.000000, 4.000000, 4.000000, 4.000000, 4.000000, 1.000000, 4.000000, 4.000000, 4.000000, 4.000000, 4.000000, 4.000000, 4.000000
44.000000, 0.000000, 4117.436035, 3368.205078, 3957.435791, 4130.769043, 3237.948730, 3769.743408, 3150.256348, 3548.717773, 4216.922852, 2900.512695, 3967.179443, 3383.076904, 3336.923096, 2601.025635, 0.000000, 8232.000000, 8200.000000, 0.000000, 0.000000, 0.000000, -21038.000000, 674.871765, 4.000000, 4.000000, 4.000000, 4.000000, 4.000000, 4.000000, 4.000000, 4.000000, 1.000000, 4.000000, 4.000000, 4.000000, 4.000000, 4.000000, 4.000000, 4.000000
45.000000, 0.000000, 4429.743652, 3446.153809, 3984.102539, 4142.051270, 3190.769043, 3853.845947, 3204.615234, 3597.948730, 4214.871582, 2921.538330, 4019.487061, 3431.281982, 3380.000000, 2620.512695, 0.000000, 8274.000000, 8263.000000, 0.000000, 0.000000, 0.000000, -21038.000000, 682.564087, 4.000000, 4.000000, 4.000000, 4.000000, 4.000000, 4.000000, 4.000000, 4.000000, 1.000000, 4.000000, 4.000000, 4.000000, 4.000000, 4.000000, 4.000000, 4.000000
46.000000, 0.000000, 4725.127930, 3542.051270, 4003.589600, 4151.794922, 3140.000000, 3919.487061, 3232.820313, 3641.025635, 4214.358887, 2949.230713, 4067.179443, 3475.384521, 3420.512695, 2641.538330, 0.000000, 8274.000000, 8263.000000, 0.000000, 0.000000, 0.000000, -21038.000000, 690.256409, 4.000000, 4.000000, 4.000000, 4.000000, 4.000000, 4.000000, 4.000000, 4.000000, 1.000000, 4.000000, 4.000000, 4.000000, 4.000000, 4.000000, 4.000000, 4.000000
