title:winkLeft23, recorded:21.05.18 17.02.56, timestamp started:2018-05-12T20:28:52.032863+02:00            , sampling:128, subject:Noé, labels:COUNTER INTERPOLATED AF3 F7 F3 FC5 T7 P7 O1 O2 P8 T8 FC6 F4 F8 AF4 RAW_CQ GYROX GYROY MARKER MARKER_HARDWARE SYNC TIME_STAMP_s TIME_STAMP_ms CQ_AF3 CQ_F7 CQ_F3 CQ_FC5 CQ_T7 CQ_P7 CQ_O1 CQ_O2 CQ_P8 CQ_T8 CQ_FC6 CQ_F4 CQ_F8 CQ_AF4 CQ_CMS CQ_DRL, chan:40, samples:2420, units:emotiv
71.000000, 0.000000, 4217.436035, 4215.384277, 4230.256348, 4213.846191, 4197.436035, 4189.743652, 4192.820313, 4184.102539, 4202.563965, 4337.948730, 4170.769043, 4189.230469, 4584.102539, 4192.307617, 3514.000000, 8200.000000, 8222.000000, 0.000000, 0.000000, 0.000000, -21188.000000, 582.564087, 4.000000, 4.000000, 4.000000, 4.000000, 4.000000, 4.000000, 4.000000, 4.000000, 1.000000, 4.000000, 4.000000, 4.000000, 4.000000, 4.000000, 4.000000, 4.000000
72.000000, 0.000000, 4214.358887, 4213.333008, 4224.615234, 4209.743652, 4191.281738, 4185.641113, 4190.769043, 4174.358887, 4194.358887, 4334.358887, 4168.205078, 4187.692383, 4565.641113, 4186.666504, 90.000000, 8200.000000, 8222.000000, 0.000000, 0.000000, 0.000000, -21188.000000, 590.256409, 4.000000, 4.000000, 4.000000, 4.000000, 4.000000, 4.000000, 4.000000, 4.000000, 1.000000, 4.000000, 4.000000, 4.000000, 4.000000, 4.000000, 4.000000, 4.000000
73.000000, 0.000000, 4219.487305, 4211.281738, 4223.589844, 4205.641113, 4187.179199, 4185.641113, 4196.410156, 4163.076660, 4188.205078, 4335.384277, 4176.410156, 4183.076660, 4550.256348, 4187.179199, 2581.000000, 8203.000000, 8215.000000, 0.000000, 0.000000, 0.000000, -21188.000000, 598.461548, 4.000000, 4.000000, 4.000000, 4.000000, 4.000000, 4.000000, 4.000000, 4.000000, 1.000000, 4.000000, 4.000000, 4.000000, 4.000000, 4.000000, 4.000000, 4.000000
74.000000, 0.000000, 4214.358887, 4207.692383, 4223.076660, 4202.051270, 4191.281738, 4177.436035, 4193.333008, 4169.743652, 4197.948730, 4333.333008, 4175.384277, 4178.974121, 4524.102539, 4186.666504, 3577.000000, 8203.000000, 8215.000000, 0.000000, 0.000000, 0.000000, -21188.000000, 606.153809, 4.000000, 4.000000, 4.000000, 4.000000, 4.000000, 4.000000, 4.000000, 4.000000, 1.000000, 4.000000, 4.000000, 4.000000, 4.000000, 4.000000, 4.000000, 4.000000
75.000000, 0.000000, 4203.589844, 4207.179199, 4218.461426, 4202.563965, 4188.205078, 4174.358887, 4182.563965, 4168.717773, 4202.563965, 4337.436035, 4173.333008, 4179.487305, 4498.461426, 4184.102539, 3572.000000, 8211.000000, 8209.000000, 0.000000, 0.000000, 0.000000, -21188.000000, 613.846130, 4.000000, 4.000000, 4.000000, 4.000000, 4.000000, 4.000000, 4.000000, 4.000000, 1.000000, 4.000000, 4.000000, 4.000000, 4.000000, 4.000000, 4.000000, 4.000000
76.000000, 0.000000, 4208.717773, 4212.307617, 4216.410156, 4206.153809, 4180.512695, 4184.615234, 4186.153809, 4154.871582, 4195.384277, 4342.051270, 4183.076660, 4183.076660, 4479.487305, 4187.692383, 3554.000000, 8211.000000, 8209.000000, 0.000000, 0.000000, 0.000000, -21188.000000, 621.538452, 4.000000, 4.000000, 4.000000, 4.000000, 4.000000, 4.000000, 4.000000, 4.000000, 1.000000, 4.000000, 4.000000, 4.000000, 4.000000, 4.000000, 4.000000, 4.000000
77.000000, 0.000000, 4213.333008, 4211.794922, 4215.384277, 4204.615234, 4189.743652, 4185.127930, 4191.794922, 4167.692383, 4197.948730, 4342.563965, 4191.281738, 4183.589844, 4459.487305, 4192.307617, 3460.000000, 8220.000000, 8199.000000, 0.000000, 0.000000, 0.000000, -21188.000000, 629.230774, 4.000000, 4.000000, 4.000000, 4.000000, 4.000000, 4.000000, 4.000000, 4.000000, 1.000000, 4.000000, 4.000000, 4.000000, 4.000000, 4.000000, 4.000000, 4.000000
78.000000, 0.000000, 4206.666504, 4209.743652, 4217.436035, 4202.051270, 4200.000000, 4177.436035, 4188.205078, 4192.820313, 4203.076660, 4347.692383, 4192.307617, 4184.615234, 4438.974121, 4192.307617, 3577.000000, 8220.000000, 8199.000000, 0.000000, 0.000000, 0.000000, -21188.000000, 636.923035, 4.000000, 4.000000, 4.000000, 4.000000, 4.000000, 4.000000, 4.000000, 4.000000, 1.000000, 4.000000, 4.000000, 4.000000, 4.000000, 4.000000, 4.000000, 4.000000
79.000000, 0.000000, 4209.743652, 4212.820313, 4220.512695, 4205.641113, 4193.846191, 4177.436035, 4186.666504, 4191.794922, 4198.974121, 4352.307617, 4194.871582, 4188.205078, 4421.025391, 4194.358887, 3572.000000, 8229.000000, 8207.000000, 0.000000, 0.000000, 0.000000, -21188.000000, 645.128174, 4.000000, 4.000000, 4.000000, 4.000000, 4.000000, 4.000000, 4.000000, 4.000000, 1.000000, 4.000000, 4.000000, 4.000000, 4.000000, 4.000000, 4.000000, 4.000000
80.000000, 0.000000, 4214.871582, 4212.820313, 4216.410156, 4206.153809, 4183.076660, 4176.410156, 4190.769043, 4183.076660, 4198.974121, 4348.205078, 4196.922852, 4188.717773, 4394.871582, 4195.384277, 3554.000000, 8229.000000, 8207.000000, 0.000000, 0.000000, 0.000000, -21188.000000, 652.820496, 4.000000, 4.000000, 4.000000, 4.000000, 4.000000, 4.000000, 4.000000, 4.000000, 1.000000, 4.000000, 4.000000, 4.000000, 4.000000, 4.000000, 4.000000, 4.000000
81.000000, 0.000000, 4210.256348, 4204.615234, 4214.358887, 4201.538574, 4185.127930, 4172.820313, 4191.281738, 4185.641113, 4201.025391, 4346.666504, 4196.410156, 4186.666504, 4366.666504, 4195.384277, 3460.000000, 8235.000000, 8209.000000, 0.000000, 0.000000, 0.000000, -21188.000000, 660.512817, 4.000000, 4.000000, 4.000000, 4.000000, 4.000000, 4.000000, 4.000000, 4.000000, 1.000000, 4.000000, 4.000000, 4.000000, 4.000000, 4.000000, 4.000000, 4.000000
82.000000, 0.000000, 4209.743652, 4196.410156, 4217.436035, 4206.153809, 4193.333008, 4178.461426, 4186.153809, 4180.000000, 4198.461426, 4351.281738, 4199.487305, 4188.205078, 4342.051270, 4198.974121, 3577.000000, 8235.000000, 8209.000000, 0.000000, 0.000000, 0.000000, -21188.000000, 668.205139, 4.000000, 4.000000, 4.000000, 4.000000, 4.000000, 4.000000, 4.000000, 4.000000, 1.000000, 4.000000, 4.000000, 4.000000, 4.000000, 4.000000, 4.000000, 4.000000
83.000000, 0.000000, 4209.230469, 4201.538574, 4216.410156, 4218.461426, 4191.281738, 4184.615234, 4185.641113, 4170.256348, 4197.948730, 4351.281738, 4203.076660, 4191.281738, 4313.333008, 4198.974121, 3572.000000, 8245.000000, 8206.000000, 0.000000, 0.000000, 0.000000, -21188.000000, 676.410217, 4.000000, 4.000000, 4.000000, 4.000000, 4.000000, 4.000000, 4.000000, 4.000000, 1.000000, 4.000000, 4.000000, 4.000000, 4.000000, 4.000000, 4.000000, 4.000000
84.000000, 0.000000, 4200.512695, 4204.102539, 4212.820313, 4215.384277, 4183.076660, 4185.641113, 4184.615234, 4172.307617, 4197.948730, 4346.666504, 4201.025391, 4188.717773, 4275.384277, 4189.230469, 3554.000000, 8245.000000, 8206.000000, 0.000000, 0.000000, 0.000000, -21188.000000, 684.102539, 4.000000, 4.000000, 4.000000, 4.000000, 4.000000, 4.000000, 4.000000, 4.000000, 1.000000, 4.000000, 4.000000, 4.000000, 4.000000, 4.000000, 4.000000, 4.000000
85.000000, 0.000000, 4198.974121, 4194.871582, 4208.717773, 4202.051270, 4183.589844, 4180.512695, 4181.538574, 4168.205078, 4197.948730, 4341.025391, 4188.717773, 4177.948730, 4233.333008, 4176.922852, 3460.000000, 8238.000000, 8198.000000, 0.000000, 0.000000, 0.000000, -21188.000000, 691.794861, 4.000000, 4.000000, 4.000000, 4.000000, 4.000000, 4.000000, 4.000000, 4.000000, 1.000000, 4.000000, 4.000000, 4.000000, 4.000000, 4.000000, 4.000000, 4.000000
86.000000, 0.000000, 4204.102539, 4197.436035, 4210.256348, 4202.051270, 4190.256348, 4174.871582, 4182.563965, 4156.922852, 4196.922852, 4333.846191, 4182.563965, 4172.820313, 4200.512695, 4175.897461, 3577.000000, 8238.000000, 8198.000000, 0.000000, 0.000000, 0.000000, -21188.000000, 699.487183, 4.000000, 4.000000, 4.000000, 4.000000, 4.000000, 4.000000, 4.000000, 4.000000, 1.000000, 4.000000, 4.000000, 4.000000, 4.000000, 4.000000, 4.000000, 4.000000
87.000000, 0.000000, 4201.025391, 4197.948730, 4216.922852, 4205.641113, 4186.153809, 4175.384277, 4183.589844, 4160.000000, 4197.948730, 4336.922852, 4194.358887, 4180.000000, 4176.922852, 4180.000000, 3572.000000, 8231.000000, 8204.000000, 0.000000, 0.000000, 0.000000, -21188.000000, 707.179443, 4.000000, 4.000000, 4.000000, 4.000000, 4.000000, 4.000000, 4.000000, 4.000000, 1.000000, 4.000000, 4.000000, 4.000000, 4.000000, 4.000000, 4.000000, 4.000000
88.000000, 0.000000, 4200.512695, 4188.205078, 4218.461426, 4202.563965, 4184.102539, 4180.000000, 4180.512695, 4171.794922, 4201.025391, 4341.538574, 4204.102539, 4186.153809, 4158.974121, 4185.127930, 3554.000000, 8231.000000, 8204.000000, 0.000000, 0.000000, 0.000000, -21188.000000, 715.384583, 4.000000, 4.000000, 4.000000, 4.000000, 4.000000, 4.000000, 4.000000, 4.000000, 1.000000, 4.000000, 4.000000, 4.000000, 4.000000, 4.000000, 4.000000, 4.000000
89.000000, 0.000000, 4210.256348, 4191.281738, 4216.922852, 4206.153809, 4193.333008, 4182.563965, 4177.948730, 4168.717773, 4201.025391, 4334.358887, 4206.666504, 4187.692383, 4145.641113, 4191.281738, 3460.000000, 8225.000000, 8191.000000, 0.000000, 0.000000, 0.000000, -21188.000000, 723.076904, 4.000000, 4.000000, 4.000000, 4.000000, 4.000000, 4.000000, 4.000000, 4.000000, 1.000000, 4.000000, 4.000000, 4.000000, 4.000000, 4.000000, 4.000000, 4.000000
90.000000, 0.000000, 4220.000000, 4198.974121, 4216.922852, 4213.333008, 4195.897461, 4182.563965, 4182.563965, 4164.615234, 4199.487305, 4330.256348, 4210.769043, 4192.307617, 4129.743652, 4201.025391, 3577.000000, 8225.000000, 8191.000000, 0.000000, 0.000000, 0.000000, -21188.000000, 730.769226, 4.000000, 4.000000, 4.000000, 4.000000, 4.000000, 4.000000, 4.000000, 4.000000, 1.000000, 4.000000, 4.000000, 4.000000, 4.000000, 4.000000, 4.000000, 4.000000
91.000000, 0.000000, 4228.205078, 4197.436035, 4224.615234, 4216.922852, 4197.436035, 4187.179199, 4188.717773, 4175.897461, 4200.512695, 4335.897461, 4218.461426, 4200.000000, 4108.205078, 4210.256348, 3572.000000, 8220.000000, 8189.000000, 0.000000, 0.000000, 0.000000, -21188.000000, 738.461548, 4.000000, 4.000000, 4.000000, 4.000000, 4.000000, 4.000000, 4.000000, 4.000000, 1.000000, 4.000000, 4.000000, 4.000000, 4.000000, 4.000000, 4.000000, 4.000000
92.000000, 0.000000, 4233.333008, 4197.948730, 4228.717773, 4220.000000, 4206.153809, 4196.410156, 4190.256348, 4186.153809, 4201.025391, 4333.333008, 4224.615234, 4201.025391, 4088.205078, 4214.871582, 3554.000000, 8220.000000, 8189.000000, 0.000000, 0.000000, 0.000000, -21188.000000, 746.153809, 4.000000, 4.000000, 4.000000, 4.000000, 4.000000, 4.000000, 4.000000, 4.000000, 1.000000, 4.000000, 4.000000, 4.000000, 4.000000, 4.000000, 4.000000, 4.000000
93.000000, 0.000000, 4232.307617, 4199.487305, 4225.127930, 4221.025391, 4206.153809, 4200.000000, 4191.794922, 4185.127930, 4198.974121, 4326.153809, 4224.615234, 4200.000000, 4070.769043, 4212.820313, 3460.000000, 8204.000000, 8184.000000, 0.000000, 0.000000, 0.000000, -21188.000000, 754.358948, 4.000000, 4.000000, 4.000000, 4.000000, 4.000000, 4.000000, 4.000000, 4.000000, 1.000000, 4.000000, 4.000000, 4.000000, 4.000000, 4.000000, 4.000000, 4.000000
94.000000, 0.000000, 4230.256348, 4196.922852, 4223.076660, 4218.461426, 4200.000000, 4200.512695, 4200.512695, 4184.102539, 4199.487305, 4325.641113, 4221.538574, 4203.076660, 4051.281982, 4208.717773, 3577.000000, 8204.000000, 8184.000000, 0.000000, 0.000000, 0.000000, -21188.000000, 762.051270, 4.000000, 4.000000, 4.000000, 4.000000, 4.000000, 4.000000, 4.000000, 4.000000, 1.000000, 4.000000, 4.000000, 4.000000, 4.000000, 4.000000, 4.000000, 4.000000
95.000000, 0.000000, 4227.692383, 4193.846191, 4225.127930, 4217.436035, 4204.102539, 4202.563965, 4203.589844, 4185.641113, 4198.974121, 4319.487305, 4222.051270, 4204.615234, 4038.461426, 4208.205078, 3572.000000, 8200.000000, 8189.000000, 0.000000, 0.000000, 0.000000, -21188.000000, 769.743591, 4.000000, 4.000000, 4.000000, 4.000000, 4.000000, 4.000000, 4.000000, 4.000000, 1.000000, 4.000000, 4.000000, 4.000000, 4.000000, 4.000000, 4.000000, 4.000000
96.000000, 0.000000, 4217.948730, 4185.641113, 4223.076660, 4212.820313, 4207.179199, 4201.538574, 4192.820313, 4182.563965, 4197.436035, 4309.230469, 4220.000000, 4198.461426, 4025.640869, 4204.102539, 3554.000000, 8200.000000, 8189.000000, 0.000000, 0.000000, 0.000000, -21188.000000, 777.435852, 4.000000, 4.000000, 4.000000, 4.000000, 4.000000, 4.000000, 4.000000, 4.000000, 1.000000, 4.000000, 4.000000, 4.000000, 4.000000, 4.000000, 4.000000, 4.000000
97.000000, 0.000000, 4211.794922, 4175.897461, 4217.948730, 4203.589844, 4201.025391, 4199.487305, 4186.666504, 4184.102539, 4199.487305, 4308.717773, 4213.333008, 4193.846191, 4010.769043, 4196.922852, 3460.000000, 8179.000000, 8199.000000, 0.000000, 0.000000, 0.000000, -21188.000000, 785.128174, 4.000000, 4.000000, 4.000000, 4.000000, 4.000000, 4.000000, 4.000000, 4.000000, 1.000000, 4.000000, 4.000000, 4.000000, 4.000000, 4.000000, 4.000000, 4.000000
98.000000, 0.000000, 4213.846191, 4176.410156, 4215.897461, 4204.102539, 4199.487305, 4198.974121, 4188.717773, 4191.281738, 4200.512695, 4307.692383, 4216.922852, 4196.410156, 4003.589600, 4198.974121, 3577.000000, 8179.000000, 8199.000000, 0.000000, 0.000000, 0.000000, -21188.000000, 793.333313, 4.000000, 4.000000, 4.000000, 4.000000, 4.000000, 4.000000, 4.000000, 4.000000, 1.000000, 4.000000, 4.000000, 4.000000, 4.000000, 4.000000, 4.000000, 4.000000
99.000000, 0.000000, 4208.717773, 4175.384277, 4213.846191, 4206.666504, 4202.051270, 4192.307617, 4185.641113, 4178.461426, 4198.461426, 4301.538574, 4217.436035, 4192.820313, 3995.384521, 4196.922852, 3572.000000, 8170.000000, 8203.000000, 0.000000, 0.000000, 0.000000, -21188.000000, 801.025635, 4.000000, 4.000000, 4.000000, 4.000000, 4.000000, 4.000000, 4.000000, 4.000000, 1.000000, 4.000000, 4.000000, 4.000000, 4.000000, 4.000000, 4.000000, 4.000000
100.000000, 0.000000, 4198.974121, 4167.692383, 4207.692383, 4203.076660, 4204.615234, 4187.179199, 4178.461426, 4166.666504, 4197.948730, 4295.897461, 4206.666504, 4185.641113, 3979.487061, 4188.717773, 3554.000000, 8170.000000, 8203.000000, 0.000000, 0.000000, 0.000000, -21188.000000, 808.717957, 4.000000, 4.000000, 4.000000, 4.000000, 4.000000, 4.000000, 4.000000, 4.000000, 1.000000, 4.000000, 4.000000, 4.000000, 4.000000, 4.000000, 4.000000, 4.000000
101.000000, 0.000000, 4188.717773, 4164.615234, 4202.051270, 4198.461426, 4196.410156, 4190.769043, 4183.076660, 4182.563965, 4200.512695, 4287.179199, 4201.025391, 4183.076660, 3957.435791, 4182.563965, 3460.000000, 8166.000000, 8208.000000, 0.000000, 0.000000, 0.000000, -21188.000000, 816.410217, 4.000000, 4.000000, 4.000000, 4.000000, 4.000000, 4.000000, 4.000000, 4.000000, 1.000000, 4.000000, 4.000000, 4.000000, 4.000000, 4.000000, 4.000000, 4.000000
102.000000, 0.000000, 4183.076660, 4163.589844, 4195.384277, 4198.974121, 4182.051270, 4187.692383, 4188.205078, 4188.717773, 4200.000000, 4279.487305, 4201.025391, 4175.384277, 3942.051270, 4178.461426, 3577.000000, 8166.000000, 8208.000000, 0.000000, 0.000000, 0.000000, -21188.000000, 824.615356, 4.000000, 4.000000, 4.000000, 4.000000, 4.000000, 4.000000, 4.000000, 4.000000, 1.000000, 4.000000, 4.000000, 4.000000, 4.000000, 4.000000, 4.000000, 4.000000
103.000000, 0.000000, 4187.692383, 4163.076660, 4194.871582, 4203.076660, 4191.281738, 4182.563965, 4177.948730, 4171.281738, 4197.948730, 4282.563965, 4203.589844, 4171.281738, 3945.640869, 4182.563965, 3572.000000, 8159.000000, 8204.000000, 0.000000, 0.000000, 0.000000, -21188.000000, 832.307678, 4.000000, 4.000000, 4.000000, 4.000000, 4.000000, 4.000000, 4.000000, 4.000000, 1.000000, 4.000000, 4.000000, 4.000000, 4.000000, 4.000000, 4.000000, 4.000000
104.000000, 0.000000, 4186.666504, 4163.076660, 4192.820313, 4197.436035, 4208.717773, 4188.205078, 4171.794922, 4162.563965, 4197.436035, 4281.025391, 4201.538574, 4173.846191, 3942.563965, 4184.102539, 3554.000000, 8159.000000, 8204.000000, 0.000000, 0.000000, 0.000000, -21188.000000, 840.000000, 4.000000, 4.000000, 4.000000, 4.000000, 4.000000, 4.000000, 4.000000, 4.000000, 1.000000, 4.000000, 4.000000, 4.000000, 4.000000, 4.000000, 4.000000, 4.000000
105.000000, 0.000000, 4169.230469, 4148.205078, 4176.922852, 4182.051270, 4199.487305, 4193.333008, 4180.512695, 4166.153809, 4197.436035, 4263.589844, 4184.615234, 4162.051270, 3917.948730, 4164.615234, 3460.000000, 8162.000000, 8204.000000, 0.000000, 0.000000, 0.000000, -21188.000000, 847.692261, 4.000000, 4.000000, 4.000000, 4.000000, 4.000000, 4.000000, 4.000000, 4.000000, 1.000000, 4.000000, 4.000000, 4.000000, 4.000000, 4.000000, 4.000000, 4.000000
106.000000, 0.000000, 4159.487305, 4134.871582, 4169.230469, 4177.948730, 4183.589844, 4190.769043, 4185.641113, 4175.384277, 4198.461426, 4255.384277, 4170.769043, 4149.230469, 3902.051270, 4147.692383, 3577.000000, 8162.000000, 8204.000000, 0.000000, 0.000000, 0.000000, -21188.000000, 855.384583, 4.000000, 4.000000, 4.000000, 4.000000, 4.000000, 4.000000, 4.000000, 4.000000, 1.000000, 4.000000, 4.000000, 4.000000, 4.000000, 4.000000, 4.000000, 4.000000
107.000000, 0.000000, 4166.666504, 4140.512695, 4178.974121, 4185.641113, 4184.615234, 4191.281738, 4185.641113, 4189.743652, 4200.000000, 4261.538574, 4178.974121, 4154.871582, 3908.205078, 4151.794922, 3572.000000, 8154.000000, 8193.000000, 0.000000, 0.000000, 0.000000, -21188.000000, 863.589722, 4.000000, 4.000000, 4.000000, 4.000000, 4.000000, 4.000000, 4.000000, 4.000000, 1.000000, 4.000000, 4.000000, 4.000000, 4.000000, 4.000000, 4.000000, 4.000000
108.000000, 0.000000, 4171.281738, 4147.179199, 4182.051270, 4184.615234, 4185.641113, 4192.307617, 4186.153809, 4185.641113, 4200.000000, 4265.641113, 4188.205078, 4155.897461, 3909.743408, 4153.333008, 3554.000000, 8154.000000, 8193.000000, 0.000000, 0.000000, 0.000000, -21188.000000, 871.282043, 4.000000, 4.000000, 4.000000, 4.000000, 4.000000, 4.000000, 4.000000, 4.000000, 1.000000, 4.000000, 4.000000, 4.000000, 4.000000, 4.000000, 4.000000, 4.000000
109.000000, 0.000000, 4167.692383, 4147.179199, 4182.563965, 4182.563965, 4185.127930, 4187.692383, 4177.436035, 4168.205078, 4199.487305, 4261.538574, 4187.179199, 4152.820313, 3909.230713, 4153.333008, 3460.000000, 8151.000000, 8182.000000, 0.000000, 0.000000, 0.000000, -21188.000000, 878.974365, 4.000000, 4.000000, 4.000000, 4.000000, 4.000000, 4.000000, 4.000000, 4.000000, 1.000000, 4.000000, 4.000000, 4.000000, 4.000000, 4.000000, 4.000000, 4.000000
110.000000, 0.000000, 4170.769043, 4149.743652, 4187.692383, 4192.820313, 4187.692383, 4184.615234, 4171.281738, 4162.563965, 4199.487305, 4252.820313, 4186.153809, 4160.512695, 3910.769043, 4165.641113, 3577.000000, 8151.000000, 8182.000000, 0.000000, 0.000000, 0.000000, -21188.000000, 886.666626, 4.000000, 4.000000, 4.000000, 4.000000, 4.000000, 4.000000, 4.000000, 4.000000, 1.000000, 4.000000, 4.000000, 4.000000, 4.000000, 4.000000, 4.000000, 4.000000
111.000000, 0.000000, 4180.000000, 4152.820313, 4190.769043, 4198.974121, 4182.051270, 4187.692383, 4180.512695, 4162.563965, 4198.461426, 4246.666504, 4187.179199, 4168.205078, 3902.051270, 4172.307617, 3572.000000, 8152.000000, 8176.000000, 0.000000, 0.000000, 0.000000, -21188.000000, 894.358948, 4.000000, 4.000000, 4.000000, 4.000000, 4.000000, 4.000000, 4.000000, 4.000000, 1.000000, 4.000000, 4.000000, 4.000000, 4.000000, 4.000000, 4.000000, 4.000000
112.000000, 0.000000, 4183.076660, 4149.230469, 4191.281738, 4191.281738, 4180.512695, 4187.179199, 4186.153809, 4163.076660, 4198.974121, 4247.692383, 4185.641113, 4168.717773, 3889.743408, 4166.153809, 3554.000000, 8152.000000, 8176.000000, 0.000000, 0.000000, 0.000000, -21188.000000, 902.051270, 4.000000, 4.000000, 4.000000, 4.000000, 4.000000, 4.000000, 4.000000, 4.000000, 1.000000, 4.000000, 4.000000, 4.000000, 4.000000, 4.000000, 4.000000, 4.000000
113.000000, 0.000000, 4181.538574, 4150.256348, 4189.230469, 4186.153809, 4193.846191, 4184.615234, 4181.538574, 4167.692383, 4198.974121, 4248.205078, 4186.153809, 4168.205078, 3884.102539, 4166.153809, 3460.000000, 8154.000000, 8155.000000, 0.000000, 0.000000, 0.000000, -21188.000000, 910.256409, 4.000000, 4.000000, 4.000000, 4.000000, 4.000000, 4.000000, 4.000000, 4.000000, 1.000000, 4.000000, 4.000000, 4.000000, 4.000000, 4.000000, 4.000000, 4.000000
114.000000, 0.000000, 4184.102539, 4154.871582, 4190.769043, 4194.871582, 4203.076660, 4191.281738, 4182.563965, 4168.205078, 4198.461426, 4247.179199, 4193.846191, 4169.230469, 3881.538330, 4171.794922, 3577.000000, 8154.000000, 8155.000000, 0.000000, 0.000000, 0.000000, -21188.000000, 917.948669, 4.000000, 4.000000, 4.000000, 4.000000, 4.000000, 4.000000, 4.000000, 4.000000, 1.000000, 4.000000, 4.000000, 4.000000, 4.000000, 4.000000, 4.000000, 4.000000
115.000000, 0.000000, 4186.666504, 4151.794922, 4192.820313, 4201.538574, 4197.948730, 4198.461426, 4184.102539, 4166.666504, 4198.974121, 4248.717773, 4197.948730, 4170.256348, 3875.897461, 4172.307617, 3572.000000, 8155.000000, 8143.000000, 0.000000, 0.000000, 0.000000, -21188.000000, 925.640991, 4.000000, 4.000000, 4.000000, 4.000000, 4.000000, 4.000000, 4.000000, 4.000000, 1.000000, 4.000000, 4.000000, 4.000000, 4.000000, 4.000000, 4.000000, 4.000000
116.000000, 0.000000, 4187.179199, 4151.281738, 4195.897461, 4200.512695, 4198.461426, 4198.974121, 4186.153809, 4174.358887, 4199.487305, 4247.179199, 4194.871582, 4171.794922, 3872.820313, 4175.384277, 3554.000000, 8155.000000, 8143.000000, 0.000000, 0.000000, 0.000000, -21188.000000, 933.333313, 4.000000, 4.000000, 4.000000, 4.000000, 4.000000, 4.000000, 4.000000, 4.000000, 1.000000, 4.000000, 4.000000, 4.000000, 4.000000, 4.000000, 4.000000, 4.000000
117.000000, 0.000000, 4189.230469, 4153.333008, 4197.948730, 4200.512695, 4203.589844, 4198.461426, 4194.358887, 4176.922852, 4199.487305, 4244.102539, 4192.820313, 4176.410156, 3876.410156, 4180.512695, 3460.000000, 8163.000000, 8135.000000, 0.000000, 0.000000, 0.000000, -21188.000000, 941.538452, 4.000000, 4.000000, 4.000000, 4.000000, 4.000000, 4.000000, 4.000000, 4.000000, 1.000000, 4.000000, 4.000000, 4.000000, 4.000000, 4.000000, 4.000000, 4.000000
118.000000, 0.000000, 4190.256348, 4152.307617, 4195.897461, 4200.000000, 4200.512695, 4200.000000, 4200.000000, 4170.769043, 4198.974121, 4245.127930, 4198.461426, 4183.076660, 3880.000000, 4185.127930, 3577.000000, 8163.000000, 8135.000000, 0.000000, 0.000000, 0.000000, -21188.000000, 949.230774, 4.000000, 4.000000, 4.000000, 4.000000, 4.000000, 4.000000, 4.000000, 4.000000, 1.000000, 4.000000, 4.000000, 4.000000, 4.000000, 4.000000, 4.000000, 4.000000
119.000000, 0.000000, 4189.230469, 4155.897461, 4195.897461, 4198.974121, 4197.436035, 4201.025391, 4202.051270, 4176.922852, 4198.461426, 4249.743652, 4204.615234, 4186.666504, 3883.076904, 4191.281738, 3572.000000, 8160.000000, 8134.000000, 0.000000, 0.000000, 0.000000, -21188.000000, 956.923035, 4.000000, 4.000000, 4.000000, 4.000000, 4.000000, 4.000000, 4.000000, 4.000000, 1.000000, 4.000000, 4.000000, 4.000000, 4.000000, 4.000000, 4.000000, 4.000000
120.000000, 0.000000, 4189.743652, 4157.436035, 4198.461426, 4201.025391, 4203.589844, 4200.512695, 4205.127930, 4183.076660, 4199.487305, 4248.717773, 4204.615234, 4184.615234, 3883.589600, 4188.717773, 3554.000000, 8160.000000, 8134.000000, 0.000000, 0.000000, 0.000000, -21188.000000, 964.615356, 4.000000, 4.000000, 4.000000, 4.000000, 4.000000, 4.000000, 4.000000, 4.000000, 1.000000, 4.000000, 4.000000, 4.000000, 4.000000, 4.000000, 4.000000, 4.000000
121.000000, 0.000000, 4183.589844, 4156.922852, 4196.922852, 4199.487305, 4200.512695, 4201.025391, 4209.743652, 4178.974121, 4200.000000, 4237.948730, 4201.025391, 4178.974121, 3872.820313, 4178.461426, 3460.000000, 8161.000000, 8136.000000, 0.000000, 0.000000, 0.000000, -21188.000000, 972.820496, 4.000000, 4.000000, 4.000000, 4.000000, 4.000000, 4.000000, 4.000000, 4.000000, 1.000000, 4.000000, 4.000000, 4.000000, 4.000000, 4.000000, 4.000000, 4.000000
122.000000, 0.000000, 4172.820313, 4161.025391, 4192.820313, 4188.717773, 4189.743652, 4200.000000, 4212.307617, 4175.897461, 4198.974121, 4232.820313, 4198.974121, 4172.820313, 3851.794678, 4172.820313, 3577.000000, 8161.000000, 8136.000000, 0.000000, 0.000000, 0.000000, -21188.000000, 980.512817, 4.000000, 4.000000, 4.000000, 4.000000, 4.000000, 4.000000, 4.000000, 4.000000, 1.000000, 4.000000, 4.000000, 4.000000, 4.000000, 4.000000, 4.000000, 4.000000
123.000000, 0.000000, 4171.281738, 4165.641113, 4190.769043, 4183.076660, 4192.820313, 4200.512695, 4210.769043, 4173.846191, 4198.461426, 4231.794922, 4196.922852, 4168.717773, 3830.256348, 4173.846191, 3572.000000, 8163.000000, 8148.000000, 0.000000, 0.000000, 0.000000, -21188.000000, 988.205078, 4.000000, 4.000000, 4.000000, 4.000000, 4.000000, 4.000000, 4.000000, 4.000000, 1.000000, 4.000000, 4.000000, 4.000000, 4.000000, 4.000000, 4.000000, 4.000000
124.000000, 0.000000, 4175.384277, 4174.871582, 4192.307617, 4193.333008, 4203.589844, 4200.000000, 4205.641113, 4168.717773, 4200.000000, 4221.538574, 4190.769043, 4171.281738, 3809.230713, 4171.794922, 3554.000000, 8163.000000, 8148.000000, 0.000000, 0.000000, 0.000000, -21188.000000, 995.897400, 4.000000, 4.000000, 4.000000, 4.000000, 4.000000, 4.000000, 4.000000, 4.000000, 1.000000, 4.000000, 4.000000, 4.000000, 4.000000, 4.000000, 4.000000, 4.000000
125.000000, 0.000000, 4171.794922, 4187.692383, 4192.820313, 4196.922852, 4203.076660, 4196.922852, 4207.179199, 4170.769043, 4199.487305, 4213.333008, 4187.692383, 4173.846191, 3793.845947, 4165.641113, 3460.000000, 8170.000000, 8156.000000, 0.000000, 0.000000, 0.000000, -21187.000000, 3.589744, 4.000000, 4.000000, 4.000000, 4.000000, 4.000000, 4.000000, 4.000000, 4.000000, 1.000000, 4.000000, 4.000000, 4.000000, 4.000000, 4.000000, 4.000000, 4.000000
126.000000, 0.000000, 4167.179199, 4190.769043, 4189.743652, 4191.794922, 4198.974121, 4196.922852, 4211.794922, 4172.307617, 4198.974121, 4214.871582, 4188.205078, 4166.153809, 3787.692139, 4158.461426, 3577.000000, 8170.000000, 8156.000000, 0.000000, 0.000000, 0.000000, -21187.000000, 11.282051, 4.000000, 4.000000, 4.000000, 4.000000, 4.000000, 4.000000, 4.000000, 4.000000, 1.000000, 4.000000, 4.000000, 4.000000, 4.000000, 4.000000, 4.000000, 4.000000
127.000000, 0.000000, 4168.717773, 4190.769043, 4182.563965, 4193.846191, 4201.538574, 4199.487305, 4207.179199, 4163.076660, 4198.974121, 4214.358887, 4186.666504, 4158.461426, 3787.692139, 4153.846191, 57.000000, 8184.000000, 8158.000000, 0.000000, 0.000000, 0.000000, -21187.000000, 19.487179, 4.000000, 4.000000, 4.000000, 4.000000, 4.000000, 4.000000, 4.000000, 4.000000, 1.000000, 4.000000, 4.000000, 4.000000, 4.000000, 4.000000, 4.000000, 4.000000
0.000000, 0.000000, 4171.794922, 4201.538574, 4180.000000, 4200.000000, 4204.615234, 4201.025391, 4203.076660, 4173.333008, 4198.461426, 4214.358887, 4186.153809, 4163.589844, 3794.358887, 4157.436035, 3131.000000, 8184.000000, 8158.000000, 0.000000, 0.000000, 0.000000, -21187.000000, 27.179487, 4.000000, 4.000000, 4.000000, 4.000000, 4.000000, 4.000000, 4.000000, 4.000000, 1.000000, 4.000000, 4.000000, 4.000000, 4.000000, 4.000000, 4.000000, 4.000000
1.000000, 0.000000, 4174.358887, 4221.025391, 4184.615234, 4199.487305, 4204.615234, 4200.512695, 4204.102539, 4185.127930, 4197.948730, 4215.384277, 4191.281738, 4171.281738, 3801.025635, 4160.512695, 3517.000000, 8188.000000, 8160.000000, 0.000000, 0.000000, 0.000000, -21187.000000, 34.871796, 4.000000, 4.000000, 4.000000, 4.000000, 4.000000, 4.000000, 4.000000, 4.000000, 1.000000, 4.000000, 4.000000, 4.000000, 4.000000, 4.000000, 4.000000, 4.000000
2.000000, 0.000000, 4174.358887, 4228.717773, 4184.615234, 4200.000000, 4202.563965, 4199.487305, 4202.051270, 4169.743652, 4197.948730, 4206.666504, 4188.717773, 4167.179199, 3798.974365, 4156.410156, 3559.000000, 8188.000000, 8160.000000, 0.000000, 0.000000, 0.000000, -21187.000000, 42.564102, 4.000000, 4.000000, 4.000000, 4.000000, 4.000000, 4.000000, 4.000000, 4.000000, 1.000000, 4.000000, 4.000000, 4.000000, 4.000000, 4.000000, 4.000000, 4.000000
3.000000, 0.000000, 4170.769043, 4225.127930, 4181.025391, 4203.589844, 4204.102539, 4197.948730, 4198.461426, 4161.538574, 4196.922852, 4200.000000, 4177.948730, 4158.974121, 3794.871582, 4152.307617, 2458.000000, 8190.000000, 8168.000000, 0.000000, 0.000000, 0.000000, -21187.000000, 50.769230, 4.000000, 4.000000, 4.000000, 4.000000, 4.000000, 4.000000, 4.000000, 4.000000, 1.000000, 4.000000, 4.000000, 4.000000, 4.000000, 4.000000, 4.000000, 4.000000
4.000000, 0.000000, 4170.256348, 4222.051270, 4183.589844, 4202.563965, 4200.512695, 4194.871582, 4204.102539, 4167.692383, 4197.948730, 4198.974121, 4173.333008, 4157.436035, 3790.769043, 4152.820313, 3538.000000, 8190.000000, 8168.000000, 0.000000, 0.000000, 0.000000, -21187.000000, 58.461536, 4.000000, 4.000000, 4.000000, 4.000000, 4.000000, 4.000000, 4.000000, 4.000000, 1.000000, 4.000000, 4.000000, 4.000000, 4.000000, 4.000000, 4.000000, 4.000000
5.000000, 0.000000, 4170.769043, 4214.871582, 4185.127930, 4200.000000, 4187.179199, 4194.358887, 4198.461426, 4164.615234, 4198.974121, 4192.820313, 4173.846191, 4157.436035, 3784.102539, 4151.281738, 3563.000000, 8190.000000, 8174.000000, 0.000000, 0.000000, 0.000000, -21187.000000, 66.153847, 4.000000, 4.000000, 4.000000, 4.000000, 4.000000, 4.000000, 4.000000, 4.000000, 1.000000, 4.000000, 4.000000, 4.000000, 4.000000, 4.000000, 4.000000, 4.000000
6.000000, 0.000000, 4170.256348, 4208.717773, 4185.641113, 4194.358887, 4190.256348, 4196.922852, 4186.666504, 4162.563965, 4199.487305, 4189.230469, 4171.281738, 4157.948730, 3787.692139, 4150.256348, 3372.000000, 8190.000000, 8174.000000, 0.000000, 0.000000, 0.000000, -21187.000000, 73.846153, 4.000000, 4.000000, 4.000000, 4.000000, 4.000000, 4.000000, 4.000000, 4.000000, 1.000000, 4.000000, 4.000000, 4.000000, 4.000000, 4.000000, 4.000000, 4.000000
7.000000, 0.000000, 4176.922852, 4210.769043, 4189.230469, 4190.769043, 4206.153809, 4202.563965, 4193.846191, 4175.897461, 4199.487305, 4196.410156, 4174.871582, 4165.127930, 3797.948730, 4160.000000, 3313.000000, 8187.000000, 8176.000000, 0.000000, 0.000000, 0.000000, -21187.000000, 81.538460, 4.000000, 4.000000, 4.000000, 4.000000, 4.000000, 4.000000, 4.000000, 4.000000, 1.000000, 4.000000, 4.000000, 4.000000, 4.000000, 4.000000, 4.000000, 4.000000
8.000000, 0.000000, 4185.641113, 4212.820313, 4195.384277, 4196.922852, 4205.641113, 4202.051270, 4199.487305, 4185.127930, 4198.461426, 4200.000000, 4183.076660, 4172.820313, 3796.410156, 4170.769043, 88.000000, 8187.000000, 8176.000000, 0.000000, 0.000000, 0.000000, -21187.000000, 89.230766, 4.000000, 4.000000, 4.000000, 4.000000, 4.000000, 4.000000, 4.000000, 4.000000, 1.000000, 4.000000, 4.000000, 4.000000, 4.000000, 4.000000, 4.000000, 4.000000
9.000000, 0.000000, 4187.179199, 4212.820313, 4200.512695, 4200.000000, 4198.461426, 4199.487305, 4185.127930, 4184.102539, 4197.948730, 4196.922852, 4184.102539, 4172.307617, 3793.333252, 4171.794922, 2577.000000, 8192.000000, 8179.000000, 0.000000, 0.000000, 0.000000, -21187.000000, 97.435898, 4.000000, 4.000000, 4.000000, 4.000000, 4.000000, 4.000000, 4.000000, 4.000000, 1.000000, 4.000000, 4.000000, 4.000000, 4.000000, 4.000000, 4.000000, 4.000000
10.000000, 0.000000, 4187.692383, 4211.281738, 4203.589844, 4197.436035, 4201.025391, 4199.487305, 4182.563965, 4177.948730, 4198.974121, 4197.948730, 4185.127930, 4176.410156, 3799.487061, 4175.897461, 3443.000000, 8192.000000, 8179.000000, 0.000000, 0.000000, 0.000000, -21187.000000, 105.128204, 4.000000, 4.000000, 4.000000, 4.000000, 4.000000, 4.000000, 4.000000, 4.000000, 1.000000, 4.000000, 4.000000, 4.000000, 4.000000, 4.000000, 4.000000, 4.000000
11.000000, 0.000000, 4189.743652, 4208.205078, 4205.127930, 4197.436035, 4201.538574, 4196.410156, 4197.948730, 4173.846191, 4199.487305, 4201.538574, 4192.307617, 4184.615234, 3804.102539, 4183.589844, 3565.000000, 8194.000000, 8181.000000, 0.000000, 0.000000, 0.000000, -21187.000000, 112.820511, 4.000000, 4.000000, 4.000000, 4.000000, 4.000000, 4.000000, 4.000000, 4.000000, 1.000000, 4.000000, 4.000000, 4.000000, 4.000000, 4.000000, 4.000000, 4.000000
12.000000, 0.000000, 4188.717773, 4208.205078, 4203.589844, 4197.436035, 4202.051270, 4195.384277, 4206.666504, 4179.487305, 4199.487305, 4201.025391, 4197.436035, 4187.692383, 3808.717773, 4185.127930, 3327.000000, 8194.000000, 8181.000000, 0.000000, 0.000000, 0.000000, -21187.000000, 120.512817, 4.000000, 4.000000, 4.000000, 4.000000, 4.000000, 4.000000, 4.000000, 4.000000, 1.000000, 4.000000, 4.000000, 4.000000, 4.000000, 4.000000, 4.000000, 4.000000
13.000000, 0.000000, 4187.692383, 4206.666504, 4196.410156, 4195.384277, 4198.461426, 4196.410156, 4205.127930, 4177.436035, 4200.000000, 4198.461426, 4195.384277, 4181.025391, 3814.871582, 4182.563965, 3455.000000, 8192.000000, 8187.000000, 0.000000, 0.000000, 0.000000, -21187.000000, 128.717941, 4.000000, 4.000000, 4.000000, 4.000000, 4.000000, 4.000000, 4.000000, 4.000000, 1.000000, 4.000000, 4.000000, 4.000000, 4.000000, 4.000000, 4.000000, 4.000000
14.000000, 0.000000, 4186.153809, 4205.127930, 4193.333008, 4196.922852, 4188.205078, 4195.384277, 4204.615234, 4170.256348, 4200.512695, 4196.410156, 4188.717773, 4172.307617, 3813.333252, 4178.974121, 3443.000000, 8192.000000, 8187.000000, 0.000000, 0.000000, 0.000000, -21187.000000, 136.410248, 4.000000, 4.000000, 4.000000, 4.000000, 4.000000, 4.000000, 4.000000, 4.000000, 1.000000, 4.000000, 4.000000, 4.000000, 4.000000, 4.000000, 4.000000, 4.000000
15.000000, 0.000000, 4184.102539, 4206.666504, 4195.384277, 4199.487305, 4192.307617, 4196.410156, 4209.743652, 4186.153809, 4200.000000, 4196.922852, 4191.794922, 4175.897461, 3812.820313, 4177.948730, 3565.000000, 8192.000000, 8191.000000, 0.000000, 0.000000, 0.000000, -21187.000000, 144.102554, 4.000000, 4.000000, 4.000000, 4.000000, 4.000000, 4.000000, 4.000000, 4.000000, 1.000000, 4.000000, 4.000000, 4.000000, 4.000000, 4.000000, 4.000000, 4.000000
16.000000, 0.000000, 4184.102539, 4207.692383, 4193.846191, 4196.410156, 4205.127930, 4200.512695, 4218.461426, 4206.666504, 4199.487305, 4200.512695, 4202.051270, 4184.102539, 3820.000000, 4184.102539, 0.000000, 8192.000000, 8191.000000, 0.000000, 0.000000, 0.000000, -21187.000000, 151.794861, 4.000000, 4.000000, 4.000000, 4.000000, 4.000000, 4.000000, 4.000000, 4.000000, 1.000000, 4.000000, 4.000000, 4.000000, 4.000000, 4.000000, 4.000000, 4.000000
17.000000, 0.000000, 4181.538574, 4202.051270, 4184.615234, 4190.256348, 4205.641113, 4202.563965, 4218.461426, 4198.974121, 4198.974121, 4203.589844, 4202.051270, 4178.974121, 3824.615234, 4186.153809, 0.000000, 8192.000000, 8199.000000, 0.000000, 0.000000, 0.000000, -21187.000000, 160.000000, 4.000000, 4.000000, 4.000000, 4.000000, 4.000000, 4.000000, 4.000000, 4.000000, 1.000000, 4.000000, 4.000000, 4.000000, 4.000000, 4.000000, 4.000000, 4.000000
18.000000, 0.000000, 4179.487305, 4196.922852, 4180.512695, 4192.820313, 4202.051270, 4202.051270, 4214.871582, 4181.025391, 4198.974121, 4200.512695, 4197.948730, 4167.692383, 3827.692139, 4183.589844, 0.000000, 8192.000000, 8199.000000, 0.000000, 0.000000, 0.000000, -21187.000000, 167.692307, 4.000000, 4.000000, 4.000000, 4.000000, 4.000000, 4.000000, 4.000000, 4.000000, 1.000000, 4.000000, 4.000000, 4.000000, 4.000000, 4.000000, 4.000000, 4.000000
19.000000, 0.000000, 4182.051270, 4198.461426, 4187.692383, 4198.974121, 4205.127930, 4200.000000, 4216.922852, 4181.025391, 4198.974121, 4197.436035, 4200.000000, 4170.769043, 3837.435791, 4185.127930, 0.000000, 8193.000000, 8216.000000, 0.000000, 0.000000, 0.000000, -21187.000000, 175.384613, 4.000000, 4.000000, 4.000000, 4.000000, 4.000000, 4.000000, 4.000000, 4.000000, 1.000000, 4.000000, 4.000000, 4.000000, 4.000000, 4.000000, 4.000000, 4.000000
20.000000, 0.000000, 4183.076660, 4196.410156, 4189.743652, 4201.538574, 4211.281738, 4204.102539, 4220.512695, 4193.333008, 4198.461426, 4201.538574, 4201.538574, 4181.025391, 3846.153809, 4187.179199, 0.000000, 8193.000000, 8216.000000, 0.000000, 0.000000, 0.000000, -21187.000000, 183.076920, 4.000000, 4.000000, 4.000000, 4.000000, 4.000000, 4.000000, 4.000000, 4.000000, 1.000000, 4.000000, 4.000000, 4.000000, 4.000000, 4.000000, 4.000000, 4.000000
21.000000, 0.000000, 4182.563965, 4194.358887, 4187.692383, 4208.205078, 4216.922852, 4216.410156, 4221.025391, 4198.974121, 4199.487305, 4205.127930, 4201.025391, 4182.563965, 3854.871582, 4185.127930, 0.000000, 8190.000000, 8215.000000, 0.000000, 0.000000, 0.000000, -21187.000000, 191.282043, 4.000000, 4.000000, 4.000000, 4.000000, 4.000000, 4.000000, 4.000000, 4.000000, 1.000000, 4.000000, 4.000000, 4.000000, 4.000000, 4.000000, 4.000000, 4.000000
22.000000, 0.000000, 4185.641113, 4198.461426, 4188.717773, 4212.307617, 4216.922852, 4216.410156, 4211.794922, 4190.256348, 4200.000000, 4201.025391, 4205.641113, 4183.076660, 3864.615234, 4185.641113, 0.000000, 8190.000000, 8215.000000, 0.000000, 0.000000, 0.000000, -21187.000000, 198.974350, 4.000000, 4.000000, 4.000000, 4.000000, 4.000000, 4.000000, 4.000000, 4.000000, 1.000000, 4.000000, 4.000000, 4.000000, 4.000000, 4.000000, 4.000000, 4.000000
23.000000, 0.000000, 4183.076660, 4196.410156, 4185.127930, 4204.615234, 4212.820313, 4206.153809, 4201.538574, 4180.512695, 4197.948730, 4198.974121, 4205.641113, 4182.051270, 3864.615234, 4186.153809, 0.000000, 8189.000000, 8221.000000, 0.000000, 0.000000, 0.000000, -21187.000000, 206.666656, 4.000000, 4.000000, 4.000000, 4.000000, 4.000000, 4.000000, 4.000000, 4.000000, 1.000000, 4.000000, 4.000000, 4.000000, 4.000000, 4.000000, 4.000000, 4.000000
24.000000, 0.000000, 4172.820313, 4191.794922, 4181.538574, 4197.948730, 4208.205078, 4202.563965, 4203.076660, 4181.538574, 4198.461426, 4197.436035, 4197.436035, 4174.358887, 3854.358887, 4176.410156, 0.000000, 8189.000000, 8221.000000, 0.000000, 0.000000, 0.000000, -21187.000000, 214.358963, 4.000000, 4.000000, 4.000000, 4.000000, 4.000000, 4.000000, 4.000000, 4.000000, 1.000000, 4.000000, 4.000000, 4.000000, 4.000000, 4.000000, 4.000000, 4.000000
25.000000, 0.000000, 4172.307617, 4188.717773, 4182.563965, 4201.025391, 4199.487305, 4200.512695, 4201.538574, 4190.769043, 4200.000000, 4191.794922, 4192.820313, 4171.794922, 3847.179443, 4166.153809, 0.000000, 8185.000000, 8225.000000, 0.000000, 0.000000, 0.000000, -21187.000000, 222.564102, 4.000000, 4.000000, 4.000000, 4.000000, 4.000000, 4.000000, 4.000000, 4.000000, 1.000000, 4.000000, 4.000000, 4.000000, 4.000000, 4.000000, 4.000000, 4.000000
26.000000, 0.000000, 4182.563965, 4190.769043, 4190.256348, 4203.589844, 4198.461426, 4200.512695, 4196.922852, 4202.563965, 4200.000000, 4192.307617, 4199.487305, 4182.563965, 3857.948730, 4173.846191, 0.000000, 8185.000000, 8225.000000, 0.000000, 0.000000, 0.000000, -21187.000000, 230.256409, 4.000000, 4.000000, 4.000000, 4.000000, 4.000000, 4.000000, 4.000000, 4.000000, 1.000000, 4.000000, 4.000000, 4.000000, 4.000000, 4.000000, 4.000000, 4.000000
27.000000, 0.000000, 4191.281738, 4196.922852, 4200.000000, 4204.102539, 4206.153809, 4202.563965, 4198.974121, 4202.563965, 4195.384277, 4194.871582, 4208.205078, 4188.717773, 3867.692139, 4186.666504, 0.000000, 8193.000000, 8225.000000, 0.000000, 0.000000, 0.000000, -21187.000000, 237.948715, 4.000000, 4.000000, 4.000000, 4.000000, 4.000000, 4.000000, 4.000000, 4.000000, 1.000000, 4.000000, 4.000000, 4.000000, 4.000000, 4.000000, 4.000000, 4.000000
28.000000, 0.000000, 4184.102539, 4192.307617, 4200.512695, 4203.076660, 4205.127930, 4202.051270, 4203.076660, 4189.743652, 4187.179199, 4187.179199, 4198.974121, 4183.589844, 3850.769043, 4178.974121, 0.000000, 8193.000000, 8225.000000, 0.000000, 0.000000, 0.000000, -21187.000000, 245.641022, 4.000000, 4.000000, 4.000000, 4.000000, 4.000000, 4.000000, 4.000000, 4.000000, 1.000000, 4.000000, 4.000000, 4.000000, 4.000000, 4.000000, 4.000000, 4.000000
29.000000, 0.000000, 4172.307617, 4183.076660, 4192.307617, 4197.436035, 4198.461426, 4201.538574, 4200.512695, 4185.641113, 4189.743652, 4177.436035, 4184.102539, 4181.025391, 3833.333252, 4165.127930, 0.000000, 8189.000000, 8228.000000, 0.000000, 0.000000, 0.000000, -21187.000000, 253.846146, 4.000000, 4.000000, 4.000000, 4.000000, 4.000000, 4.000000, 4.000000, 4.000000, 1.000000, 4.000000, 4.000000, 4.000000, 4.000000, 4.000000, 4.000000, 4.000000
30.000000, 0.000000, 4177.436035, 4184.102539, 4189.743652, 4198.461426, 4200.000000, 4202.563965, 4191.281738, 4189.230469, 4201.025391, 4178.461426, 4188.205078, 4181.538574, 3853.333252, 4173.846191, 0.000000, 8189.000000, 8228.000000, 0.000000, 0.000000, 0.000000, -21187.000000, 261.538452, 4.000000, 4.000000, 4.000000, 4.000000, 4.000000, 4.000000, 4.000000, 4.000000, 1.000000, 4.000000, 4.000000, 4.000000, 4.000000, 4.000000, 4.000000, 4.000000
31.000000, 0.000000, 4192.820313, 4189.743652, 4197.436035, 4204.102539, 4202.563965, 4200.512695, 4184.102539, 4185.641113, 4197.436035, 4177.948730, 4199.487305, 4183.589844, 3878.974365, 4190.256348, 0.000000, 8190.000000, 8224.000000, 0.000000, 0.000000, 0.000000, -21187.000000, 269.230774, 4.000000, 4.000000, 4.000000, 4.000000, 4.000000, 4.000000, 4.000000, 4.000000, 1.000000, 4.000000, 4.000000, 4.000000, 4.000000, 4.000000, 4.000000, 4.000000
32.000000, 0.000000, 4196.922852, 4188.717773, 4202.563965, 4204.102539, 4198.461426, 4201.025391, 4190.769043, 4176.922852, 4191.794922, 4175.384277, 4200.512695, 4186.666504, 3879.487061, 4192.820313, 0.000000, 8190.000000, 8224.000000, 0.000000, 0.000000, 0.000000, -21187.000000, 276.923065, 4.000000, 4.000000, 4.000000, 4.000000, 4.000000, 4.000000, 4.000000, 4.000000, 1.000000, 4.000000, 4.000000, 4.000000, 4.000000, 4.000000, 4.000000, 4.000000
33.000000, 0.000000, 4189.743652, 4181.025391, 4196.410156, 4200.000000, 4197.436035, 4198.461426, 4187.692383, 4175.384277, 4194.871582, 4176.410156, 4198.461426, 4188.205078, 3884.615234, 4191.794922, 0.000000, 8202.000000, 8220.000000, 0.000000, 0.000000, 0.000000, -21187.000000, 285.128204, 4.000000, 4.000000, 4.000000, 4.000000, 4.000000, 4.000000, 4.000000, 4.000000, 1.000000, 4.000000, 4.000000, 4.000000, 4.000000, 4.000000, 4.000000, 4.000000
34.000000, 0.000000, 4188.717773, 4179.487305, 4190.256348, 4199.487305, 4195.897461, 4189.743652, 4170.769043, 4183.589844, 4193.333008, 4173.846191, 4203.589844, 4189.743652, 3900.512695, 4198.461426, 0.000000, 8202.000000, 8220.000000, 0.000000, 0.000000, 0.000000, -21187.000000, 292.820496, 4.000000, 4.000000, 4.000000, 4.000000, 4.000000, 4.000000, 4.000000, 4.000000, 1.000000, 4.000000, 4.000000, 4.000000, 4.000000, 4.000000, 4.000000, 4.000000
35.000000, 0.000000, 4190.256348, 4178.974121, 4190.769043, 4196.922852, 4192.307617, 4186.666504, 4173.846191, 4184.615234, 4192.307617, 4172.820313, 4207.179199, 4192.307617, 3901.538330, 4201.538574, 0.000000, 8211.000000, 8216.000000, 0.000000, 0.000000, 0.000000, -21187.000000, 301.025635, 4.000000, 4.000000, 4.000000, 4.000000, 4.000000, 4.000000, 4.000000, 4.000000, 1.000000, 4.000000, 4.000000, 4.000000, 4.000000, 4.000000, 4.000000, 4.000000
36.000000, 0.000000, 4184.615234, 4173.333008, 4189.230469, 4188.717773, 4186.666504, 4188.717773, 4184.102539, 4174.871582, 4194.871582, 4175.384277, 4203.589844, 4189.743652, 3896.410156, 4194.358887, 0.000000, 8211.000000, 8216.000000, 0.000000, 0.000000, 0.000000, -21187.000000, 308.717926, 4.000000, 4.000000, 4.000000, 4.000000, 4.000000, 4.000000, 4.000000, 4.000000, 1.000000, 4.000000, 4.000000, 4.000000, 4.000000, 4.000000, 4.000000, 4.000000
37.000000, 0.000000, 4175.897461, 4167.692383, 4183.076660, 4186.153809, 4177.436035, 4184.615234, 4178.974121, 4172.820313, 4193.333008, 4179.487305, 4199.487305, 4182.051270, 3902.051270, 4186.153809, 0.000000, 8223.000000, 8208.000000, 0.000000, 0.000000, 0.000000, -21187.000000, 316.410248, 4.000000, 4.000000, 4.000000, 4.000000, 4.000000, 4.000000, 4.000000, 4.000000, 1.000000, 4.000000, 4.000000, 4.000000, 4.000000, 4.000000, 4.000000, 4.000000
38.000000, 0.000000, 4170.769043, 4169.230469, 4177.436035, 4187.692383, 4184.102539, 4185.641113, 4179.487305, 4184.102539, 4193.846191, 4182.563965, 4200.000000, 4177.948730, 3912.307617, 4183.589844, 0.000000, 8223.000000, 8208.000000, 0.000000, 0.000000, 0.000000, -21187.000000, 324.615387, 4.000000, 4.000000, 4.000000, 4.000000, 4.000000, 4.000000, 4.000000, 4.000000, 1.000000, 4.000000, 4.000000, 4.000000, 4.000000, 4.000000, 4.000000, 4.000000
39.000000, 0.000000, 4175.384277, 4174.871582, 4180.512695, 4190.256348, 4203.076660, 4197.948730, 4188.717773, 4186.153809, 4201.025391, 4184.102539, 4205.127930, 4178.974121, 3921.025635, 4188.205078, 0.000000, 8228.000000, 8201.000000, 0.000000, 0.000000, 0.000000, -21187.000000, 332.307678, 4.000000, 4.000000, 4.000000, 4.000000, 4.000000, 4.000000, 4.000000, 4.000000, 1.000000, 4.000000, 4.000000, 4.000000, 4.000000, 4.000000, 4.000000, 4.000000
40.000000, 0.000000, 4173.846191, 4169.743652, 4183.589844, 4192.820313, 4204.615234, 4204.102539, 4189.743652, 4184.615234, 4201.025391, 4179.487305, 4201.538574, 4176.922852, 3919.487061, 4186.153809, 0.000000, 8228.000000, 8201.000000, 0.000000, 0.000000, 0.000000, -21187.000000, 340.000000, 4.000000, 4.000000, 4.000000, 4.000000, 4.000000, 4.000000, 4.000000, 4.000000, 1.000000, 4.000000, 4.000000, 4.000000, 4.000000, 4.000000, 4.000000, 4.000000
41.000000, 0.000000, 4158.974121, 4159.487305, 4175.384277, 4188.205078, 4188.717773, 4198.461426, 4182.051270, 4184.615234, 4192.307617, 4167.692383, 4188.717773, 4167.179199, 3907.692139, 4170.769043, 0.000000, 8228.000000, 8198.000000, 0.000000, 0.000000, 0.000000, -21187.000000, 347.692291, 4.000000, 4.000000, 4.000000, 4.000000, 4.000000, 4.000000, 4.000000, 4.000000, 1.000000, 4.000000, 4.000000, 4.000000, 4.000000, 4.000000, 4.000000, 4.000000
42.000000, 0.000000, 4152.820313, 4159.487305, 4173.846191, 4181.025391, 4185.641113, 4196.410156, 4180.000000, 4180.512695, 4192.307617, 4166.666504, 4186.666504, 4164.102539, 3910.769043, 4168.717773, 0.000000, 8228.000000, 8198.000000, 0.000000, 0.000000, 0.000000, -21187.000000, 355.384613, 4.000000, 4.000000, 4.000000, 4.000000, 4.000000, 4.000000, 4.000000, 4.000000, 1.000000, 4.000000, 4.000000, 4.000000, 4.000000, 4.000000, 4.000000, 4.000000
43.000000, 0.000000, 4167.179199, 4163.589844, 4182.051270, 4186.666504, 4193.846191, 4202.563965, 4184.615234, 4187.692383, 4198.461426, 4181.025391, 4200.512695, 4176.922852, 3931.281982, 4185.641113, 0.000000, 8224.000000, 8195.000000, 0.000000, 0.000000, 0.000000, -21187.000000, 363.589722, 4.000000, 4.000000, 4.000000, 4.000000, 4.000000, 4.000000, 4.000000, 4.000000, 1.000000, 4.000000, 4.000000, 4.000000, 4.000000, 4.000000, 4.000000, 4.000000
44.000000, 0.000000, 4174.871582, 4164.102539, 4182.563965, 4191.281738, 4194.358887, 4204.615234, 4190.769043, 4204.102539, 4198.974121, 4190.256348, 4208.205078, 4184.615234, 3943.589600, 4189.743652, 0.000000, 8224.000000, 8195.000000, 0.000000, 0.000000, 0.000000, -21187.000000, 371.282043, 4.000000, 4.000000, 4.000000, 4.000000, 4.000000, 4.000000, 4.000000, 4.000000, 1.000000, 4.000000, 4.000000, 4.000000, 4.000000, 4.000000, 4.000000, 4.000000
45.000000, 0.000000, 4166.153809, 4162.051270, 4177.948730, 4185.127930, 4194.358887, 4200.512695, 4188.205078, 4198.974121, 4192.307617, 4182.051270, 4204.102539, 4181.025391, 3939.487061, 4183.076660, 0.000000, 8219.000000, 8191.000000, 0.000000, 0.000000, 0.000000, -21187.000000, 378.974335, 4.000000, 4.000000, 4.000000, 4.000000, 4.000000, 4.000000, 4.000000, 4.000000, 1.000000, 4.000000, 4.000000, 4.000000, 4.000000, 4.000000, 4.000000, 4.000000
46.000000, 0.000000, 4164.102539, 4160.000000, 4179.487305, 4184.615234, 4190.769043, 4199.487305, 4181.538574, 4182.051270, 4194.871582, 4172.307617, 4200.512695, 4177.948730, 3941.025635, 4182.563965, 0.000000, 8219.000000, 8191.000000, 0.000000, 0.000000, 0.000000, -21187.000000, 386.666656, 4.000000, 4.000000, 4.000000, 4.000000, 4.000000, 4.000000, 4.000000, 4.000000, 1.000000, 4.000000, 4.000000, 4.000000, 4.000000, 4.000000, 4.000000, 4.000000
47.000000, 0.000000, 4167.692383, 4157.948730, 4181.025391, 4187.179199, 4183.589844, 4199.487305, 4182.563965, 4185.127930, 4201.538574, 4173.333008, 4200.512695, 4181.538574, 3950.769043, 4183.076660, 0.000000, 8199.000000, 8179.000000, 0.000000, 0.000000, 0.000000, -21187.000000, 394.871796, 4.000000, 4.000000, 4.000000, 4.000000, 4.000000, 4.000000, 4.000000, 4.000000, 1.000000, 4.000000, 4.000000, 4.000000, 4.000000, 4.000000, 4.000000, 4.000000
48.000000, 0.000000, 4166.153809, 4160.000000, 4177.948730, 4189.230469, 4188.205078, 4197.948730, 4187.692383, 4203.076660, 4200.000000, 4178.461426, 4207.179199, 4184.102539, 3956.923096, 4182.563965, 0.000000, 8199.000000, 8179.000000, 0.000000, 0.000000, 0.000000, -21187.000000, 403.076904, 4.000000, 4.000000, 4.000000, 4.000000, 4.000000, 4.000000, 4.000000, 4.000000, 1.000000, 4.000000, 4.000000, 4.000000, 4.000000, 4.000000, 4.000000, 4.000000
49.000000, 0.000000, 4169.230469, 4162.051270, 4184.102539, 4197.948730, 4201.025391, 4200.000000, 4189.230469, 4209.743652, 4198.461426, 4184.615234, 4213.333008, 4183.589844, 3958.461426, 4185.641113, 0.000000, 8186.000000, 8176.000000, 0.000000, 0.000000, 0.000000, -21187.000000, 410.769226, 4.000000, 4.000000, 4.000000, 4.000000, 4.000000, 4.000000, 4.000000, 4.000000, 1.000000, 4.000000, 4.000000, 4.000000, 4.000000, 4.000000, 4.000000, 4.000000
50.000000, 0.000000, 4173.846191, 4155.384277, 4188.717773, 4198.974121, 4201.538574, 4200.000000, 4183.589844, 4199.487305, 4198.974121, 4182.563965, 4206.153809, 4185.127930, 3959.487061, 4185.641113, 0.000000, 8186.000000, 8176.000000, 0.000000, 0.000000, 0.000000, -21187.000000, 418.461517, 4.000000, 4.000000, 4.000000, 4.000000, 4.000000, 4.000000, 4.000000, 4.000000, 1.000000, 4.000000, 4.000000, 4.000000, 4.000000, 4.000000, 4.000000, 4.000000
51.000000, 0.000000, 4172.307617, 4149.230469, 4182.563965, 4187.692383, 4192.820313, 4196.922852, 4180.000000, 4190.256348, 4195.897461, 4173.333008, 4198.461426, 4184.102539, 3958.461426, 4183.589844, 0.000000, 8177.000000, 8161.000000, 0.000000, 0.000000, 0.000000, -21187.000000, 426.666656, 4.000000, 4.000000, 4.000000, 4.000000, 4.000000, 4.000000, 4.000000, 4.000000, 1.000000, 4.000000, 4.000000, 4.000000, 4.000000, 4.000000, 4.000000, 4.000000
52.000000, 0.000000, 4170.256348, 4152.820313, 4180.512695, 4183.076660, 4188.717773, 4200.000000, 4184.102539, 4196.922852, 4196.410156, 4171.281738, 4201.538574, 4183.589844, 3958.974365, 4182.563965, 0.000000, 8177.000000, 8161.000000, 0.000000, 0.000000, 0.000000, -21187.000000, 434.358978, 4.000000, 4.000000, 4.000000, 4.000000, 4.000000, 4.000000, 4.000000, 4.000000, 1.000000, 4.000000, 4.000000, 4.000000, 4.000000, 4.000000, 4.000000, 4.000000
53.000000, 0.000000, 4172.307617, 4148.717773, 4182.051270, 4186.153809, 4188.717773, 4198.974121, 4188.717773, 4205.641113, 4198.461426, 4169.743652, 4200.000000, 4184.102539, 3961.538330, 4178.974121, 0.000000, 8149.000000, 8155.000000, 0.000000, 0.000000, 0.000000, -21187.000000, 442.051270, 4.000000, 4.000000, 4.000000, 4.000000, 4.000000, 4.000000, 4.000000, 4.000000, 1.000000, 4.000000, 4.000000, 4.000000, 4.000000, 4.000000, 4.000000, 4.000000
54.000000, 0.000000, 4171.281738, 4141.025391, 4185.127930, 4185.641113, 4185.641113, 4188.205078, 4183.076660, 4195.897461, 4194.871582, 4160.000000, 4190.769043, 4183.076660, 3960.000000, 4178.461426, 0.000000, 8149.000000, 8155.000000, 0.000000, 0.000000, 0.000000, -21187.000000, 450.256409, 4.000000, 4.000000, 4.000000, 4.000000, 4.000000, 4.000000, 4.000000, 4.000000, 1.000000, 4.000000, 4.000000, 4.000000, 4.000000, 4.000000, 4.000000, 4.000000
55.000000, 0.000000, 4168.717773, 4143.076660, 4189.743652, 4183.589844, 4170.769043, 4182.051270, 4173.333008, 4176.410156, 4194.358887, 4152.307617, 4185.641113, 4177.948730, 3955.897461, 4182.563965, 0.000000, 8136.000000, 8153.000000, 0.000000, 0.000000, 0.000000, -21187.000000, 457.948700, 4.000000, 4.000000, 4.000000, 4.000000, 4.000000, 4.000000, 4.000000, 4.000000, 1.000000, 4.000000, 4.000000, 4.000000, 4.000000, 4.000000, 4.000000, 4.000000
56.000000, 0.000000, 4175.897461, 4146.666504, 4189.743652, 4185.641113, 4172.820313, 4184.615234, 4176.410156, 4169.743652, 4196.410156, 4155.384277, 4185.127930, 4176.922852, 3962.563965, 4184.615234, 0.000000, 8136.000000, 8153.000000, 0.000000, 0.000000, 0.000000, -21187.000000, 465.641022, 4.000000, 4.000000, 4.000000, 4.000000, 4.000000, 4.000000, 4.000000, 4.000000, 1.000000, 4.000000, 4.000000, 4.000000, 4.000000, 4.000000, 4.000000, 4.000000
57.000000, 0.000000, 4182.051270, 4146.666504, 4186.153809, 4187.692383, 4196.410156, 4187.179199, 4184.615234, 4172.307617, 4191.794922, 4157.436035, 4186.666504, 4179.487305, 3971.281982, 4185.641113, 0.000000, 8111.000000, 8148.000000, 0.000000, 0.000000, 0.000000, -21187.000000, 473.846130, 4.000000, 4.000000, 4.000000, 4.000000, 4.000000, 4.000000, 4.000000, 4.000000, 1.000000, 4.000000, 4.000000, 4.000000, 4.000000, 4.000000, 4.000000, 4.000000
58.000000, 0.000000, 4174.871582, 4140.512695, 4176.922852, 4182.051270, 4197.948730, 4194.358887, 4183.589844, 4174.871582, 4191.794922, 4147.179199, 4181.025391, 4173.333008, 3963.589600, 4180.000000, 0.000000, 8111.000000, 8148.000000, 0.000000, 0.000000, 0.000000, -21187.000000, 481.538452, 4.000000, 4.000000, 4.000000, 4.000000, 4.000000, 4.000000, 4.000000, 4.000000, 1.000000, 4.000000, 4.000000, 4.000000, 4.000000, 4.000000, 4.000000, 4.000000
59.000000, 0.000000, 4162.563965, 4131.281738, 4165.641113, 4170.769043, 4182.563965, 4200.512695, 4183.076660, 4184.102539, 4199.487305, 4141.538574, 4174.358887, 4165.127930, 3952.307617, 4168.717773, 0.000000, 8101.000000, 8146.000000, 0.000000, 0.000000, 0.000000, -21187.000000, 489.743591, 4.000000, 4.000000, 4.000000, 4.000000, 4.000000, 4.000000, 4.000000, 4.000000, 1.000000, 4.000000, 4.000000, 4.000000, 4.000000, 4.000000, 4.000000, 4.000000
60.000000, 0.000000, 4161.538574, 4128.717773, 4167.692383, 4167.179199, 4183.076660, 4197.436035, 4189.743652, 4206.153809, 4201.025391, 4154.871582, 4183.589844, 4174.871582, 3964.615234, 4176.922852, 0.000000, 8101.000000, 8146.000000, 0.000000, 0.000000, 0.000000, -21187.000000, 497.435883, 4.000000, 4.000000, 4.000000, 4.000000, 4.000000, 4.000000, 4.000000, 4.000000, 1.000000, 4.000000, 4.000000, 4.000000, 4.000000, 4.000000, 4.000000, 4.000000
61.000000, 0.000000, 4172.307617, 4129.743652, 4178.974121, 4174.358887, 4188.205078, 4191.281738, 4189.230469, 4220.512695, 4196.410156, 4171.794922, 4202.051270, 4192.307617, 3990.256348, 4197.436035, 0.000000, 8094.000000, 8142.000000, 0.000000, 0.000000, 0.000000, -21187.000000, 505.128204, 4.000000, 4.000000, 4.000000, 4.000000, 4.000000, 4.000000, 4.000000, 4.000000, 1.000000, 4.000000, 4.000000, 4.000000, 4.000000, 4.000000, 4.000000, 4.000000
62.000000, 0.000000, 4187.179199, 4131.794922, 4191.281738, 4184.615234, 4182.563965, 4188.205078, 4184.102539, 4215.897461, 4198.461426, 4171.281738, 4210.769043, 4199.487305, 4005.128174, 4205.127930, 0.000000, 8094.000000, 8142.000000, 0.000000, 0.000000, 0.000000, -21187.000000, 512.820496, 4.000000, 4.000000, 4.000000, 4.000000, 4.000000, 4.000000, 4.000000, 4.000000, 1.000000, 4.000000, 4.000000, 4.000000, 4.000000, 4.000000, 4.000000, 4.000000
63.000000, 0.000000, 4202.563965, 4139.487305, 4203.589844, 4199.487305, 4185.127930, 4186.666504, 4184.615234, 4207.179199, 4198.461426, 4168.205078, 4215.897461, 4203.589844, 4015.897217, 4210.769043, 0.000000, 8102.000000, 8135.000000, 0.000000, 0.000000, 0.000000, -21187.000000, 521.025635, 4.000000, 4.000000, 4.000000, 4.000000, 4.000000, 4.000000, 4.000000, 4.000000, 1.000000, 4.000000, 4.000000, 4.000000, 4.000000, 4.000000, 4.000000, 4.000000
64.000000, 0.000000, 4206.666504, 4144.615234, 4206.666504, 4204.102539, 4193.846191, 4187.179199, 4185.641113, 4205.641113, 4199.487305, 4173.333008, 4224.102539, 4208.717773, 4027.179443, 4221.025391, 3126.000000, 8102.000000, 8135.000000, 0.000000, 0.000000, 0.000000, -21187.000000, 528.717957, 4.000000, 4.000000, 4.000000, 4.000000, 4.000000, 4.000000, 4.000000, 4.000000, 1.000000, 4.000000, 4.000000, 4.000000, 4.000000, 4.000000, 4.000000, 4.000000
65.000000, 0.000000, 4193.846191, 4138.974121, 4195.384277, 4191.281738, 4182.563965, 4188.205078, 4184.102539, 4204.615234, 4201.025391, 4170.256348, 4217.436035, 4200.512695, 4023.076904, 4214.871582, 3512.000000, 8110.000000, 8135.000000, 0.000000, 0.000000, 0.000000, -21187.000000, 536.410217, 4.000000, 4.000000, 4.000000, 4.000000, 4.000000, 4.000000, 4.000000, 4.000000, 1.000000, 4.000000, 4.000000, 4.000000, 4.000000, 4.000000, 4.000000, 4.000000
66.000000, 0.000000, 4178.974121, 4130.769043, 4178.461426, 4182.051270, 4165.127930, 4183.076660, 4177.436035, 4195.897461, 4197.948730, 4158.461426, 4203.589844, 4183.589844, 4016.410156, 4197.436035, 3557.000000, 8110.000000, 8135.000000, 0.000000, 0.000000, 0.000000, -21187.000000, 544.102539, 4.000000, 4.000000, 4.000000, 4.000000, 4.000000, 4.000000, 4.000000, 4.000000, 1.000000, 4.000000, 4.000000, 4.000000, 4.000000, 4.000000, 4.000000, 4.000000
67.000000, 0.000000, 4175.384277, 4130.256348, 4174.358887, 4184.102539, 4173.846191, 4174.871582, 4168.717773, 4189.230469, 4198.974121, 4154.358887, 4201.025391, 4176.410156, 4021.538330, 4192.307617, 2457.000000, 8122.000000, 8130.000000, 0.000000, 0.000000, 0.000000, -21187.000000, 552.307678, 4.000000, 4.000000, 4.000000, 4.000000, 4.000000, 4.000000, 4.000000, 4.000000, 1.000000, 4.000000, 4.000000, 4.000000, 4.000000, 4.000000, 4.000000, 4.000000
68.000000, 0.000000, 4171.281738, 4126.666504, 4175.897461, 4183.589844, 4186.153809, 4177.948730, 4169.743652, 4197.436035, 4198.974121, 4155.897461, 4198.461426, 4175.384277, 4021.538330, 4188.717773, 3534.000000, 8122.000000, 8130.000000, 0.000000, 0.000000, 0.000000, -21187.000000, 560.000000, 4.000000, 4.000000, 4.000000, 4.000000, 4.000000, 4.000000, 4.000000, 4.000000, 1.000000, 4.000000, 4.000000, 4.000000, 4.000000, 4.000000, 4.000000, 4.000000
69.000000, 0.000000, 4167.179199, 4122.563965, 4173.333008, 4178.974121, 4176.922852, 4185.641113, 4176.922852, 4198.461426, 4192.307617, 4148.205078, 4192.307617, 4170.769043, 4014.358887, 4182.051270, 3559.000000, 8137.000000, 8120.000000, 0.000000, 0.000000, 0.000000, -21187.000000, 567.692322, 4.000000, 4.000000, 4.000000, 4.000000, 4.000000, 4.000000, 4.000000, 4.000000, 1.000000, 4.000000, 4.000000, 4.000000, 4.000000, 4.000000, 4.000000, 4.000000
70.000000, 0.000000, 4179.487305, 4131.794922, 4175.897461, 4184.102539, 4175.897461, 4186.153809, 4178.974121, 4188.205078, 4193.333008, 4141.025391, 4195.897461, 4170.769043, 4023.076904, 4189.230469, 3379.000000, 8137.000000, 8120.000000, 0.000000, 0.000000, 0.000000, -21187.000000, 575.897400, 4.000000, 4.000000, 4.000000, 4.000000, 4.000000, 4.000000, 4.000000, 4.000000, 1.000000, 4.000000, 4.000000, 4.000000, 4.000000, 4.000000, 4.000000, 4.000000
71.000000, 0.000000, 4192.820313, 4144.102539, 4178.974121, 4192.820313, 4188.717773, 4185.127930, 4175.897461, 4191.281738, 4195.897461, 4143.076660, 4202.563965, 4173.333008, 4033.333252, 4197.948730, 3491.000000, 8156.000000, 8120.000000, 0.000000, 0.000000, 0.000000, -21187.000000, 583.589722, 4.000000, 4.000000, 4.000000, 4.000000, 4.000000, 4.000000, 4.000000, 4.000000, 1.000000, 4.000000, 4.000000, 4.000000, 4.000000, 4.000000, 4.000000, 4.000000
72.000000, 0.000000, 4192.820313, 4144.102539, 4174.358887, 4191.281738, 4188.717773, 4187.692383, 4174.871582, 4195.897461, 4191.281738, 4139.487305, 4192.820313, 4170.256348, 4026.666504, 4191.281738, 89.000000, 8156.000000, 8120.000000, 0.000000, 0.000000, 0.000000, -21187.000000, 591.282043, 4.000000, 4.000000, 4.000000, 4.000000, 4.000000, 4.000000, 4.000000, 4.000000, 1.000000, 4.000000, 4.000000, 4.000000, 4.000000, 4.000000, 4.000000, 4.000000
73.000000, 0.000000, 4190.769043, 4136.922852, 4165.127930, 4184.102539, 4176.922852, 4184.102539, 4173.333008, 4185.641113, 4192.307617, 4126.153809, 4183.589844, 4167.179199, 4023.076904, 4187.179199, 2585.000000, 8175.000000, 8110.000000, 0.000000, 0.000000, 0.000000, -21187.000000, 598.974365, 4.000000, 4.000000, 4.000000, 4.000000, 4.000000, 4.000000, 4.000000, 4.000000, 1.000000, 4.000000, 4.000000, 4.000000, 4.000000, 4.000000, 4.000000, 4.000000
74.000000, 0.000000, 4200.512695, 4146.153809, 4166.666504, 4188.205078, 4176.410156, 4180.000000, 4164.615234, 4176.922852, 4198.974121, 4121.025391, 4193.846191, 4168.205078, 4029.743408, 4198.974121, 3575.000000, 8175.000000, 8110.000000, 0.000000, 0.000000, 0.000000, -21187.000000, 607.179443, 4.000000, 4.000000, 4.000000, 4.000000, 4.000000, 4.000000, 4.000000, 4.000000, 1.000000, 4.000000, 4.000000, 4.000000, 4.000000, 4.000000, 4.000000, 4.000000
75.000000, 0.000000, 4218.974121, 4165.641113, 4181.025391, 4201.538574, 4187.692383, 4186.666504, 4168.205078, 4183.589844, 4202.563965, 4122.051270, 4200.512695, 4173.333008, 4022.051270, 4210.256348, 3565.000000, 8189.000000, 8103.000000, 0.000000, 0.000000, 0.000000, -21187.000000, 614.871765, 4.000000, 4.000000, 4.000000, 4.000000, 4.000000, 4.000000, 4.000000, 4.000000, 1.000000, 4.000000, 4.000000, 4.000000, 4.000000, 4.000000, 4.000000, 4.000000
76.000000, 0.000000, 4232.820313, 4170.769043, 4189.743652, 4204.615234, 4184.102539, 4187.692383, 4179.487305, 4190.256348, 4197.948730, 4113.333008, 4192.820313, 4174.871582, 3996.410156, 4211.281738, 3483.000000, 8189.000000, 8103.000000, 0.000000, 0.000000, 0.000000, -21187.000000, 622.564087, 4.000000, 4.000000, 4.000000, 4.000000, 4.000000, 4.000000, 4.000000, 4.000000, 1.000000, 4.000000, 4.000000, 4.000000, 4.000000, 4.000000, 4.000000, 4.000000
77.000000, 0.000000, 4233.333008, 4174.358887, 4192.307617, 4201.538574, 4172.307617, 4174.871582, 4170.256348, 4182.051270, 4188.717773, 4099.487305, 4186.666504, 4170.769043, 3977.948730, 4212.820313, 3455.000000, 8220.000000, 8113.000000, 0.000000, 0.000000, 0.000000, -21187.000000, 630.769226, 4.000000, 4.000000, 4.000000, 4.000000, 4.000000, 4.000000, 4.000000, 4.000000, 1.000000, 4.000000, 4.000000, 4.000000, 4.000000, 4.000000, 4.000000, 4.000000
78.000000, 0.000000, 4232.820313, 4188.717773, 4192.820313, 4201.538574, 4177.436035, 4172.820313, 4157.436035, 4170.256348, 4191.794922, 4087.692139, 4187.179199, 4171.794922, 3969.743408, 4213.846191, 3575.000000, 8220.000000, 8113.000000, 0.000000, 0.000000, 0.000000, -21187.000000, 638.461548, 4.000000, 4.000000, 4.000000, 4.000000, 4.000000, 4.000000, 4.000000, 4.000000, 1.000000, 4.000000, 4.000000, 4.000000, 4.000000, 4.000000, 4.000000, 4.000000
79.000000, 0.000000, 4242.563965, 4197.436035, 4192.820313, 4201.538574, 4187.179199, 4183.589844, 4163.589844, 4173.846191, 4197.948730, 4074.871582, 4191.281738, 4180.512695, 3969.230713, 4220.512695, 3565.000000, 8239.000000, 8107.000000, 0.000000, 0.000000, 0.000000, -21187.000000, 646.153809, 4.000000, 4.000000, 4.000000, 4.000000, 4.000000, 4.000000, 4.000000, 4.000000, 1.000000, 4.000000, 4.000000, 4.000000, 4.000000, 4.000000, 4.000000, 4.000000
80.000000, 0.000000, 4250.256348, 4196.922852, 4195.897461, 4202.563965, 4182.051270, 4185.641113, 4174.871582, 4184.102539, 4190.256348, 4063.076904, 4199.487305, 4193.333008, 3977.948730, 4231.794922, 3483.000000, 8239.000000, 8107.000000, 0.000000, 0.000000, 0.000000, -21187.000000, 653.846130, 4.000000, 4.000000, 4.000000, 4.000000, 4.000000, 4.000000, 4.000000, 4.000000, 1.000000, 4.000000, 4.000000, 4.000000, 4.000000, 4.000000, 4.000000, 4.000000
81.000000, 0.000000, 4248.205078, 4198.461426, 4203.589844, 4206.666504, 4177.948730, 4181.025391, 4171.794922, 4183.589844, 4187.692383, 4061.025635, 4210.769043, 4202.051270, 3990.256348, 4236.922852, 3455.000000, 8279.000000, 8103.000000, 0.000000, 0.000000, 0.000000, -21187.000000, 662.051270, 4.000000, 4.000000, 4.000000, 4.000000, 4.000000, 4.000000, 4.000000, 4.000000, 1.000000, 4.000000, 4.000000, 4.000000, 4.000000, 4.000000, 4.000000, 4.000000
82.000000, 0.000000, 4246.153809, 4201.538574, 4208.205078, 4208.205078, 4175.384277, 4183.589844, 4167.692383, 4188.205078, 4194.358887, 4056.923096, 4213.333008, 4202.563965, 3998.461426, 4237.436035, 3575.000000, 8279.000000, 8103.000000, 0.000000, 0.000000, 0.000000, -21187.000000, 669.743591, 4.000000, 4.000000, 4.000000, 4.000000, 4.000000, 4.000000, 4.000000, 4.000000, 1.000000, 4.000000, 4.000000, 4.000000, 4.000000, 4.000000, 4.000000, 4.000000
83.000000, 0.000000, 4244.102539, 4199.487305, 4202.563965, 4203.076660, 4169.230469, 4185.641113, 4168.717773, 4193.333008, 4194.871582, 4037.435791, 4204.102539, 4197.436035, 4001.538330, 4233.846191, 3565.000000, 8295.000000, 8107.000000, 0.000000, 0.000000, 0.000000, -21187.000000, 677.948730, 4.000000, 4.000000, 4.000000, 4.000000, 4.000000, 4.000000, 4.000000, 4.000000, 1.000000, 4.000000, 4.000000, 4.000000, 4.000000, 4.000000, 4.000000, 4.000000
84.000000, 0.000000, 4240.000000, 4193.846191, 4197.436035, 4201.025391, 4175.897461, 4184.102539, 4170.769043, 4196.410156, 4197.436035, 4023.076904, 4198.461426, 4193.333008, 4007.179443, 4231.794922, 3483.000000, 8295.000000, 8107.000000, 0.000000, 0.000000, 0.000000, -21187.000000, 685.640991, 4.000000, 4.000000, 4.000000, 4.000000, 4.000000, 4.000000, 4.000000, 4.000000, 1.000000, 4.000000, 4.000000, 4.000000, 4.000000, 4.000000, 4.000000, 4.000000
85.000000, 0.000000, 4231.794922, 4190.256348, 4201.025391, 4203.076660, 4185.641113, 4185.641113, 4178.461426, 4197.948730, 4197.948730, 4018.461426, 4201.538574, 4194.871582, 4006.153809, 4228.205078, 3455.000000, 8308.000000, 8105.000000, 0.000000, 0.000000, 0.000000, -21187.000000, 693.333313, 4.000000, 4.000000, 4.000000, 4.000000, 4.000000, 4.000000, 4.000000, 4.000000, 1.000000, 4.000000, 4.000000, 4.000000, 4.000000, 4.000000, 4.000000, 4.000000
86.000000, 0.000000, 4220.000000, 4184.102539, 4198.974121, 4196.922852, 4183.589844, 4185.641113, 4183.076660, 4188.717773, 4191.281738, 4003.076904, 4201.538574, 4197.948730, 4002.051270, 4219.487305, 3575.000000, 8308.000000, 8105.000000, 0.000000, 0.000000, 0.000000, -21187.000000, 701.538452, 4.000000, 4.000000, 4.000000, 4.000000, 4.000000, 4.000000, 4.000000, 4.000000, 1.000000, 4.000000, 4.000000, 4.000000, 4.000000, 4.000000, 4.000000, 4.000000
87.000000, 0.000000, 4216.410156, 4178.974121, 4195.384277, 4192.307617, 4180.512695, 4185.641113, 4181.025391, 4188.205078, 4192.307617, 3988.717773, 4205.127930, 4197.436035, 4014.358887, 4217.436035, 3565.000000, 8310.000000, 8099.000000, 0.000000, 0.000000, 0.000000, -21187.000000, 709.230774, 4.000000, 4.000000, 4.000000, 4.000000, 4.000000, 4.000000, 4.000000, 4.000000, 1.000000, 4.000000, 4.000000, 4.000000, 4.000000, 4.000000, 4.000000, 4.000000
88.000000, 0.000000, 4213.846191, 4178.461426, 4196.922852, 4192.820313, 4184.102539, 4192.820313, 4182.563965, 4200.000000, 4198.974121, 3984.102539, 4211.281738, 4190.769043, 4027.692139, 4218.461426, 3483.000000, 8310.000000, 8099.000000, 0.000000, 0.000000, 0.000000, -21187.000000, 716.923035, 4.000000, 4.000000, 4.000000, 4.000000, 4.000000, 4.000000, 4.000000, 4.000000, 1.000000, 4.000000, 4.000000, 4.000000, 4.000000, 4.000000, 4.000000, 4.000000
89.000000, 0.000000, 4201.025391, 4176.410156, 4191.794922, 4188.205078, 4187.179199, 4202.051270, 4195.384277, 4201.025391, 4195.897461, 3976.923096, 4203.076660, 4179.487305, 4023.589600, 4206.666504, 3455.000000, 8302.000000, 8105.000000, 0.000000, 0.000000, 0.000000, -21187.000000, 725.128174, 4.000000, 4.000000, 4.000000, 4.000000, 4.000000, 4.000000, 4.000000, 4.000000, 1.000000, 4.000000, 4.000000, 4.000000, 4.000000, 4.000000, 4.000000, 4.000000
90.000000, 0.000000, 4196.922852, 4176.410156, 4188.205078, 4191.281738, 4184.102539, 4203.076660, 4202.563965, 4204.102539, 4194.358887, 3969.230713, 4200.000000, 4175.897461, 4025.128174, 4196.922852, 3575.000000, 8302.000000, 8105.000000, 0.000000, 0.000000, 0.000000, -21187.000000, 732.820496, 4.000000, 4.000000, 4.000000, 4.000000, 4.000000, 4.000000, 4.000000, 4.000000, 1.000000, 4.000000, 4.000000, 4.000000, 4.000000, 4.000000, 4.000000, 4.000000
91.000000, 0.000000, 4196.922852, 4175.384277, 4191.794922, 4200.000000, 4182.563965, 4202.051270, 4200.000000, 4222.051270, 4192.307617, 3965.128174, 4209.230469, 4182.051270, 4036.923096, 4197.436035, 3565.000000, 8268.000000, 8115.000000, 0.000000, 0.000000, 0.000000, -21187.000000, 741.025635, 4.000000, 4.000000, 4.000000, 4.000000, 4.000000, 4.000000, 4.000000, 4.000000, 1.000000, 4.000000, 4.000000, 4.000000, 4.000000, 4.000000, 4.000000, 4.000000
92.000000, 0.000000, 4185.127930, 4166.666504, 4187.692383, 4189.743652, 4183.589844, 4203.589844, 4202.051270, 4224.102539, 4189.230469, 3958.461426, 4211.794922, 4182.563965, 4036.410156, 4193.846191, 3483.000000, 8268.000000, 8115.000000, 0.000000, 0.000000, 0.000000, -21187.000000, 748.717957, 4.000000, 4.000000, 4.000000, 4.000000, 4.000000, 4.000000, 4.000000, 4.000000, 1.000000, 4.000000, 4.000000, 4.000000, 4.000000, 4.000000, 4.000000, 4.000000
93.000000, 0.000000, 4178.974121, 4162.051270, 4185.127930, 4177.948730, 4191.281738, 4204.102539, 4201.025391, 4213.846191, 4195.897461, 3952.307617, 4212.307617, 4183.589844, 4037.435791, 4191.794922, 3455.000000, 8238.000000, 8117.000000, 0.000000, 0.000000, 0.000000, -21187.000000, 756.410217, 4.000000, 4.000000, 4.000000, 4.000000, 4.000000, 4.000000, 4.000000, 4.000000, 1.000000, 4.000000, 4.000000, 4.000000, 4.000000, 4.000000, 4.000000, 4.000000
94.000000, 0.000000, 4187.179199, 4164.615234, 4191.281738, 4186.666504, 4199.487305, 4202.563965, 4193.846191, 4216.922852, 4194.871582, 3950.256348, 4222.563965, 4192.307617, 4050.256348, 4198.461426, 3575.000000, 8238.000000, 8117.000000, 0.000000, 0.000000, 0.000000, -21187.000000, 764.615356, 4.000000, 4.000000, 4.000000, 4.000000, 4.000000, 4.000000, 4.000000, 4.000000, 1.000000, 4.000000, 4.000000, 4.000000, 4.000000, 4.000000, 4.000000, 4.000000
95.000000, 0.000000, 4187.692383, 4166.153809, 4194.358887, 4190.769043, 4196.922852, 4202.563965, 4195.384277, 4215.897461, 4188.717773, 3941.025635, 4224.615234, 4194.871582, 4053.333252, 4196.922852, 3565.000000, 8173.000000, 8127.000000, 0.000000, 0.000000, 0.000000, -21187.000000, 772.307678, 4.000000, 4.000000, 4.000000, 4.000000, 4.000000, 4.000000, 4.000000, 4.000000, 1.000000, 4.000000, 4.000000, 4.000000, 4.000000, 4.000000, 4.000000, 4.000000
96.000000, 0.000000, 4184.102539, 4165.127930, 4193.846191, 4187.179199, 4191.794922, 4203.589844, 4202.051270, 4204.615234, 4192.307617, 3928.205078, 4214.358887, 4190.256348, 4049.230713, 4189.230469, 3483.000000, 8173.000000, 8127.000000, 0.000000, 0.000000, 0.000000, -21187.000000, 780.000000, 4.000000, 4.000000, 4.000000, 4.000000, 4.000000, 4.000000, 4.000000, 4.000000, 1.000000, 4.000000, 4.000000, 4.000000, 4.000000, 4.000000, 4.000000, 4.000000
97.000000, 0.000000, 4188.205078, 4164.615234, 4198.461426, 4192.307617, 4183.076660, 4201.538574, 4198.461426, 4200.000000, 4194.871582, 3924.615234, 4208.717773, 4195.384277, 4049.230713, 4188.717773, 3455.000000, 8144.000000, 8127.000000, 0.000000, 0.000000, 0.000000, -21187.000000, 787.692261, 4.000000, 4.000000, 4.000000, 4.000000, 4.000000, 4.000000, 4.000000, 4.000000, 1.000000, 4.000000, 4.000000, 4.000000, 4.000000, 4.000000, 4.000000, 4.000000
98.000000, 0.000000, 4190.769043, 4164.615234, 4202.051270, 4193.333008, 4177.436035, 4197.948730, 4195.897461, 4205.127930, 4190.256348, 3922.563965, 4210.256348, 4204.615234, 4051.794678, 4192.307617, 3575.000000, 8144.000000, 8127.000000, 0.000000, 0.000000, 0.000000, -21187.000000, 795.384583, 4.000000, 4.000000, 4.000000, 4.000000, 4.000000, 4.000000, 4.000000, 4.000000, 1.000000, 4.000000, 4.000000, 4.000000, 4.000000, 4.000000, 4.000000, 4.000000
99.000000, 0.000000, 4189.230469, 4162.563965, 4196.410156, 4188.205078, 4185.641113, 4198.974121, 4201.538574, 4207.179199, 4193.333008, 3915.897461, 4214.358887, 4204.102539, 4058.974365, 4199.487305, 3565.000000, 8113.000000, 8125.000000, 0.000000, 0.000000, 0.000000, -21187.000000, 803.589722, 4.000000, 4.000000, 4.000000, 4.000000, 4.000000, 4.000000, 4.000000, 4.000000, 1.000000, 4.000000, 4.000000, 4.000000, 4.000000, 4.000000, 4.000000, 4.000000
100.000000, 0.000000, 4185.641113, 4158.974121, 4191.794922, 4185.641113, 4194.871582, 4203.076660, 4202.563965, 4209.230469, 4203.589844, 3910.256348, 4215.897461, 4200.512695, 4064.615234, 4198.461426, 3483.000000, 8113.000000, 8125.000000, 0.000000, 0.000000, 0.000000, -21187.000000, 811.282043, 4.000000, 4.000000, 4.000000, 4.000000, 4.000000, 4.000000, 4.000000, 4.000000, 1.000000, 4.000000, 4.000000, 4.000000, 4.000000, 4.000000, 4.000000, 4.000000
101.000000, 0.000000, 4180.000000, 4152.307617, 4190.256348, 4184.615234, 4189.230469, 4199.487305, 4202.051270, 4213.846191, 4196.922852, 3913.333252, 4210.256348, 4199.487305, 4065.640869, 4189.743652, 3455.000000, 8068.000000, 8116.000000, 0.000000, 0.000000, 0.000000, -21187.000000, 819.487183, 4.000000, 4.000000, 4.000000, 4.000000, 4.000000, 4.000000, 4.000000, 4.000000, 1.000000, 4.000000, 4.000000, 4.000000, 4.000000, 4.000000, 4.000000, 4.000000
102.000000, 0.000000, 4175.384277, 4147.692383, 4190.769043, 4183.589844, 4182.051270, 4188.717773, 4203.076660, 4212.820313, 4185.641113, 3909.743408, 4203.076660, 4195.897461, 4071.794678, 4185.641113, 3575.000000, 8068.000000, 8116.000000, 0.000000, 0.000000, 0.000000, -21187.000000, 827.179443, 4.000000, 4.000000, 4.000000, 4.000000, 4.000000, 4.000000, 4.000000, 4.000000, 1.000000, 4.000000, 4.000000, 4.000000, 4.000000, 4.000000, 4.000000, 4.000000
103.000000, 0.000000, 4172.307617, 4145.641113, 4188.205078, 4184.102539, 4185.641113, 4189.743652, 4202.051270, 4210.256348, 4188.205078, 3897.948730, 4196.410156, 4188.205078, 4075.897217, 4186.153809, 3565.000000, 8060.000000, 8114.000000, 0.000000, 0.000000, 0.000000, -21187.000000, 834.871765, 4.000000, 4.000000, 4.000000, 4.000000, 4.000000, 4.000000, 4.000000, 4.000000, 1.000000, 4.000000, 4.000000, 4.000000, 4.000000, 4.000000, 4.000000, 4.000000
104.000000, 0.000000, 4169.230469, 4143.589844, 4183.589844, 4181.025391, 4187.179199, 4200.512695, 4199.487305, 4208.717773, 4189.743652, 3894.358887, 4190.256348, 4183.589844, 4070.769043, 4178.974121, 3483.000000, 8060.000000, 8114.000000, 0.000000, 0.000000, 0.000000, -21187.000000, 842.564087, 4.000000, 4.000000, 4.000000, 4.000000, 4.000000, 4.000000, 4.000000, 4.000000, 1.000000, 4.000000, 4.000000, 4.000000, 4.000000, 4.000000, 4.000000, 4.000000
105.000000, 0.000000, 4167.692383, 4143.589844, 4184.615234, 4173.333008, 4181.025391, 4201.538574, 4196.922852, 4202.051270, 4186.666504, 3895.384521, 4186.666504, 4183.076660, 4069.230713, 4168.717773, 3455.000000, 8060.000000, 8104.000000, 0.000000, 0.000000, 0.000000, -21187.000000, 850.769226, 4.000000, 4.000000, 4.000000, 4.000000, 4.000000, 4.000000, 4.000000, 4.000000, 1.000000, 4.000000, 4.000000, 4.000000, 4.000000, 4.000000, 4.000000, 4.000000
106.000000, 0.000000, 4169.230469, 4143.589844, 4182.563965, 4172.307617, 4180.512695, 4195.897461, 4197.436035, 4202.051270, 4190.769043, 3894.871582, 4188.205078, 4184.615234, 4075.384521, 4171.794922, 3575.000000, 8060.000000, 8104.000000, 0.000000, 0.000000, 0.000000, -21187.000000, 858.461548, 4.000000, 4.000000, 4.000000, 4.000000, 4.000000, 4.000000, 4.000000, 4.000000, 1.000000, 4.000000, 4.000000, 4.000000, 4.000000, 4.000000, 4.000000, 4.000000
107.000000, 0.000000, 4171.794922, 4149.743652, 4183.076660, 4181.025391, 4188.717773, 4198.974121, 4198.974121, 4216.922852, 4196.922852, 3895.384521, 4196.410156, 4191.281738, 4082.051270, 4186.666504, 3565.000000, 8060.000000, 8104.000000, 0.000000, 0.000000, 0.000000, -21187.000000, 866.666626, 4.000000, 4.000000, 4.000000, 4.000000, 4.000000, 4.000000, 4.000000, 4.000000, 1.000000, 4.000000, 4.000000, 4.000000, 4.000000, 4.000000, 4.000000, 4.000000
108.000000, 0.000000, 4173.846191, 4157.948730, 4195.384277, 4185.641113, 4189.743652, 4197.948730, 4194.871582, 4218.974121, 4190.256348, 3897.435791, 4200.000000, 4192.820313, 4081.538330, 4188.717773, 3483.000000, 8060.000000, 8104.000000, 0.000000, 0.000000, 0.000000, -21187.000000, 874.358948, 4.000000, 4.000000, 4.000000, 4.000000, 4.000000, 4.000000, 4.000000, 4.000000, 1.000000, 4.000000, 4.000000, 4.000000, 4.000000, 4.000000, 4.000000, 4.000000
109.000000, 0.000000, 4173.846191, 4152.307617, 4195.897461, 4181.025391, 4183.589844, 4189.743652, 4187.692383, 4200.512695, 4183.076660, 3895.897461, 4192.820313, 4185.641113, 4077.435791, 4175.384277, 3455.000000, 8080.000000, 8076.000000, 0.000000, 0.000000, 0.000000, -21187.000000, 882.051270, 4.000000, 4.000000, 4.000000, 4.000000, 4.000000, 4.000000, 4.000000, 4.000000, 1.000000, 4.000000, 4.000000, 4.000000, 4.000000, 4.000000, 4.000000, 4.000000
110.000000, 0.000000, 4163.589844, 4144.102539, 4185.127930, 4177.436035, 4186.153809, 4191.794922, 4183.589844, 4185.127930, 4187.179199, 3893.333252, 4184.615234, 4184.102539, 4068.205078, 4166.666504, 3575.000000, 8080.000000, 8076.000000, 0.000000, 0.000000, 0.000000, -21187.000000, 889.743591, 4.000000, 4.000000, 4.000000, 4.000000, 4.000000, 4.000000, 4.000000, 4.000000, 1.000000, 4.000000, 4.000000, 4.000000, 4.000000, 4.000000, 4.000000, 4.000000
111.000000, 0.000000, 4152.820313, 4144.615234, 4180.512695, 4176.410156, 4194.871582, 4197.948730, 4185.641113, 4185.641113, 4189.743652, 3893.845947, 4182.563965, 4185.641113, 4065.640869, 4164.615234, 3565.000000, 8094.000000, 8060.000000, 0.000000, 0.000000, 0.000000, -21187.000000, 897.948669, 4.000000, 4.000000, 4.000000, 4.000000, 4.000000, 4.000000, 4.000000, 4.000000, 1.000000, 4.000000, 4.000000, 4.000000, 4.000000, 4.000000, 4.000000, 4.000000
112.000000, 0.000000, 4151.794922, 4150.256348, 4173.846191, 4174.358887, 4200.000000, 4202.051270, 4196.410156, 4191.794922, 4187.692383, 3893.333252, 4179.487305, 4177.436035, 4070.769043, 4161.538574, 3483.000000, 8094.000000, 8060.000000, 0.000000, 0.000000, 0.000000, -21187.000000, 905.640991, 4.000000, 4.000000, 4.000000, 4.000000, 4.000000, 4.000000, 4.000000, 4.000000, 1.000000, 4.000000, 4.000000, 4.000000, 4.000000, 4.000000, 4.000000, 4.000000
113.000000, 0.000000, 4145.127930, 4144.615234, 4163.589844, 4166.666504, 4198.461426, 4204.615234, 4204.615234, 4194.871582, 4188.205078, 3891.794678, 4168.205078, 4169.230469, 4057.948730, 4151.281738, 3455.000000, 8102.000000, 8051.000000, 0.000000, 0.000000, 0.000000, -21187.000000, 913.846130, 4.000000, 4.000000, 4.000000, 4.000000, 4.000000, 4.000000, 4.000000, 4.000000, 1.000000, 4.000000, 4.000000, 4.000000, 4.000000, 4.000000, 4.000000, 4.000000
114.000000, 0.000000, 4131.794922, 4131.794922, 4160.512695, 4160.000000, 4188.205078, 4202.563965, 4199.487305, 4201.538574, 4188.717773, 3895.897461, 4168.205078, 4172.307617, 4048.717773, 4142.051270, 3575.000000, 8102.000000, 8051.000000, 0.000000, 0.000000, 0.000000, -21187.000000, 921.538452, 4.000000, 4.000000, 4.000000, 4.000000, 4.000000, 4.000000, 4.000000, 4.000000, 1.000000, 4.000000, 4.000000, 4.000000, 4.000000, 4.000000, 4.000000, 4.000000
115.000000, 0.000000, 4138.974121, 4137.436035, 4173.333008, 4164.102539, 4183.589844, 4205.641113, 4205.641113, 4211.281738, 4187.692383, 3907.179443, 4187.179199, 4180.000000, 4079.487061, 4156.410156, 3565.000000, 8120.000000, 8027.000000, 0.000000, 0.000000, 0.000000, -21187.000000, 929.743591, 4.000000, 4.000000, 4.000000, 4.000000, 4.000000, 4.000000, 4.000000, 4.000000, 1.000000, 4.000000, 4.000000, 4.000000, 4.000000, 4.000000, 4.000000, 4.000000
116.000000, 0.000000, 4163.589844, 4153.333008, 4193.846191, 4171.794922, 4188.717773, 4217.436035, 4223.076660, 4221.538574, 4192.820313, 3921.025635, 4208.717773, 4193.846191, 4121.538574, 4183.076660, 3483.000000, 8120.000000, 8027.000000, 0.000000, 0.000000, 0.000000, -21187.000000, 937.435852, 4.000000, 4.000000, 4.000000, 4.000000, 4.000000, 4.000000, 4.000000, 4.000000, 1.000000, 4.000000, 4.000000, 4.000000, 4.000000, 4.000000, 4.000000, 4.000000
117.000000, 0.000000, 4172.820313, 4151.281738, 4196.922852, 4172.307617, 4182.051270, 4214.871582, 4215.897461, 4220.000000, 4197.436035, 3927.692139, 4213.333008, 4200.000000, 4129.743652, 4190.256348, 3455.000000, 8125.000000, 8017.000000, 0.000000, 0.000000, 0.000000, -21187.000000, 945.128174, 4.000000, 4.000000, 4.000000, 4.000000, 4.000000, 4.000000, 4.000000, 4.000000, 1.000000, 4.000000, 4.000000, 4.000000, 4.000000, 4.000000, 4.000000, 4.000000
118.000000, 0.000000, 4165.127930, 4141.025391, 4185.641113, 4168.717773, 4171.794922, 4198.461426, 4201.025391, 4206.666504, 4192.307617, 3923.076904, 4210.769043, 4192.307617, 4128.717773, 4182.051270, 3575.000000, 8125.000000, 8017.000000, 0.000000, 0.000000, 0.000000, -21187.000000, 953.333313, 4.000000, 4.000000, 4.000000, 4.000000, 4.000000, 4.000000, 4.000000, 4.000000, 1.000000, 4.000000, 4.000000, 4.000000, 4.000000, 4.000000, 4.000000, 4.000000
119.000000, 0.000000, 4158.974121, 4140.000000, 4175.384277, 4165.641113, 4183.076660, 4187.179199, 4202.563965, 4200.512695, 4187.179199, 3918.974365, 4214.358887, 4188.717773, 4145.127930, 4184.615234, 3565.000000, 8132.000000, 8019.000000, 0.000000, 0.000000, 0.000000, -21187.000000, 961.025635, 4.000000, 4.000000, 4.000000, 4.000000, 4.000000, 4.000000, 4.000000, 4.000000, 1.000000, 4.000000, 4.000000, 4.000000, 4.000000, 4.000000, 4.000000, 4.000000
120.000000, 0.000000, 4156.922852, 4137.436035, 4167.692383, 4157.948730, 4193.333008, 4176.922852, 4197.436035, 4201.538574, 4190.256348, 3923.589600, 4218.974121, 4191.281738, 4156.922852, 4189.743652, 3483.000000, 8132.000000, 8019.000000, 0.000000, 0.000000, 0.000000, -21187.000000, 968.717896, 4.000000, 4.000000, 4.000000, 4.000000, 4.000000, 4.000000, 4.000000, 4.000000, 1.000000, 4.000000, 4.000000, 4.000000, 4.000000, 4.000000, 4.000000, 4.000000
121.000000, 0.000000, 4155.897461, 4133.333008, 4155.897461, 4149.743652, 4184.615234, 4168.205078, 4190.256348, 4200.512695, 4189.743652, 3927.692139, 4220.000000, 4186.666504, 4162.563965, 4189.743652, 3455.000000, 8139.000000, 8023.000000, 0.000000, 0.000000, 0.000000, -21187.000000, 976.923035, 4.000000, 4.000000, 4.000000, 4.000000, 4.000000, 4.000000, 4.000000, 4.000000, 1.000000, 4.000000, 4.000000, 4.000000, 4.000000, 4.000000, 4.000000, 4.000000
122.000000, 0.000000, 4153.333008, 4129.743652, 4147.179199, 4149.743652, 4179.487305, 4169.230469, 4198.461426, 4206.666504, 4185.641113, 3924.615234, 4215.384277, 4180.000000, 4164.102539, 4187.179199, 3575.000000, 8139.000000, 8023.000000, 0.000000, 0.000000, 0.000000, -21187.000000, 984.615356, 4.000000, 4.000000, 4.000000, 4.000000, 4.000000, 4.000000, 4.000000, 4.000000, 1.000000, 4.000000, 4.000000, 4.000000, 4.000000, 4.000000, 4.000000, 4.000000
123.000000, 0.000000, 4151.281738, 4128.205078, 4154.358887, 4153.846191, 4186.666504, 4176.410156, 4207.692383, 4216.410156, 4188.205078, 3928.717773, 4216.410156, 4189.743652, 4162.563965, 4189.743652, 3565.000000, 8146.000000, 8024.000000, 0.000000, 0.000000, 0.000000, -21187.000000, 992.307678, 4.000000, 4.000000, 4.000000, 4.000000, 4.000000, 4.000000, 4.000000, 4.000000, 1.000000, 4.000000, 4.000000, 4.000000, 4.000000, 4.000000, 4.000000, 4.000000
124.000000, 0.000000, 4159.487305, 4129.743652, 4172.820313, 4156.410156, 4189.743652, 4182.051270, 4208.205078, 4216.410156, 4189.743652, 3941.025635, 4228.717773, 4203.076660, 4169.230469, 4199.487305, 3483.000000, 8146.000000, 8024.000000, 0.000000, 0.000000, 0.000000, -21186.000000, 0.512820, 4.000000, 4.000000, 4.000000, 4.000000, 4.000000, 4.000000, 4.000000, 4.000000, 1.000000, 4.000000, 4.000000, 4.000000, 4.000000, 4.000000, 4.000000, 4.000000
125.000000, 0.000000, 4169.743652, 4129.743652, 4186.153809, 4158.461426, 4185.127930, 4184.615234, 4209.230469, 4220.512695, 4188.205078, 3945.128174, 4234.871582, 4205.641113, 4176.922852, 4204.102539, 3455.000000, 8156.000000, 8040.000000, 0.000000, 0.000000, 0.000000, -21186.000000, 8.205128, 4.000000, 4.000000, 4.000000, 4.000000, 4.000000, 4.000000, 4.000000, 4.000000, 1.000000, 4.000000, 4.000000, 4.000000, 4.000000, 4.000000, 4.000000, 4.000000
126.000000, 0.000000, 4171.281738, 4130.769043, 4186.666504, 4164.102539, 4181.025391, 4183.076660, 4209.230469, 4232.820313, 4186.666504, 3942.051270, 4230.256348, 4203.076660, 4174.871582, 4203.589844, 3575.000000, 8156.000000, 8040.000000, 0.000000, 0.000000, 0.000000, -21186.000000, 16.410255, 4.000000, 4.000000, 4.000000, 4.000000, 4.000000, 4.000000, 4.000000, 4.000000, 1.000000, 4.000000, 4.000000, 4.000000, 4.000000, 4.000000, 4.000000, 4.000000
127.000000, 0.000000, 4176.922852, 4131.281738, 4183.076660, 4169.743652, 4186.666504, 4187.179199, 4214.358887, 4233.846191, 4185.127930, 3947.179443, 4229.743652, 4202.563965, 4177.436035, 4208.717773, 57.000000, 8163.000000, 8040.000000, 0.000000, 0.000000, 0.000000, -21186.000000, 24.102564, 4.000000, 4.000000, 4.000000, 4.000000, 4.000000, 4.000000, 4.000000, 4.000000, 1.000000, 4.000000, 4.000000, 4.000000, 4.000000, 4.000000, 4.000000, 4.000000
0.000000, 0.000000, 4184.615234, 4133.846191, 4181.025391, 4167.692383, 4188.717773, 4193.333008, 4221.025391, 4230.769043, 4186.153809, 3957.435791, 4234.358887, 4203.076660, 4185.641113, 4211.794922, 3126.000000, 8163.000000, 8040.000000, 0.000000, 0.000000, 0.000000, -21186.000000, 31.794870, 4.000000, 4.000000, 4.000000, 4.000000, 4.000000, 4.000000, 4.000000, 4.000000, 1.000000, 4.000000, 4.000000, 4.000000, 4.000000, 4.000000, 4.000000, 4.000000
1.000000, 0.000000, 4176.922852, 4133.846191, 4175.897461, 4166.153809, 4175.384277, 4187.179199, 4208.717773, 4230.769043, 4186.666504, 3960.000000, 4232.820313, 4198.461426, 4185.127930, 4205.641113, 3512.000000, 8191.000000, 8042.000000, 0.000000, 0.000000, 0.000000, -21186.000000, 40.000000, 4.000000, 4.000000, 4.000000, 4.000000, 4.000000, 4.000000, 4.000000, 4.000000, 1.000000, 4.000000, 4.000000, 4.000000, 4.000000, 4.000000, 4.000000, 4.000000
2.000000, 0.000000, 4164.102539, 4130.256348, 4170.256348, 4168.717773, 4173.846191, 4176.410156, 4195.384277, 4229.230469, 4186.666504, 3958.974365, 4231.281738, 4192.307617, 4184.102539, 4195.384277, 3557.000000, 8191.000000, 8042.000000, 0.000000, 0.000000, 0.000000, -21186.000000, 47.692307, 4.000000, 4.000000, 4.000000, 4.000000, 4.000000, 4.000000, 4.000000, 4.000000, 1.000000, 4.000000, 4.000000, 4.000000, 4.000000, 4.000000, 4.000000, 4.000000
3.000000, 0.000000, 4157.948730, 4123.076660, 4165.127930, 4161.538574, 4182.563965, 4171.281738, 4196.922852, 4229.743652, 4186.153809, 3957.435791, 4226.153809, 4186.153809, 4181.538574, 4188.717773, 2459.000000, 8209.000000, 8039.000000, 0.000000, 0.000000, 0.000000, -21186.000000, 55.897434, 4.000000, 4.000000, 4.000000, 4.000000, 4.000000, 4.000000, 4.000000, 4.000000, 1.000000, 4.000000, 4.000000, 4.000000, 4.000000, 4.000000, 4.000000, 4.000000
4.000000, 0.000000, 4153.333008, 4120.000000, 4164.615234, 4154.358887, 4179.487305, 4171.281738, 4200.512695, 4230.256348, 4186.153809, 3957.435791, 4216.410156, 4184.615234, 4170.769043, 4180.512695, 3534.000000, 8209.000000, 8039.000000, 0.000000, 0.000000, 0.000000, -21186.000000, 63.589741, 4.000000, 4.000000, 4.000000, 4.000000, 4.000000, 4.000000, 4.000000, 4.000000, 1.000000, 4.000000, 4.000000, 4.000000, 4.000000, 4.000000, 4.000000, 4.000000
5.000000, 0.000000, 4153.846191, 4126.666504, 4171.794922, 4163.076660, 4176.922852, 4173.846191, 4199.487305, 4229.230469, 4187.179199, 3956.410156, 4212.307617, 4183.589844, 4164.615234, 4173.333008, 3559.000000, 8228.000000, 8046.000000, 0.000000, 0.000000, 0.000000, -21186.000000, 71.282051, 4.000000, 4.000000, 4.000000, 4.000000, 4.000000, 4.000000, 4.000000, 4.000000, 1.000000, 4.000000, 4.000000, 4.000000, 4.000000, 4.000000, 4.000000, 4.000000
6.000000, 0.000000, 4159.487305, 4128.205078, 4177.948730, 4172.820313, 4184.615234, 4181.025391, 4198.974121, 4230.256348, 4187.692383, 3955.897461, 4211.794922, 4183.589844, 4167.179199, 4175.384277, 3375.000000, 8228.000000, 8046.000000, 0.000000, 0.000000, 0.000000, -21186.000000, 78.974358, 4.000000, 4.000000, 4.000000, 4.000000, 4.000000, 4.000000, 4.000000, 4.000000, 1.000000, 4.000000, 4.000000, 4.000000, 4.000000, 4.000000, 4.000000, 4.000000
7.000000, 0.000000, 4165.641113, 4126.153809, 4184.102539, 4172.307617, 4188.205078, 4184.102539, 4206.666504, 4230.256348, 4187.692383, 3964.615234, 4216.922852, 4188.205078, 4175.384277, 4185.641113, 3508.000000, 8251.000000, 8059.000000, 0.000000, 0.000000, 0.000000, -21186.000000, 87.179482, 4.000000, 4.000000, 4.000000, 4.000000, 4.000000, 4.000000, 4.000000, 4.000000, 1.000000, 4.000000, 4.000000, 4.000000, 4.000000, 4.000000, 4.000000, 4.000000
8.000000, 0.000000, 4170.769043, 4129.230469, 4190.769043, 4172.307617, 4185.641113, 4183.589844, 4215.384277, 4228.205078, 4188.205078, 3974.358887, 4223.589844, 4193.846191, 4182.563965, 4190.256348, 91.000000, 8251.000000, 8059.000000, 0.000000, 0.000000, 0.000000, -21186.000000, 94.871796, 4.000000, 4.000000, 4.000000, 4.000000, 4.000000, 4.000000, 4.000000, 4.000000, 1.000000, 4.000000, 4.000000, 4.000000, 4.000000, 4.000000, 4.000000, 4.000000
9.000000, 0.000000, 4171.794922, 4129.230469, 4188.205078, 4172.307617, 4185.127930, 4185.641113, 4212.307617, 4235.897461, 4188.717773, 3975.384521, 4223.076660, 4192.307617, 4182.563965, 4186.153809, 2599.000000, 8257.000000, 8072.000000, 0.000000, 0.000000, 0.000000, -21186.000000, 102.564102, 4.000000, 4.000000, 4.000000, 4.000000, 4.000000, 4.000000, 4.000000, 4.000000, 1.000000, 4.000000, 4.000000, 4.000000, 4.000000, 4.000000, 4.000000, 4.000000
10.000000, 0.000000, 4166.666504, 4126.153809, 4185.641113, 4168.205078, 4183.076660, 4185.641113, 4203.076660, 4237.948730, 4187.692383, 3975.897217, 4217.948730, 4188.717773, 4180.512695, 4186.153809, 3584.000000, 8257.000000, 8072.000000, 0.000000, 0.000000, 0.000000, -21186.000000, 110.256409, 4.000000, 4.000000, 4.000000, 4.000000, 4.000000, 4.000000, 4.000000, 4.000000, 1.000000, 4.000000, 4.000000, 4.000000, 4.000000, 4.000000, 4.000000, 4.000000
11.000000, 0.000000, 4158.461426, 4124.615234, 4183.076660, 4167.179199, 4182.051270, 4183.076660, 4200.000000, 4216.410156, 4186.153809, 3973.845947, 4214.358887, 4186.153809, 4174.871582, 4186.666504, 3564.000000, 8256.000000, 8094.000000, 0.000000, 0.000000, 0.000000, -21186.000000, 118.461533, 4.000000, 4.000000, 4.000000, 4.000000, 4.000000, 4.000000, 4.000000, 4.000000, 1.000000, 4.000000, 4.000000, 4.000000, 4.000000, 4.000000, 4.000000, 4.000000
12.000000, 0.000000, 4147.692383, 4118.974121, 4169.743652, 4161.538574, 4184.615234, 4185.127930, 4199.487305, 4196.922852, 4187.179199, 3961.025635, 4200.000000, 4173.846191, 4158.974121, 4170.256348, 3510.000000, 8256.000000, 8094.000000, 0.000000, 0.000000, 0.000000, -21186.000000, 126.153847, 4.000000, 4.000000, 4.000000, 4.000000, 4.000000, 4.000000, 4.000000, 4.000000, 1.000000, 4.000000, 4.000000, 4.000000, 4.000000, 4.000000, 4.000000, 4.000000
13.000000, 0.000000, 4141.538574, 4112.307617, 4163.589844, 4153.846191, 4184.102539, 4188.717773, 4198.974121, 4205.641113, 4188.205078, 3956.410156, 4185.127930, 4164.615234, 4145.641113, 4153.333008, 3454.000000, 8243.000000, 8104.000000, 0.000000, 0.000000, 0.000000, -21186.000000, 134.358978, 4.000000, 4.000000, 4.000000, 4.000000, 4.000000, 4.000000, 4.000000, 4.000000, 1.000000, 4.000000, 4.000000, 4.000000, 4.000000, 4.000000, 4.000000, 4.000000
14.000000, 0.000000, 4147.179199, 4114.871582, 4175.384277, 4159.487305, 4174.871582, 4188.717773, 4203.076660, 4220.000000, 4187.179199, 3969.230713, 4193.333008, 4170.769043, 4148.717773, 4161.025391, 3584.000000, 8243.000000, 8104.000000, 0.000000, 0.000000, 0.000000, -21186.000000, 142.051285, 4.000000, 4.000000, 4.000000, 4.000000, 4.000000, 4.000000, 4.000000, 4.000000, 1.000000, 4.000000, 4.000000, 4.000000, 4.000000, 4.000000, 4.000000, 4.000000
15.000000, 0.000000, 4163.076660, 4124.102539, 4188.717773, 4170.256348, 4173.333008, 4184.615234, 4201.025391, 4217.948730, 4187.179199, 3978.974365, 4209.743652, 4182.563965, 4162.051270, 4181.025391, 3564.000000, 8217.000000, 8137.000000, 0.000000, 0.000000, 0.000000, -21186.000000, 150.256409, 4.000000, 4.000000, 4.000000, 4.000000, 4.000000, 4.000000, 4.000000, 4.000000, 1.000000, 4.000000, 4.000000, 4.000000, 4.000000, 4.000000, 4.000000, 4.000000
16.000000, 0.000000, 4176.922852, 4129.743652, 4195.897461, 4170.256348, 4185.127930, 4182.563965, 4190.769043, 4214.358887, 4187.179199, 3983.076904, 4215.897461, 4192.820313, 4177.436035, 4191.281738, 0.000000, 8217.000000, 8137.000000, 0.000000, 0.000000, 0.000000, -21186.000000, 157.948715, 4.000000, 4.000000, 4.000000, 4.000000, 4.000000, 4.000000, 4.000000, 4.000000, 1.000000, 4.000000, 4.000000, 4.000000, 4.000000, 4.000000, 4.000000, 4.000000
17.000000, 0.000000, 4185.641113, 4132.820313, 4201.538574, 4172.307617, 4190.769043, 4182.051270, 4187.179199, 4215.384277, 4186.666504, 3987.179443, 4216.922852, 4201.025391, 4186.666504, 4200.000000, 0.000000, 8197.000000, 8149.000000, 0.000000, 0.000000, 0.000000, -21186.000000, 166.153839, 4.000000, 4.000000, 4.000000, 4.000000, 4.000000, 4.000000, 4.000000, 4.000000, 1.000000, 4.000000, 4.000000, 4.000000, 4.000000, 4.000000, 4.000000, 4.000000
18.000000, 0.000000, 4191.281738, 4136.922852, 4210.256348, 4181.538574, 4186.666504, 4175.897461, 4186.666504, 4204.102539, 4186.666504, 3988.205078, 4219.487305, 4202.563965, 4188.205078, 4207.692383, 0.000000, 8197.000000, 8149.000000, 0.000000, 0.000000, 0.000000, -21186.000000, 173.846146, 4.000000, 4.000000, 4.000000, 4.000000, 4.000000, 4.000000, 4.000000, 4.000000, 1.000000, 4.000000, 4.000000, 4.000000, 4.000000, 4.000000, 4.000000, 4.000000
19.000000, 0.000000, 4185.641113, 4128.205078, 4211.281738, 4175.897461, 4180.000000, 4168.717773, 4184.615234, 4194.871582, 4186.666504, 3985.128174, 4217.436035, 4200.512695, 4184.102539, 4204.102539, 0.000000, 8176.000000, 8157.000000, 0.000000, 0.000000, 0.000000, -21186.000000, 181.538452, 4.000000, 4.000000, 4.000000, 4.000000, 4.000000, 4.000000, 4.000000, 4.000000, 1.000000, 4.000000, 4.000000, 4.000000, 4.000000, 4.000000, 4.000000, 4.000000
20.000000, 0.000000, 4178.974121, 4117.948730, 4209.230469, 4165.641113, 4175.384277, 4172.820313, 4187.692383, 4209.743652, 4185.641113, 3987.692139, 4216.410156, 4204.102539, 4179.487305, 4198.974121, 0.000000, 8176.000000, 8157.000000, 0.000000, 0.000000, 0.000000, -21186.000000, 189.230759, 4.000000, 4.000000, 4.000000, 4.000000, 4.000000, 4.000000, 4.000000, 4.000000, 1.000000, 4.000000, 4.000000, 4.000000, 4.000000, 4.000000, 4.000000, 4.000000
21.000000, 0.000000, 4185.641113, 4126.666504, 4209.743652, 4173.333008, 4179.487305, 4179.487305, 4193.333008, 4221.538574, 4184.615234, 3998.461426, 4225.127930, 4204.615234, 4188.717773, 4203.076660, 0.000000, 8144.000000, 8166.000000, 0.000000, 0.000000, 0.000000, -21186.000000, 197.435898, 4.000000, 4.000000, 4.000000, 4.000000, 4.000000, 4.000000, 4.000000, 4.000000, 1.000000, 4.000000, 4.000000, 4.000000, 4.000000, 4.000000, 4.000000, 4.000000
22.000000, 0.000000, 4189.743652, 4134.358887, 4205.127930, 4178.461426, 4187.179199, 4176.922852, 4191.281738, 4218.974121, 4186.666504, 4007.692139, 4231.794922, 4200.000000, 4203.076660, 4207.179199, 0.000000, 8144.000000, 8166.000000, 0.000000, 0.000000, 0.000000, -21186.000000, 205.641022, 4.000000, 4.000000, 4.000000, 4.000000, 4.000000, 4.000000, 4.000000, 4.000000, 1.000000, 4.000000, 4.000000, 4.000000, 4.000000, 4.000000, 4.000000, 4.000000
23.000000, 0.000000, 4184.615234, 4130.256348, 4203.076660, 4172.820313, 4179.487305, 4173.333008, 4188.205078, 4220.000000, 4187.179199, 4007.179443, 4230.769043, 4201.538574, 4205.641113, 4205.127930, 0.000000, 8138.000000, 8162.000000, 0.000000, 0.000000, 0.000000, -21186.000000, 213.333328, 4.000000, 4.000000, 4.000000, 4.000000, 4.000000, 4.000000, 4.000000, 4.000000, 1.000000, 4.000000, 4.000000, 4.000000, 4.000000, 4.000000, 4.000000, 4.000000
24.000000, 0.000000, 4181.538574, 4126.666504, 4204.102539, 4173.333008, 4172.307617, 4173.333008, 4189.230469, 4214.871582, 4184.615234, 4004.615234, 4229.230469, 4204.102539, 4205.127930, 4202.563965, 0.000000, 8138.000000, 8162.000000, 0.000000, 0.000000, 0.000000, -21186.000000, 221.025635, 4.000000, 4.000000, 4.000000, 4.000000, 4.000000, 4.000000, 4.000000, 4.000000, 1.000000, 4.000000, 4.000000, 4.000000, 4.000000, 4.000000, 4.000000, 4.000000
25.000000, 0.000000, 4177.436035, 4125.127930, 4202.051270, 4174.871582, 4177.948730, 4173.333008, 4185.127930, 4202.051270, 4185.641113, 4004.615234, 4225.127930, 4198.461426, 4206.153809, 4200.512695, 0.000000, 8139.000000, 8164.000000, 0.000000, 0.000000, 0.000000, -21186.000000, 229.230759, 4.000000, 4.000000, 4.000000, 4.000000, 4.000000, 4.000000, 4.000000, 4.000000, 1.000000, 4.000000, 4.000000, 4.000000, 4.000000, 4.000000, 4.000000, 4.000000
26.000000, 0.000000, 4169.743652, 4122.563965, 4195.897461, 4170.769043, 4174.871582, 4169.743652, 4178.974121, 4201.025391, 4188.205078, 4002.563965, 4216.410156, 4192.307617, 4201.025391, 4197.948730, 0.000000, 8139.000000, 8164.000000, 0.000000, 0.000000, 0.000000, -21186.000000, 236.923065, 4.000000, 4.000000, 4.000000, 4.000000, 4.000000, 4.000000, 4.000000, 4.000000, 1.000000, 4.000000, 4.000000, 4.000000, 4.000000, 4.000000, 4.000000, 4.000000
27.000000, 0.000000, 4173.333008, 4126.153809, 4196.410156, 4175.384277, 4173.333008, 4167.692383, 4180.000000, 4199.487305, 4185.127930, 4003.589600, 4215.384277, 4193.846191, 4202.051270, 4199.487305, 0.000000, 8136.000000, 8167.000000, 0.000000, 0.000000, 0.000000, -21186.000000, 245.128204, 4.000000, 4.000000, 4.000000, 4.000000, 4.000000, 4.000000, 4.000000, 4.000000, 1.000000, 4.000000, 4.000000, 4.000000, 4.000000, 4.000000, 4.000000, 4.000000
28.000000, 0.000000, 4184.102539, 4136.410156, 4204.102539, 4186.666504, 4190.256348, 4176.922852, 4185.641113, 4198.461426, 4183.076660, 4010.256348, 4224.615234, 4200.000000, 4204.615234, 4203.589844, 0.000000, 8136.000000, 8167.000000, 0.000000, 0.000000, 0.000000, -21186.000000, 252.820511, 4.000000, 4.000000, 4.000000, 4.000000, 4.000000, 4.000000, 4.000000, 4.000000, 1.000000, 4.000000, 4.000000, 4.000000, 4.000000, 4.000000, 4.000000, 4.000000
29.000000, 0.000000, 4187.179199, 4143.076660, 4203.076660, 4188.717773, 4201.538574, 4184.102539, 4187.692383, 4214.871582, 4187.179199, 4015.384521, 4232.820313, 4203.589844, 4192.820313, 4204.615234, 0.000000, 8140.000000, 8173.000000, 0.000000, 0.000000, 0.000000, -21186.000000, 260.512817, 4.000000, 4.000000, 4.000000, 4.000000, 4.000000, 4.000000, 4.000000, 4.000000, 1.000000, 4.000000, 4.000000, 4.000000, 4.000000, 4.000000, 4.000000, 4.000000
30.000000, 0.000000, 4180.512695, 4148.205078, 4196.410156, 4183.589844, 4189.743652, 4176.922852, 4186.666504, 4218.974121, 4188.205078, 4016.410156, 4232.307617, 4202.563965, 4173.846191, 4204.102539, 0.000000, 8140.000000, 8173.000000, 0.000000, 0.000000, 0.000000, -21186.000000, 268.717957, 4.000000, 4.000000, 4.000000, 4.000000, 4.000000, 4.000000, 4.000000, 4.000000, 1.000000, 4.000000, 4.000000, 4.000000, 4.000000, 4.000000, 4.000000, 4.000000
31.000000, 0.000000, 4172.307617, 4154.358887, 4193.846191, 4182.563965, 4182.051270, 4168.717773, 4183.076660, 4202.051270, 4185.127930, 4013.845947, 4221.025391, 4199.487305, 4147.692383, 4195.897461, 0.000000, 8159.000000, 8207.000000, 0.000000, 0.000000, 0.000000, -21186.000000, 276.410248, 4.000000, 4.000000, 4.000000, 4.000000, 4.000000, 4.000000, 4.000000, 4.000000, 1.000000, 4.000000, 4.000000, 4.000000, 4.000000, 4.000000, 4.000000, 4.000000
32.000000, 0.000000, 4174.358887, 4163.589844, 4197.436035, 4182.051270, 4185.127930, 4170.256348, 4177.436035, 4198.974121, 4185.127930, 4013.845947, 4215.897461, 4199.487305, 4125.127930, 4191.281738, 0.000000, 8159.000000, 8207.000000, 0.000000, 0.000000, 0.000000, -21186.000000, 284.102570, 4.000000, 4.000000, 4.000000, 4.000000, 4.000000, 4.000000, 4.000000, 4.000000, 1.000000, 4.000000, 4.000000, 4.000000, 4.000000, 4.000000, 4.000000, 4.000000
33.000000, 0.000000, 4184.615234, 4172.820313, 4207.179199, 4183.589844, 4180.000000, 4171.794922, 4177.948730, 4204.102539, 4185.641113, 4015.897217, 4224.102539, 4203.076660, 4120.000000, 4197.948730, 0.000000, 8164.000000, 8230.000000, 0.000000, 0.000000, 0.000000, -21186.000000, 292.307678, 4.000000, 4.000000, 4.000000, 4.000000, 4.000000, 4.000000, 4.000000, 4.000000, 1.000000, 4.000000, 4.000000, 4.000000, 4.000000, 4.000000, 4.000000, 4.000000
34.000000, 0.000000, 4189.230469, 4178.461426, 4212.820313, 4192.307617, 4175.897461, 4175.384277, 4184.615234, 4203.076660, 4184.615234, 4018.461426, 4229.230469, 4206.666504, 4123.076660, 4204.102539, 0.000000, 8164.000000, 8230.000000, 0.000000, 0.000000, 0.000000, -21186.000000, 300.000000, 4.000000, 4.000000, 4.000000, 4.000000, 4.000000, 4.000000, 4.000000, 4.000000, 1.000000, 4.000000, 4.000000, 4.000000, 4.000000, 4.000000, 4.000000, 4.000000
35.000000, 0.000000, 4188.205078, 4184.102539, 4206.666504, 4196.922852, 4182.051270, 4182.563965, 4187.179199, 4203.076660, 4183.589844, 4019.487061, 4223.076660, 4206.153809, 4121.538574, 4203.589844, 0.000000, 8183.000000, 8261.000000, 0.000000, 0.000000, 0.000000, -21186.000000, 308.205109, 4.000000, 4.000000, 4.000000, 4.000000, 4.000000, 4.000000, 4.000000, 4.000000, 1.000000, 4.000000, 4.000000, 4.000000, 4.000000, 4.000000, 4.000000, 4.000000
36.000000, 0.000000, 4187.179199, 4185.641113, 4198.461426, 4194.871582, 4186.153809, 4183.589844, 4185.641113, 4202.563965, 4184.615234, 4020.000000, 4216.922852, 4203.589844, 4120.512695, 4202.051270, 0.000000, 8183.000000, 8261.000000, 0.000000, 0.000000, 0.000000, -21186.000000, 315.897430, 4.000000, 4.000000, 4.000000, 4.000000, 4.000000, 4.000000, 4.000000, 4.000000, 1.000000, 4.000000, 4.000000, 4.000000, 4.000000, 4.000000, 4.000000, 4.000000
37.000000, 0.000000, 4185.127930, 4184.615234, 4191.794922, 4196.410156, 4187.179199, 4183.589844, 4186.666504, 4197.436035, 4185.641113, 4018.461426, 4214.871582, 4201.025391, 4121.538574, 4198.974121, 0.000000, 8190.000000, 8265.000000, 0.000000, 0.000000, 0.000000, -21186.000000, 323.589722, 4.000000, 4.000000, 4.000000, 4.000000, 4.000000, 4.000000, 4.000000, 4.000000, 1.000000, 4.000000, 4.000000, 4.000000, 4.000000, 4.000000, 4.000000, 4.000000
38.000000, 0.000000, 4183.589844, 4189.743652, 4188.205078, 4199.487305, 4193.333008, 4185.641113, 4185.127930, 4200.512695, 4186.153809, 4018.461426, 4212.820313, 4198.974121, 4118.461426, 4195.897461, 0.000000, 8190.000000, 8265.000000, 0.000000, 0.000000, 0.000000, -21186.000000, 331.794861, 4.000000, 4.000000, 4.000000, 4.000000, 4.000000, 4.000000, 4.000000, 4.000000, 1.000000, 4.000000, 4.000000, 4.000000, 4.000000, 4.000000, 4.000000, 4.000000
39.000000, 0.000000, 4185.127930, 4191.794922, 4196.922852, 4200.512695, 4202.051270, 4186.666504, 4188.205078, 4208.205078, 4186.153809, 4023.589600, 4212.820313, 4202.051270, 4125.127930, 4199.487305, 0.000000, 8195.000000, 8254.000000, 0.000000, 0.000000, 0.000000, -21186.000000, 339.487183, 4.000000, 4.000000, 4.000000, 4.000000, 4.000000, 4.000000, 4.000000, 4.000000, 1.000000, 4.000000, 4.000000, 4.000000, 4.000000, 4.000000, 4.000000, 4.000000
40.000000, 0.000000, 4184.615234, 4187.692383, 4205.641113, 4197.436035, 4195.384277, 4186.666504, 4199.487305, 4207.179199, 4186.153809, 4027.692139, 4218.974121, 4204.102539, 4143.076660, 4201.025391, 0.000000, 8195.000000, 8254.000000, 0.000000, 0.000000, 0.000000, -21186.000000, 347.692291, 4.000000, 4.000000, 4.000000, 4.000000, 4.000000, 4.000000, 4.000000, 4.000000, 1.000000, 4.000000, 4.000000, 4.000000, 4.000000, 4.000000, 4.000000, 4.000000
41.000000, 0.000000, 4182.051270, 4185.127930, 4200.512695, 4192.307617, 4182.051270, 4185.641113, 4202.051270, 4206.666504, 4185.641113, 4030.769043, 4224.102539, 4203.589844, 4152.307617, 4198.974121, 0.000000, 8189.000000, 8243.000000, 0.000000, 0.000000, 0.000000, -21186.000000, 355.897430, 4.000000, 4.000000, 4.000000, 4.000000, 4.000000, 4.000000, 4.000000, 4.000000, 1.000000, 4.000000, 4.000000, 4.000000, 4.000000, 4.000000, 4.000000, 4.000000
42.000000, 0.000000, 4182.563965, 4184.615234, 4192.307617, 4191.281738, 4183.589844, 4185.641113, 4197.948730, 4212.820313, 4185.641113, 4036.923096, 4229.743652, 4206.153809, 4155.897461, 4208.717773, 0.000000, 8189.000000, 8243.000000, 0.000000, 0.000000, 0.000000, -21186.000000, 363.589722, 4.000000, 4.000000, 4.000000, 4.000000, 4.000000, 4.000000, 4.000000, 4.000000, 1.000000, 4.000000, 4.000000, 4.000000, 4.000000, 4.000000, 4.000000, 4.000000
43.000000, 0.000000, 4186.666504, 4182.051270, 4195.384277, 4193.846191, 4190.256348, 4189.743652, 4200.512695, 4219.487305, 4185.641113, 4038.461426, 4232.820313, 4209.230469, 4163.589844, 4215.384277, 0.000000, 8186.000000, 8233.000000, 0.000000, 0.000000, 0.000000, -21186.000000, 371.794861, 4.000000, 4.000000, 4.000000, 4.000000, 4.000000, 4.000000, 4.000000, 4.000000, 1.000000, 4.000000, 4.000000, 4.000000, 4.000000, 4.000000, 4.000000, 4.000000
44.000000, 0.000000, 4186.153809, 4177.436035, 4196.922852, 4188.205078, 4185.641113, 4190.769043, 4205.127930, 4222.051270, 4185.641113, 4036.410156, 4226.153809, 4206.153809, 4166.666504, 4207.179199, 0.000000, 8186.000000, 8233.000000, 0.000000, 0.000000, 0.000000, -21186.000000, 379.487183, 4.000000, 4.000000, 4.000000, 4.000000, 4.000000, 4.000000, 4.000000, 4.000000, 1.000000, 4.000000, 4.000000, 4.000000, 4.000000, 4.000000, 4.000000, 4.000000
45.000000, 0.000000, 4179.487305, 4174.871582, 4191.794922, 4182.051270, 4182.563965, 4189.230469, 4202.051270, 4220.000000, 4184.615234, 4039.487061, 4222.563965, 4202.051270, 4165.127930, 4199.487305, 0.000000, 8187.000000, 8219.000000, 0.000000, 0.000000, 0.000000, -21186.000000, 387.692291, 4.000000, 4.000000, 4.000000, 4.000000, 4.000000, 4.000000, 4.000000, 4.000000, 1.000000, 4.000000, 4.000000, 4.000000, 4.000000, 4.000000, 4.000000, 4.000000
46.000000, 0.000000, 4173.846191, 4177.948730, 4192.307617, 4186.666504, 4189.230469, 4195.384277, 4202.563965, 4216.922852, 4185.641113, 4047.179443, 4229.230469, 4199.487305, 4172.307617, 4202.051270, 0.000000, 8187.000000, 8219.000000, 0.000000, 0.000000, 0.000000, -21186.000000, 395.384613, 4.000000, 4.000000, 4.000000, 4.000000, 4.000000, 4.000000, 4.000000, 4.000000, 1.000000, 4.000000, 4.000000, 4.000000, 4.000000, 4.000000, 4.000000, 4.000000
47.000000, 0.000000, 4171.794922, 4181.025391, 4191.281738, 4188.205078, 4191.281738, 4199.487305, 4206.666504, 4223.076660, 4187.179199, 4050.256348, 4231.794922, 4198.461426, 4176.410156, 4202.563965, 0.000000, 8186.000000, 8208.000000, 0.000000, 0.000000, 0.000000, -21186.000000, 403.589722, 4.000000, 4.000000, 4.000000, 4.000000, 4.000000, 4.000000, 4.000000, 4.000000, 1.000000, 4.000000, 4.000000, 4.000000, 4.000000, 4.000000, 4.000000, 4.000000
48.000000, 0.000000, 4175.384277, 4184.102539, 4188.717773, 4185.641113, 4191.794922, 4194.358887, 4204.615234, 4232.307617, 4186.666504, 4049.743408, 4225.127930, 4202.051270, 4173.333008, 4197.948730, 0.000000, 8186.000000, 8208.000000, 0.000000, 0.000000, 0.000000, -21186.000000, 411.282043, 4.000000, 4.000000, 4.000000, 4.000000, 4.000000, 4.000000, 4.000000, 4.000000, 1.000000, 4.000000, 4.000000, 4.000000, 4.000000, 4.000000, 4.000000, 4.000000
49.000000, 0.000000, 4180.000000, 4186.666504, 4189.743652, 4189.230469, 4195.897461, 4189.230469, 4202.563965, 4221.538574, 4186.153809, 4046.153809, 4220.512695, 4199.487305, 4172.820313, 4193.333008, 0.000000, 8181.000000, 8199.000000, 0.000000, 0.000000, 0.000000, -21186.000000, 419.487183, 4.000000, 4.000000, 4.000000, 4.000000, 4.000000, 4.000000, 4.000000, 4.000000, 1.000000, 4.000000, 4.000000, 4.000000, 4.000000, 4.000000, 4.000000, 4.000000
50.000000, 0.000000, 4172.307617, 4177.436035, 4187.179199, 4186.666504, 4193.846191, 4188.717773, 4201.025391, 4203.589844, 4186.153809, 4044.102539, 4215.897461, 4190.769043, 4166.666504, 4184.102539, 0.000000, 8181.000000, 8199.000000, 0.000000, 0.000000, 0.000000, -21186.000000, 427.179474, 4.000000, 4.000000, 4.000000, 4.000000, 4.000000, 4.000000, 4.000000, 4.000000, 1.000000, 4.000000, 4.000000, 4.000000, 4.000000, 4.000000, 4.000000, 4.000000
51.000000, 0.000000, 4153.333008, 4166.153809, 4183.589844, 4173.846191, 4185.641113, 4187.692383, 4192.307617, 4196.922852, 4186.666504, 4038.974365, 4203.076660, 4186.153809, 4147.179199, 4170.769043, 0.000000, 8174.000000, 8192.000000, 0.000000, 0.000000, 0.000000, -21186.000000, 435.384613, 4.000000, 4.000000, 4.000000, 4.000000, 4.000000, 4.000000, 4.000000, 4.000000, 1.000000, 4.000000, 4.000000, 4.000000, 4.000000, 4.000000, 4.000000, 4.000000
52.000000, 0.000000, 4145.641113, 4169.743652, 4178.461426, 4170.256348, 4184.615234, 4180.512695, 4183.589844, 4191.281738, 4186.153809, 4028.205078, 4188.717773, 4175.897461, 4140.512695, 4162.563965, 0.000000, 8174.000000, 8192.000000, 0.000000, 0.000000, 0.000000, -21186.000000, 443.589722, 4.000000, 4.000000, 4.000000, 4.000000, 4.000000, 4.000000, 4.000000, 4.000000, 1.000000, 4.000000, 4.000000, 4.000000, 4.000000, 4.000000, 4.000000, 4.000000
53.000000, 0.000000, 4158.461426, 4185.127930, 4177.948730, 4184.102539, 4193.333008, 4175.897461, 4184.102539, 4184.102539, 4185.641113, 4028.205078, 4185.127930, 4168.717773, 4153.333008, 4166.153809, 0.000000, 8180.000000, 8183.000000, 0.000000, 0.000000, 0.000000, -21186.000000, 451.282043, 4.000000, 4.000000, 4.000000, 4.000000, 4.000000, 4.000000, 4.000000, 4.000000, 1.000000, 4.000000, 4.000000, 4.000000, 4.000000, 4.000000, 4.000000, 4.000000
54.000000, 0.000000, 4173.846191, 4193.333008, 4178.461426, 4194.871582, 4198.974121, 4181.538574, 4187.692383, 4181.538574, 4186.666504, 4039.487061, 4192.307617, 4175.897461, 4159.487305, 4172.820313, 0.000000, 8180.000000, 8183.000000, 0.000000, 0.000000, 0.000000, -21186.000000, 458.974335, 4.000000, 4.000000, 4.000000, 4.000000, 4.000000, 4.000000, 4.000000, 4.000000, 1.000000, 4.000000, 4.000000, 4.000000, 4.000000, 4.000000, 4.000000, 4.000000
55.000000, 0.000000, 4185.127930, 4196.410156, 4183.076660, 4201.025391, 4200.512695, 4187.692383, 4186.153809, 4192.307617, 4186.666504, 4045.640869, 4200.000000, 4186.153809, 4161.025391, 4179.487305, 0.000000, 8183.000000, 8156.000000, 0.000000, 0.000000, 0.000000, -21186.000000, 467.179474, 4.000000, 4.000000, 4.000000, 4.000000, 4.000000, 4.000000, 4.000000, 4.000000, 1.000000, 4.000000, 4.000000, 4.000000, 4.000000, 4.000000, 4.000000, 4.000000
56.000000, 0.000000, 4200.000000, 4205.641113, 4198.974121, 4215.897461, 4203.589844, 4184.615234, 4183.589844, 4213.846191, 4186.153809, 4049.230713, 4205.641113, 4196.410156, 4173.846191, 4194.871582, 0.000000, 8183.000000, 8156.000000, 0.000000, 0.000000, 0.000000, -21186.000000, 475.384613, 4.000000, 4.000000, 4.000000, 4.000000, 4.000000, 4.000000, 4.000000, 4.000000, 1.000000, 4.000000, 4.000000, 4.000000, 4.000000, 4.000000, 4.000000, 4.000000
57.000000, 0.000000, 4213.333008, 4213.846191, 4208.717773, 4219.487305, 4204.102539, 4183.589844, 4186.153809, 4217.436035, 4186.153809, 4053.333252, 4206.666504, 4204.102539, 4178.974121, 4204.615234, 0.000000, 8184.000000, 8152.000000, 0.000000, 0.000000, 0.000000, -21186.000000, 483.076904, 4.000000, 4.000000, 4.000000, 4.000000, 4.000000, 4.000000, 4.000000, 4.000000, 1.000000, 4.000000, 4.000000, 4.000000, 4.000000, 4.000000, 4.000000, 4.000000
58.000000, 0.000000, 4218.461426, 4215.897461, 4206.153809, 4210.256348, 4200.000000, 4187.692383, 4185.127930, 4201.538574, 4186.666504, 4048.717773, 4199.487305, 4198.974121, 4167.692383, 4201.025391, 0.000000, 8184.000000, 8152.000000, 0.000000, 0.000000, 0.000000, -21186.000000, 491.282043, 4.000000, 4.000000, 4.000000, 4.000000, 4.000000, 4.000000, 4.000000, 4.000000, 1.000000, 4.000000, 4.000000, 4.000000, 4.000000, 4.000000, 4.000000, 4.000000
59.000000, 0.000000, 4223.589844, 4217.948730, 4207.179199, 4213.333008, 4200.000000, 4184.615234, 4175.384277, 4197.948730, 4185.127930, 4044.102539, 4195.384277, 4193.333008, 4160.000000, 4201.538574, 0.000000, 8193.000000, 8126.000000, 0.000000, 0.000000, 0.000000, -21186.000000, 498.974335, 4.000000, 4.000000, 4.000000, 4.000000, 4.000000, 4.000000, 4.000000, 4.000000, 1.000000, 4.000000, 4.000000, 4.000000, 4.000000, 4.000000, 4.000000, 4.000000
60.000000, 0.000000, 4220.000000, 4214.871582, 4204.615234, 4214.358887, 4197.436035, 4182.051270, 4175.384277, 4203.589844, 4184.102539, 4041.025635, 4186.153809, 4191.281738, 4147.179199, 4198.461426, 0.000000, 8193.000000, 8126.000000, 0.000000, 0.000000, 0.000000, -21186.000000, 507.179474, 4.000000, 4.000000, 4.000000, 4.000000, 4.000000, 4.000000, 4.000000, 4.000000, 1.000000, 4.000000, 4.000000, 4.000000, 4.000000, 4.000000, 4.000000, 4.000000
61.000000, 0.000000, 4205.127930, 4206.666504, 4189.743652, 4197.436035, 4190.256348, 4185.127930, 4186.666504, 4189.743652, 4184.615234, 4030.769043, 4167.692383, 4176.922852, 4125.127930, 4181.538574, 0.000000, 8187.000000, 8117.000000, 0.000000, 0.000000, 0.000000, -21186.000000, 514.871765, 4.000000, 4.000000, 4.000000, 4.000000, 4.000000, 4.000000, 4.000000, 4.000000, 1.000000, 4.000000, 4.000000, 4.000000, 4.000000, 4.000000, 4.000000, 4.000000
62.000000, 0.000000, 4196.410156, 4202.563965, 4177.436035, 4185.127930, 4195.384277, 4186.666504, 4188.717773, 4180.512695, 4184.615234, 4029.743408, 4162.051270, 4164.615234, 4116.922852, 4171.794922, 0.000000, 8187.000000, 8117.000000, 0.000000, 0.000000, 0.000000, -21186.000000, 523.076904, 4.000000, 4.000000, 4.000000, 4.000000, 4.000000, 4.000000, 4.000000, 4.000000, 1.000000, 4.000000, 4.000000, 4.000000, 4.000000, 4.000000, 4.000000, 4.000000
63.000000, 0.000000, 4192.820313, 4204.615234, 4176.410156, 4188.717773, 4203.076660, 4181.025391, 4181.025391, 4186.666504, 4184.102539, 4036.410156, 4168.205078, 4166.666504, 4121.025391, 4172.820313, 0.000000, 8182.000000, 8089.000000, 0.000000, 0.000000, 0.000000, -21186.000000, 530.769226, 4.000000, 4.000000, 4.000000, 4.000000, 4.000000, 4.000000, 4.000000, 4.000000, 1.000000, 4.000000, 4.000000, 4.000000, 4.000000, 4.000000, 4.000000, 4.000000
64.000000, 0.000000, 4185.127930, 4200.000000, 4176.922852, 4186.153809, 4198.974121, 4174.358887, 4176.410156, 4177.948730, 4184.615234, 4033.333252, 4163.076660, 4167.179199, 4117.948730, 4167.179199, 3126.000000, 8182.000000, 8089.000000, 0.000000, 0.000000, 0.000000, -21186.000000, 538.974365, 4.000000, 4.000000, 4.000000, 4.000000, 4.000000, 4.000000, 4.000000, 4.000000, 1.000000, 4.000000, 4.000000, 4.000000, 4.000000, 4.000000, 4.000000, 4.000000
65.000000, 0.000000, 4188.717773, 4195.897461, 4185.641113, 4187.179199, 4196.922852, 4169.743652, 4173.846191, 4174.871582, 4184.102539, 4038.974365, 4164.102539, 4174.358887, 4116.922852, 4172.307617, 3512.000000, 8152.000000, 8062.000000, 0.000000, 0.000000, 0.000000, -21186.000000, 546.666626, 4.000000, 4.000000, 4.000000, 4.000000, 4.000000, 4.000000, 4.000000, 4.000000, 1.000000, 4.000000, 4.000000, 4.000000, 4.000000, 4.000000, 4.000000, 4.000000
66.000000, 0.000000, 4201.025391, 4200.512695, 4202.051270, 4194.358887, 4199.487305, 4168.205078, 4169.230469, 4189.230469, 4184.615234, 4057.948730, 4182.051270, 4192.820313, 4128.205078, 4187.692383, 3557.000000, 8152.000000, 8062.000000, 0.000000, 0.000000, 0.000000, -21186.000000, 554.871765, 4.000000, 4.000000, 4.000000, 4.000000, 4.000000, 4.000000, 4.000000, 4.000000, 1.000000, 4.000000, 4.000000, 4.000000, 4.000000, 4.000000, 4.000000, 4.000000
67.000000, 0.000000, 4203.076660, 4201.025391, 4207.692383, 4191.794922, 4196.410156, 4177.948730, 4168.717773, 4194.871582, 4185.641113, 4064.102539, 4188.717773, 4203.589844, 4138.974121, 4191.794922, 2462.000000, 8126.000000, 8037.000000, 0.000000, 0.000000, 0.000000, -21186.000000, 562.564087, 4.000000, 4.000000, 4.000000, 4.000000, 4.000000, 4.000000, 4.000000, 4.000000, 1.000000, 4.000000, 4.000000, 4.000000, 4.000000, 4.000000, 4.000000, 4.000000
68.000000, 0.000000, 4201.025391, 4200.000000, 4205.127930, 4187.692383, 4197.436035, 4188.205078, 4173.333008, 4198.461426, 4186.153809, 4059.487061, 4184.615234, 4203.076660, 4145.127930, 4192.820313, 3534.000000, 8126.000000, 8037.000000, 0.000000, 0.000000, 0.000000, -21186.000000, 570.769226, 4.000000, 4.000000, 4.000000, 4.000000, 4.000000, 4.000000, 4.000000, 4.000000, 1.000000, 4.000000, 4.000000, 4.000000, 4.000000, 4.000000, 4.000000, 4.000000
69.000000, 0.000000, 4202.051270, 4203.076660, 4203.076660, 4187.692383, 4197.948730, 4187.179199, 4185.641113, 4216.410156, 4187.179199, 4063.076904, 4188.205078, 4200.000000, 4143.589844, 4195.384277, 3559.000000, 8083.000000, 8033.000000, 0.000000, 0.000000, 0.000000, -21186.000000, 578.461548, 4.000000, 4.000000, 4.000000, 4.000000, 4.000000, 4.000000, 4.000000, 4.000000, 1.000000, 4.000000, 4.000000, 4.000000, 4.000000, 4.000000, 4.000000, 4.000000
70.000000, 0.000000, 4196.410156, 4197.948730, 4196.922852, 4184.102539, 4189.230469, 4185.641113, 4198.461426, 4221.538574, 4187.692383, 4071.281982, 4191.794922, 4193.846191, 4137.948730, 4186.666504, 3377.000000, 8083.000000, 8033.000000, 0.000000, 0.000000, 0.000000, -21186.000000, 586.666626, 4.000000, 4.000000, 4.000000, 4.000000, 4.000000, 4.000000, 4.000000, 4.000000, 1.000000, 4.000000, 4.000000, 4.000000, 4.000000, 4.000000, 4.000000, 4.000000
71.000000, 0.000000, 4188.205078, 4195.384277, 4191.281738, 4180.000000, 4179.487305, 4189.743652, 4204.102539, 4216.922852, 4186.666504, 4072.307617, 4186.153809, 4188.205078, 4138.461426, 4173.846191, 3511.000000, 8058.000000, 8029.000000, 0.000000, 0.000000, 0.000000, -21186.000000, 594.358948, 4.000000, 4.000000, 4.000000, 4.000000, 4.000000, 4.000000, 4.000000, 4.000000, 1.000000, 4.000000, 4.000000, 4.000000, 4.000000, 4.000000, 4.000000, 4.000000
72.000000, 0.000000, 4186.153809, 4200.000000, 4188.717773, 4185.641113, 4184.102539, 4188.717773, 4204.102539, 4225.127930, 4186.666504, 4069.230713, 4182.563965, 4187.692383, 4136.922852, 4171.794922, 91.000000, 8058.000000, 8029.000000, 0.000000, 0.000000, 0.000000, -21186.000000, 602.564087, 4.000000, 4.000000, 4.000000, 4.000000, 4.000000, 4.000000, 4.000000, 4.000000, 1.000000, 4.000000, 4.000000, 4.000000, 4.000000, 4.000000, 4.000000, 4.000000
73.000000, 0.000000, 4186.153809, 4199.487305, 4186.153809, 4191.281738, 4199.487305, 4190.769043, 4202.563965, 4223.589844, 4185.127930, 4066.153809, 4184.102539, 4182.051270, 4131.281738, 4170.256348, 2596.000000, 8023.000000, 8029.000000, 0.000000, 0.000000, 0.000000, -21186.000000, 610.256409, 4.000000, 4.000000, 4.000000, 4.000000, 4.000000, 4.000000, 4.000000, 4.000000, 1.000000, 4.000000, 4.000000, 4.000000, 4.000000, 4.000000, 4.000000, 4.000000
74.000000, 0.000000, 4185.641113, 4196.410156, 4184.615234, 4188.717773, 4206.153809, 4198.461426, 4203.076660, 4212.820313, 4185.127930, 4065.640869, 4180.000000, 4171.794922, 4129.743652, 4163.076660, 3590.000000, 8023.000000, 8029.000000, 0.000000, 0.000000, 0.000000, -21186.000000, 617.948730, 4.000000, 4.000000, 4.000000, 4.000000, 4.000000, 4.000000, 4.000000, 4.000000, 1.000000, 4.000000, 4.000000, 4.000000, 4.000000, 4.000000, 4.000000, 4.000000
75.000000, 0.000000, 4182.563965, 4197.436035, 4179.487305, 4184.102539, 4202.563965, 4201.538574, 4209.743652, 4216.410156, 4187.179199, 4066.666504, 4177.436035, 4167.692383, 4133.333008, 4158.461426, 3564.000000, 8012.000000, 8033.000000, 0.000000, 0.000000, 0.000000, -21186.000000, 626.153809, 4.000000, 4.000000, 4.000000, 4.000000, 4.000000, 4.000000, 4.000000, 4.000000, 1.000000, 4.000000, 4.000000, 4.000000, 4.000000, 4.000000, 4.000000, 4.000000
