title:winkLeft12, recorded:17.05.18 22.02.37, timestamp started:2018-05-12T20:28:52.032863+02:00            , sampling:128, subject:Noé, labels:COUNTER INTERPOLATED AF3 F7 F3 FC5 T7 P7 O1 O2 P8 T8 FC6 F4 F8 AF4 RAW_CQ GYROX GYROY MARKER MARKER_HARDWARE SYNC TIME_STAMP_s TIME_STAMP_ms CQ_AF3 CQ_F7 CQ_F3 CQ_FC5 CQ_T7 CQ_P7 CQ_O1 CQ_O2 CQ_P8 CQ_T8 CQ_FC6 CQ_F4 CQ_F8 CQ_AF4 CQ_CMS CQ_DRL, chan:40, samples:1998, units:emotiv
34.000000, 0.000000, 4188.717773, 4222.563965, 4215.384277, 4224.102539, 4210.769043, 4210.769043, 4207.692383, 4207.692383, 4202.563965, 4228.717773, 4189.743652, 4191.281738, 4199.487305, 4200.000000, 0.000000, 8253.000000, 8171.000000, 0.000000, 0.000000, 0.000000, -21127.000000, 624.615356, 4.000000, 4.000000, 4.000000, 4.000000, 4.000000, 4.000000, 4.000000, 4.000000, 4.000000, 4.000000, 4.000000, 4.000000, 4.000000, 4.000000, 4.000000, 4.000000
35.000000, 0.000000, 4189.230469, 4234.871582, 4208.717773, 4233.333008, 4225.127930, 4214.871582, 4203.589844, 4201.538574, 4200.000000, 4221.538574, 4185.127930, 4188.717773, 4202.051270, 4203.589844, 0.000000, 8246.000000, 8172.000000, 0.000000, 0.000000, 0.000000, -21127.000000, 632.307678, 4.000000, 4.000000, 4.000000, 4.000000, 4.000000, 4.000000, 4.000000, 4.000000, 4.000000, 4.000000, 4.000000, 4.000000, 4.000000, 4.000000, 4.000000, 4.000000
36.000000, 0.000000, 4189.743652, 4235.897461, 4203.076660, 4224.102539, 4218.461426, 4205.641113, 4200.512695, 4196.410156, 4198.974121, 4220.000000, 4183.589844, 4184.615234, 4191.281738, 4202.563965, 0.000000, 8246.000000, 8172.000000, 0.000000, 0.000000, 0.000000, -21127.000000, 640.512817, 4.000000, 4.000000, 4.000000, 4.000000, 4.000000, 4.000000, 4.000000, 4.000000, 4.000000, 4.000000, 4.000000, 4.000000, 4.000000, 4.000000, 4.000000, 4.000000
37.000000, 0.000000, 4182.051270, 4226.153809, 4203.076660, 4212.820313, 4209.230469, 4200.512695, 4202.051270, 4201.025391, 4202.051270, 4232.820313, 4184.102539, 4189.230469, 4181.025391, 4203.076660, 0.000000, 8244.000000, 8168.000000, 0.000000, 0.000000, 0.000000, -21127.000000, 648.205139, 4.000000, 4.000000, 4.000000, 4.000000, 4.000000, 4.000000, 4.000000, 4.000000, 4.000000, 4.000000, 4.000000, 4.000000, 4.000000, 4.000000, 4.000000, 4.000000
38.000000, 0.000000, 4183.076660, 4228.205078, 4210.769043, 4218.974121, 4212.820313, 4207.692383, 4200.000000, 4202.051270, 4203.589844, 4244.102539, 4183.589844, 4199.487305, 4190.256348, 4201.025391, 0.000000, 8244.000000, 8168.000000, 0.000000, 0.000000, 0.000000, -21127.000000, 655.897400, 4.000000, 4.000000, 4.000000, 4.000000, 4.000000, 4.000000, 4.000000, 4.000000, 4.000000, 4.000000, 4.000000, 4.000000, 4.000000, 4.000000, 4.000000, 4.000000
39.000000, 0.000000, 4188.205078, 4232.820313, 4216.922852, 4220.512695, 4220.000000, 4216.922852, 4201.538574, 4202.563965, 4207.179199, 4250.769043, 4192.820313, 4205.641113, 4202.051270, 4203.076660, 0.000000, 8242.000000, 8174.000000, 0.000000, 0.000000, 0.000000, -21127.000000, 664.102539, 4.000000, 4.000000, 4.000000, 4.000000, 4.000000, 4.000000, 4.000000, 4.000000, 4.000000, 4.000000, 4.000000, 4.000000, 4.000000, 4.000000, 4.000000, 4.000000
40.000000, 0.000000, 4180.512695, 4225.127930, 4212.307617, 4215.897461, 4209.743652, 4214.871582, 4205.127930, 4201.538574, 4206.666504, 4250.256348, 4199.487305, 4197.948730, 4195.384277, 4205.641113, 0.000000, 8242.000000, 8174.000000, 0.000000, 0.000000, 0.000000, -21127.000000, 671.794861, 4.000000, 4.000000, 4.000000, 4.000000, 4.000000, 4.000000, 4.000000, 4.000000, 4.000000, 4.000000, 4.000000, 4.000000, 4.000000, 4.000000, 4.000000, 4.000000
41.000000, 0.000000, 4173.846191, 4215.897461, 4205.127930, 4212.820313, 4193.333008, 4202.051270, 4195.384277, 4191.794922, 4193.333008, 4238.461426, 4189.743652, 4184.102539, 4185.127930, 4201.538574, 0.000000, 8237.000000, 8173.000000, 0.000000, 0.000000, 0.000000, -21127.000000, 680.000000, 4.000000, 4.000000, 4.000000, 4.000000, 4.000000, 4.000000, 4.000000, 4.000000, 4.000000, 4.000000, 4.000000, 4.000000, 4.000000, 4.000000, 4.000000, 4.000000
42.000000, 0.000000, 4171.794922, 4212.820313, 4204.102539, 4205.127930, 4201.025391, 4195.384277, 4183.589844, 4182.051270, 4185.641113, 4229.743652, 4181.025391, 4185.127930, 4183.589844, 4204.102539, 0.000000, 8237.000000, 8173.000000, 0.000000, 0.000000, 0.000000, -21127.000000, 687.692261, 4.000000, 4.000000, 4.000000, 4.000000, 4.000000, 4.000000, 4.000000, 4.000000, 4.000000, 4.000000, 4.000000, 4.000000, 4.000000, 4.000000, 4.000000, 4.000000
43.000000, 0.000000, 4178.461426, 4217.436035, 4209.230469, 4202.563965, 4218.974121, 4201.025391, 4193.846191, 4184.102539, 4195.897461, 4234.358887, 4184.102539, 4192.820313, 4183.589844, 4204.615234, 0.000000, 8230.000000, 8173.000000, 0.000000, 0.000000, 0.000000, -21127.000000, 695.384583, 4.000000, 4.000000, 4.000000, 4.000000, 4.000000, 4.000000, 4.000000, 4.000000, 4.000000, 4.000000, 4.000000, 4.000000, 4.000000, 4.000000, 4.000000, 4.000000
44.000000, 0.000000, 4182.051270, 4217.948730, 4213.846191, 4209.743652, 4214.871582, 4204.615234, 4204.102539, 4195.384277, 4203.076660, 4240.000000, 4186.153809, 4193.333008, 4185.641113, 4203.076660, 0.000000, 8230.000000, 8173.000000, 0.000000, 0.000000, 0.000000, -21127.000000, 703.076904, 4.000000, 4.000000, 4.000000, 4.000000, 4.000000, 4.000000, 4.000000, 4.000000, 4.000000, 4.000000, 4.000000, 4.000000, 4.000000, 4.000000, 4.000000, 4.000000
45.000000, 0.000000, 4177.436035, 4217.948730, 4212.307617, 4213.333008, 4203.589844, 4201.538574, 4192.820313, 4202.051270, 4198.974121, 4233.846191, 4185.641113, 4193.846191, 4192.307617, 4204.102539, 0.000000, 8224.000000, 8169.000000, 0.000000, 0.000000, 0.000000, -21127.000000, 711.282043, 4.000000, 4.000000, 4.000000, 4.000000, 4.000000, 4.000000, 4.000000, 4.000000, 4.000000, 4.000000, 4.000000, 4.000000, 4.000000, 4.000000, 4.000000, 4.000000
46.000000, 0.000000, 4185.127930, 4224.615234, 4214.871582, 4214.358887, 4210.256348, 4200.000000, 4182.051270, 4200.512695, 4198.461426, 4232.307617, 4192.307617, 4202.051270, 4201.538574, 4202.563965, 0.000000, 8224.000000, 8169.000000, 0.000000, 0.000000, 0.000000, -21127.000000, 718.974365, 4.000000, 4.000000, 4.000000, 4.000000, 4.000000, 4.000000, 4.000000, 4.000000, 4.000000, 4.000000, 4.000000, 4.000000, 4.000000, 4.000000, 4.000000, 4.000000
47.000000, 0.000000, 4185.641113, 4227.692383, 4217.436035, 4215.384277, 4216.410156, 4200.000000, 4185.641113, 4199.487305, 4201.538574, 4244.615234, 4195.897461, 4207.179199, 4205.641113, 4207.692383, 0.000000, 8224.000000, 8166.000000, 0.000000, 0.000000, 0.000000, -21127.000000, 726.666626, 4.000000, 4.000000, 4.000000, 4.000000, 4.000000, 4.000000, 4.000000, 4.000000, 4.000000, 4.000000, 4.000000, 4.000000, 4.000000, 4.000000, 4.000000, 4.000000
48.000000, 0.000000, 4174.871582, 4218.461426, 4208.717773, 4211.281738, 4200.512695, 4198.461426, 4190.256348, 4207.179199, 4197.948730, 4244.102539, 4185.127930, 4196.410156, 4198.974121, 4204.615234, 0.000000, 8224.000000, 8166.000000, 0.000000, 0.000000, 0.000000, -21127.000000, 734.358948, 4.000000, 4.000000, 4.000000, 4.000000, 4.000000, 4.000000, 4.000000, 4.000000, 4.000000, 4.000000, 4.000000, 4.000000, 4.000000, 4.000000, 4.000000, 4.000000
49.000000, 0.000000, 4171.281738, 4215.384277, 4203.589844, 4209.743652, 4194.358887, 4206.153809, 4197.948730, 4218.461426, 4205.641113, 4236.410156, 4182.563965, 4188.717773, 4195.384277, 4197.948730, 0.000000, 8214.000000, 8166.000000, 0.000000, 0.000000, 0.000000, -21127.000000, 742.564087, 4.000000, 4.000000, 4.000000, 4.000000, 4.000000, 4.000000, 4.000000, 4.000000, 4.000000, 4.000000, 4.000000, 4.000000, 4.000000, 4.000000, 4.000000, 4.000000
50.000000, 0.000000, 4174.871582, 4222.563965, 4209.230469, 4215.384277, 4219.487305, 4220.000000, 4206.153809, 4221.538574, 4216.922852, 4243.589844, 4196.410156, 4197.948730, 4204.615234, 4205.127930, 0.000000, 8214.000000, 8166.000000, 0.000000, 0.000000, 0.000000, -21127.000000, 750.256409, 4.000000, 4.000000, 4.000000, 4.000000, 4.000000, 4.000000, 4.000000, 4.000000, 4.000000, 4.000000, 4.000000, 4.000000, 4.000000, 4.000000, 4.000000, 4.000000
51.000000, 0.000000, 4182.563965, 4223.589844, 4210.256348, 4218.461426, 4240.512695, 4222.051270, 4204.615234, 4216.410156, 4211.281738, 4250.769043, 4201.538574, 4201.025391, 4209.230469, 4207.179199, 0.000000, 8216.000000, 8160.000000, 0.000000, 0.000000, 0.000000, -21127.000000, 757.948669, 4.000000, 4.000000, 4.000000, 4.000000, 4.000000, 4.000000, 4.000000, 4.000000, 4.000000, 4.000000, 4.000000, 4.000000, 4.000000, 4.000000, 4.000000, 4.000000
52.000000, 0.000000, 4184.102539, 4223.076660, 4203.589844, 4215.897461, 4226.153809, 4214.871582, 4202.051270, 4214.358887, 4207.692383, 4245.641113, 4193.846191, 4196.410156, 4207.179199, 4207.692383, 0.000000, 8216.000000, 8160.000000, 0.000000, 0.000000, 0.000000, -21127.000000, 766.153809, 4.000000, 4.000000, 4.000000, 4.000000, 4.000000, 4.000000, 4.000000, 4.000000, 4.000000, 4.000000, 4.000000, 4.000000, 4.000000, 4.000000, 4.000000, 4.000000
53.000000, 0.000000, 4183.589844, 4228.717773, 4203.076660, 4215.384277, 4217.436035, 4214.358887, 4202.563965, 4212.820313, 4212.820313, 4245.641113, 4194.871582, 4195.897461, 4210.769043, 4207.179199, 0.000000, 8215.000000, 8152.000000, 0.000000, 0.000000, 0.000000, -21127.000000, 773.846130, 4.000000, 4.000000, 4.000000, 4.000000, 4.000000, 4.000000, 4.000000, 4.000000, 4.000000, 4.000000, 4.000000, 4.000000, 4.000000, 4.000000, 4.000000, 4.000000
54.000000, 0.000000, 4186.153809, 4232.820313, 4201.538574, 4218.461426, 4234.358887, 4219.487305, 4202.051270, 4208.205078, 4209.230469, 4248.717773, 4203.076660, 4193.846191, 4217.948730, 4204.102539, 0.000000, 8215.000000, 8152.000000, 0.000000, 0.000000, 0.000000, -21127.000000, 781.538452, 4.000000, 4.000000, 4.000000, 4.000000, 4.000000, 4.000000, 4.000000, 4.000000, 4.000000, 4.000000, 4.000000, 4.000000, 4.000000, 4.000000, 4.000000, 4.000000
55.000000, 0.000000, 4181.538574, 4231.281738, 4200.512695, 4220.000000, 4230.769043, 4214.871582, 4202.051270, 4206.153809, 4203.076660, 4245.127930, 4202.563965, 4185.641113, 4217.436035, 4206.153809, 0.000000, 8210.000000, 8150.000000, 0.000000, 0.000000, 0.000000, -21127.000000, 789.743591, 4.000000, 4.000000, 4.000000, 4.000000, 4.000000, 4.000000, 4.000000, 4.000000, 4.000000, 4.000000, 4.000000, 4.000000, 4.000000, 4.000000, 4.000000, 4.000000
56.000000, 0.000000, 4177.948730, 4226.153809, 4202.563965, 4214.871582, 4200.000000, 4204.615234, 4199.487305, 4204.102539, 4202.563965, 4237.948730, 4194.358887, 4181.025391, 4208.205078, 4201.025391, 0.000000, 8210.000000, 8150.000000, 0.000000, 0.000000, 0.000000, -21127.000000, 797.435852, 4.000000, 4.000000, 4.000000, 4.000000, 4.000000, 4.000000, 4.000000, 4.000000, 4.000000, 4.000000, 4.000000, 4.000000, 4.000000, 4.000000, 4.000000, 4.000000
57.000000, 0.000000, 4173.846191, 4222.051270, 4201.025391, 4210.769043, 4203.076660, 4207.179199, 4198.974121, 4200.512695, 4194.358887, 4233.846191, 4193.333008, 4185.127930, 4202.051270, 4201.538574, 0.000000, 8209.000000, 8148.000000, 0.000000, 0.000000, 0.000000, -21127.000000, 805.128174, 4.000000, 4.000000, 4.000000, 4.000000, 4.000000, 4.000000, 4.000000, 4.000000, 4.000000, 4.000000, 4.000000, 4.000000, 4.000000, 4.000000, 4.000000, 4.000000
58.000000, 0.000000, 4173.846191, 4220.512695, 4200.512695, 4211.794922, 4234.358887, 4214.358887, 4203.589844, 4194.871582, 4184.615234, 4228.717773, 4195.384277, 4192.820313, 4204.102539, 4205.127930, 0.000000, 8209.000000, 8148.000000, 0.000000, 0.000000, 0.000000, -21127.000000, 812.820496, 4.000000, 4.000000, 4.000000, 4.000000, 4.000000, 4.000000, 4.000000, 4.000000, 4.000000, 4.000000, 4.000000, 4.000000, 4.000000, 4.000000, 4.000000, 4.000000
59.000000, 0.000000, 4180.000000, 4220.512695, 4207.179199, 4210.769043, 4232.820313, 4207.179199, 4201.025391, 4192.307617, 4183.589844, 4219.487305, 4195.384277, 4196.410156, 4205.641113, 4203.589844, 0.000000, 8208.000000, 8146.000000, 0.000000, 0.000000, 0.000000, -21127.000000, 821.025635, 4.000000, 4.000000, 4.000000, 4.000000, 4.000000, 4.000000, 4.000000, 4.000000, 4.000000, 4.000000, 4.000000, 4.000000, 4.000000, 4.000000, 4.000000, 4.000000
60.000000, 0.000000, 4180.000000, 4220.000000, 4216.922852, 4211.281738, 4211.794922, 4194.358887, 4189.743652, 4191.794922, 4187.179199, 4221.025391, 4197.948730, 4197.948730, 4206.153809, 4206.153809, 0.000000, 8208.000000, 8146.000000, 0.000000, 0.000000, 0.000000, -21127.000000, 828.717957, 4.000000, 4.000000, 4.000000, 4.000000, 4.000000, 4.000000, 4.000000, 4.000000, 4.000000, 4.000000, 4.000000, 4.000000, 4.000000, 4.000000, 4.000000, 4.000000
61.000000, 0.000000, 4181.538574, 4220.000000, 4216.922852, 4213.846191, 4202.563965, 4188.717773, 4183.076660, 4190.769043, 4189.743652, 4225.127930, 4197.436035, 4200.512695, 4204.615234, 4204.102539, 0.000000, 8209.000000, 8144.000000, 0.000000, 0.000000, 0.000000, -21127.000000, 836.923035, 4.000000, 4.000000, 4.000000, 4.000000, 4.000000, 4.000000, 4.000000, 4.000000, 4.000000, 4.000000, 4.000000, 4.000000, 4.000000, 4.000000, 4.000000, 4.000000
62.000000, 0.000000, 4177.436035, 4218.461426, 4207.179199, 4205.127930, 4196.410156, 4189.743652, 4183.076660, 4189.743652, 4189.230469, 4218.461426, 4193.333008, 4200.000000, 4201.025391, 4203.589844, 0.000000, 8209.000000, 8144.000000, 0.000000, 0.000000, 0.000000, -21127.000000, 844.615356, 4.000000, 4.000000, 4.000000, 4.000000, 4.000000, 4.000000, 4.000000, 4.000000, 4.000000, 4.000000, 4.000000, 4.000000, 4.000000, 4.000000, 4.000000, 4.000000
63.000000, 0.000000, 4177.948730, 4217.436035, 4209.743652, 4199.487305, 4203.589844, 4196.922852, 4189.230469, 4194.871582, 4191.281738, 4217.948730, 4197.948730, 4205.641113, 4206.666504, 4206.666504, 0.000000, 8215.000000, 8141.000000, 0.000000, 0.000000, 0.000000, -21127.000000, 852.307678, 4.000000, 4.000000, 4.000000, 4.000000, 4.000000, 4.000000, 4.000000, 4.000000, 4.000000, 4.000000, 4.000000, 4.000000, 4.000000, 4.000000, 4.000000, 4.000000
64.000000, 0.000000, 4186.666504, 4222.051270, 4221.538574, 4209.743652, 4215.384277, 4201.538574, 4195.384277, 4198.461426, 4195.384277, 4222.051270, 4205.641113, 4213.846191, 4217.948730, 4205.127930, 3359.000000, 8215.000000, 8141.000000, 0.000000, 0.000000, 0.000000, -21127.000000, 860.512817, 4.000000, 4.000000, 4.000000, 4.000000, 4.000000, 4.000000, 4.000000, 4.000000, 4.000000, 4.000000, 4.000000, 4.000000, 4.000000, 4.000000, 4.000000, 4.000000
65.000000, 0.000000, 4181.025391, 4223.076660, 4218.461426, 4215.897461, 4214.358887, 4195.384277, 4196.922852, 4187.692383, 4188.205078, 4214.358887, 4202.051270, 4209.230469, 4214.871582, 4205.127930, 3509.000000, 8205.000000, 8141.000000, 0.000000, 0.000000, 0.000000, -21127.000000, 868.205078, 4.000000, 4.000000, 4.000000, 4.000000, 4.000000, 4.000000, 4.000000, 4.000000, 4.000000, 4.000000, 4.000000, 4.000000, 4.000000, 4.000000, 4.000000, 4.000000
66.000000, 0.000000, 4178.974121, 4221.538574, 4216.410156, 4214.358887, 4225.127930, 4200.512695, 4196.922852, 4179.487305, 4181.025391, 4211.794922, 4197.948730, 4202.563965, 4210.256348, 4202.563965, 2553.000000, 8205.000000, 8141.000000, 0.000000, 0.000000, 0.000000, -21127.000000, 875.897400, 4.000000, 4.000000, 4.000000, 4.000000, 4.000000, 4.000000, 4.000000, 4.000000, 4.000000, 4.000000, 4.000000, 4.000000, 4.000000, 4.000000, 4.000000, 4.000000
67.000000, 0.000000, 4183.589844, 4227.179199, 4224.615234, 4218.974121, 4235.897461, 4215.384277, 4201.538574, 4188.717773, 4185.127930, 4220.512695, 4202.051270, 4207.179199, 4217.436035, 4203.076660, 2210.000000, 8205.000000, 8144.000000, 0.000000, 0.000000, 0.000000, -21127.000000, 884.102539, 4.000000, 4.000000, 4.000000, 4.000000, 4.000000, 4.000000, 4.000000, 4.000000, 4.000000, 4.000000, 4.000000, 4.000000, 4.000000, 4.000000, 4.000000, 4.000000
68.000000, 0.000000, 4179.487305, 4228.205078, 4218.461426, 4220.000000, 4215.384277, 4212.820313, 4203.076660, 4198.974121, 4186.666504, 4218.461426, 4196.922852, 4201.025391, 4210.769043, 4204.102539, 3530.000000, 8205.000000, 8144.000000, 0.000000, 0.000000, 0.000000, -21127.000000, 891.794861, 4.000000, 4.000000, 4.000000, 4.000000, 4.000000, 4.000000, 4.000000, 4.000000, 4.000000, 4.000000, 4.000000, 4.000000, 4.000000, 4.000000, 4.000000, 4.000000
69.000000, 0.000000, 4179.487305, 4224.102539, 4209.230469, 4215.384277, 4205.127930, 4201.538574, 4196.410156, 4197.436035, 4189.230469, 4212.820313, 4192.820313, 4192.820313, 4202.051270, 4200.512695, 3542.000000, 8207.000000, 8144.000000, 0.000000, 0.000000, 0.000000, -21127.000000, 899.487183, 4.000000, 4.000000, 4.000000, 4.000000, 4.000000, 4.000000, 4.000000, 4.000000, 4.000000, 4.000000, 4.000000, 4.000000, 4.000000, 4.000000, 4.000000, 4.000000
70.000000, 0.000000, 4181.538574, 4227.692383, 4214.871582, 4218.461426, 4229.743652, 4202.051270, 4196.410156, 4197.948730, 4201.025391, 4218.461426, 4207.692383, 4209.743652, 4212.820313, 4206.666504, 2846.000000, 8207.000000, 8144.000000, 0.000000, 0.000000, 0.000000, -21127.000000, 907.692261, 4.000000, 4.000000, 4.000000, 4.000000, 4.000000, 4.000000, 4.000000, 4.000000, 4.000000, 4.000000, 4.000000, 4.000000, 4.000000, 4.000000, 4.000000, 4.000000
71.000000, 0.000000, 4183.589844, 4234.358887, 4218.461426, 4220.512695, 4235.897461, 4205.127930, 4195.384277, 4206.666504, 4204.102539, 4223.076660, 4216.410156, 4219.487305, 4218.974121, 4208.205078, 3511.000000, 8209.000000, 8144.000000, 0.000000, 0.000000, 0.000000, -21127.000000, 915.384583, 4.000000, 4.000000, 4.000000, 4.000000, 4.000000, 4.000000, 4.000000, 4.000000, 4.000000, 4.000000, 4.000000, 4.000000, 4.000000, 4.000000, 4.000000, 4.000000
72.000000, 0.000000, 4183.076660, 4231.794922, 4212.307617, 4216.410156, 4219.487305, 4201.025391, 4188.205078, 4210.769043, 4198.461426, 4224.615234, 4207.692383, 4205.641113, 4209.230469, 4205.127930, 3271.000000, 8209.000000, 8144.000000, 0.000000, 0.000000, 0.000000, -21127.000000, 923.076904, 4.000000, 4.000000, 4.000000, 4.000000, 4.000000, 4.000000, 4.000000, 4.000000, 4.000000, 4.000000, 4.000000, 4.000000, 4.000000, 4.000000, 4.000000, 4.000000
73.000000, 0.000000, 4174.358887, 4225.127930, 4204.102539, 4216.922852, 4214.871582, 4200.000000, 4192.307617, 4199.487305, 4186.666504, 4214.871582, 4198.974121, 4192.307617, 4203.589844, 4206.666504, 3536.000000, 8201.000000, 8149.000000, 0.000000, 0.000000, 0.000000, -21127.000000, 931.282043, 4.000000, 4.000000, 4.000000, 4.000000, 4.000000, 4.000000, 4.000000, 4.000000, 4.000000, 4.000000, 4.000000, 4.000000, 4.000000, 4.000000, 4.000000, 4.000000
74.000000, 0.000000, 4167.692383, 4220.512695, 4195.384277, 4211.794922, 4213.333008, 4202.051270, 4197.948730, 4189.743652, 4173.846191, 4192.307617, 4191.281738, 4184.615234, 4201.025391, 4204.102539, 3541.000000, 8201.000000, 8149.000000, 0.000000, 0.000000, 0.000000, -21127.000000, 938.974365, 4.000000, 4.000000, 4.000000, 4.000000, 4.000000, 4.000000, 4.000000, 4.000000, 4.000000, 4.000000, 4.000000, 4.000000, 4.000000, 4.000000, 4.000000, 4.000000
75.000000, 0.000000, 4164.102539, 4216.410156, 4187.692383, 4197.436035, 4210.769043, 4197.948730, 4191.794922, 4190.256348, 4176.922852, 4187.692383, 4182.563965, 4180.000000, 4195.897461, 4205.127930, 607.000000, 8197.000000, 8153.000000, 0.000000, 0.000000, 0.000000, -21127.000000, 947.179443, 4.000000, 4.000000, 4.000000, 4.000000, 4.000000, 4.000000, 4.000000, 4.000000, 4.000000, 4.000000, 4.000000, 4.000000, 4.000000, 4.000000, 4.000000, 4.000000
76.000000, 0.000000, 4168.205078, 4220.000000, 4187.692383, 4196.410156, 4218.974121, 4197.436035, 4190.256348, 4190.769043, 4184.615234, 4196.922852, 4183.076660, 4182.051270, 4196.922852, 4204.102539, 3480.000000, 8197.000000, 8153.000000, 0.000000, 0.000000, 0.000000, -21127.000000, 954.871765, 4.000000, 4.000000, 4.000000, 4.000000, 4.000000, 4.000000, 4.000000, 4.000000, 4.000000, 4.000000, 4.000000, 4.000000, 4.000000, 4.000000, 4.000000, 4.000000
77.000000, 0.000000, 4167.179199, 4223.076660, 4190.769043, 4202.051270, 4223.589844, 4201.025391, 4200.512695, 4185.641113, 4174.358887, 4192.820313, 4187.179199, 4184.615234, 4198.974121, 4202.563965, 3411.000000, 8198.000000, 8151.000000, 0.000000, 0.000000, 0.000000, -21127.000000, 962.564087, 4.000000, 4.000000, 4.000000, 4.000000, 4.000000, 4.000000, 4.000000, 4.000000, 4.000000, 4.000000, 4.000000, 4.000000, 4.000000, 4.000000, 4.000000, 4.000000
78.000000, 0.000000, 4155.897461, 4217.436035, 4184.615234, 4192.820313, 4216.922852, 4204.102539, 4204.102539, 4182.563965, 4164.102539, 4178.974121, 4180.512695, 4180.000000, 4187.179199, 4205.127930, 3541.000000, 8198.000000, 8151.000000, 0.000000, 0.000000, 0.000000, -21127.000000, 970.769226, 4.000000, 4.000000, 4.000000, 4.000000, 4.000000, 4.000000, 4.000000, 4.000000, 4.000000, 4.000000, 4.000000, 4.000000, 4.000000, 4.000000, 4.000000, 4.000000
79.000000, 0.000000, 4156.410156, 4211.794922, 4182.051270, 4188.205078, 4213.333008, 4204.615234, 4196.922852, 4190.256348, 4173.333008, 4177.436035, 4177.948730, 4181.025391, 4181.538574, 4203.076660, 607.000000, 8200.000000, 8154.000000, 0.000000, 0.000000, 0.000000, -21127.000000, 978.461487, 4.000000, 4.000000, 4.000000, 4.000000, 4.000000, 4.000000, 4.000000, 4.000000, 4.000000, 4.000000, 4.000000, 4.000000, 4.000000, 4.000000, 4.000000, 4.000000
80.000000, 0.000000, 4161.025391, 4212.307617, 4194.871582, 4197.948730, 4218.461426, 4203.589844, 4195.384277, 4204.615234, 4190.256348, 4191.281738, 4190.769043, 4191.794922, 4192.307617, 4204.102539, 3480.000000, 8200.000000, 8154.000000, 0.000000, 0.000000, 0.000000, -21127.000000, 986.153809, 4.000000, 4.000000, 4.000000, 4.000000, 4.000000, 4.000000, 4.000000, 4.000000, 4.000000, 4.000000, 4.000000, 4.000000, 4.000000, 4.000000, 4.000000, 4.000000
81.000000, 0.000000, 4163.589844, 4216.410156, 4206.666504, 4200.512695, 4211.794922, 4203.589844, 4198.974121, 4211.281738, 4196.922852, 4202.051270, 4203.076660, 4199.487305, 4201.538574, 4206.666504, 3411.000000, 8201.000000, 8155.000000, 0.000000, 0.000000, 0.000000, -21127.000000, 994.358948, 4.000000, 4.000000, 4.000000, 4.000000, 4.000000, 4.000000, 4.000000, 4.000000, 4.000000, 4.000000, 4.000000, 4.000000, 4.000000, 4.000000, 4.000000, 4.000000
82.000000, 0.000000, 4165.127930, 4214.871582, 4205.641113, 4195.897461, 4195.897461, 4197.436035, 4193.333008, 4199.487305, 4191.794922, 4196.410156, 4206.666504, 4203.076660, 4203.076660, 4206.153809, 3541.000000, 8201.000000, 8155.000000, 0.000000, 0.000000, 0.000000, -21126.000000, 2.051282, 4.000000, 4.000000, 4.000000, 4.000000, 4.000000, 4.000000, 4.000000, 4.000000, 4.000000, 4.000000, 4.000000, 4.000000, 4.000000, 4.000000, 4.000000, 4.000000
83.000000, 0.000000, 4162.051270, 4215.384277, 4201.538574, 4198.974121, 4200.000000, 4185.641113, 4182.051270, 4182.051270, 4177.948730, 4185.127930, 4205.641113, 4201.538574, 4206.153809, 4210.256348, 607.000000, 8191.000000, 8163.000000, 0.000000, 0.000000, 0.000000, -21126.000000, 9.743589, 4.000000, 4.000000, 4.000000, 4.000000, 4.000000, 4.000000, 4.000000, 4.000000, 4.000000, 4.000000, 4.000000, 4.000000, 4.000000, 4.000000, 4.000000, 4.000000
84.000000, 0.000000, 4169.743652, 4225.127930, 4209.230469, 4208.717773, 4221.538574, 4190.769043, 4182.051270, 4180.512695, 4175.384277, 4188.205078, 4209.230469, 4201.538574, 4213.846191, 4206.153809, 3480.000000, 8191.000000, 8163.000000, 0.000000, 0.000000, 0.000000, -21126.000000, 17.948717, 4.000000, 4.000000, 4.000000, 4.000000, 4.000000, 4.000000, 4.000000, 4.000000, 4.000000, 4.000000, 4.000000, 4.000000, 4.000000, 4.000000, 4.000000, 4.000000
85.000000, 0.000000, 4175.384277, 4232.307617, 4213.846191, 4213.846191, 4221.025391, 4200.000000, 4187.692383, 4186.153809, 4184.102539, 4191.794922, 4217.948730, 4206.153809, 4220.000000, 4204.615234, 3411.000000, 8194.000000, 8165.000000, 0.000000, 0.000000, 0.000000, -21126.000000, 25.641026, 4.000000, 4.000000, 4.000000, 4.000000, 4.000000, 4.000000, 4.000000, 4.000000, 4.000000, 4.000000, 4.000000, 4.000000, 4.000000, 4.000000, 4.000000, 4.000000
86.000000, 0.000000, 4170.769043, 4230.256348, 4207.179199, 4214.871582, 4208.205078, 4192.307617, 4185.641113, 4185.127930, 4185.127930, 4185.641113, 4215.897461, 4202.563965, 4215.384277, 4205.127930, 3541.000000, 8194.000000, 8165.000000, 0.000000, 0.000000, 0.000000, -21126.000000, 33.333332, 4.000000, 4.000000, 4.000000, 4.000000, 4.000000, 4.000000, 4.000000, 4.000000, 4.000000, 4.000000, 4.000000, 4.000000, 4.000000, 4.000000, 4.000000, 4.000000
87.000000, 0.000000, 4170.256348, 4228.717773, 4205.641113, 4214.358887, 4212.820313, 4190.256348, 4185.641113, 4180.512695, 4172.307617, 4186.666504, 4206.666504, 4197.948730, 4206.666504, 4201.025391, 607.000000, 8195.000000, 8161.000000, 0.000000, 0.000000, 0.000000, -21126.000000, 41.538460, 4.000000, 4.000000, 4.000000, 4.000000, 4.000000, 4.000000, 4.000000, 4.000000, 4.000000, 4.000000, 4.000000, 4.000000, 4.000000, 4.000000, 4.000000, 4.000000
88.000000, 0.000000, 4166.666504, 4226.153809, 4209.743652, 4213.333008, 4210.769043, 4198.974121, 4189.743652, 4180.000000, 4164.102539, 4185.641113, 4202.563965, 4198.461426, 4205.641113, 4203.076660, 3480.000000, 8195.000000, 8161.000000, 0.000000, 0.000000, 0.000000, -21126.000000, 49.230766, 4.000000, 4.000000, 4.000000, 4.000000, 4.000000, 4.000000, 4.000000, 4.000000, 4.000000, 4.000000, 4.000000, 4.000000, 4.000000, 4.000000, 4.000000, 4.000000
89.000000, 0.000000, 4170.256348, 4222.563965, 4212.820313, 4213.846191, 4209.230469, 4202.051270, 4190.769043, 4186.666504, 4173.846191, 4182.051270, 4203.589844, 4199.487305, 4211.794922, 4203.076660, 3411.000000, 8191.000000, 8162.000000, 0.000000, 0.000000, 0.000000, -21126.000000, 57.435898, 4.000000, 4.000000, 4.000000, 4.000000, 4.000000, 4.000000, 4.000000, 4.000000, 4.000000, 4.000000, 4.000000, 4.000000, 4.000000, 4.000000, 4.000000, 4.000000
90.000000, 0.000000, 4172.820313, 4225.641113, 4214.358887, 4214.871582, 4227.179199, 4207.179199, 4193.333008, 4200.512695, 4187.692383, 4190.769043, 4208.205078, 4200.512695, 4216.410156, 4204.102539, 3541.000000, 8191.000000, 8162.000000, 0.000000, 0.000000, 0.000000, -21126.000000, 65.128204, 4.000000, 4.000000, 4.000000, 4.000000, 4.000000, 4.000000, 4.000000, 4.000000, 4.000000, 4.000000, 4.000000, 4.000000, 4.000000, 4.000000, 4.000000, 4.000000
91.000000, 0.000000, 4169.230469, 4229.230469, 4212.307617, 4216.922852, 4235.897461, 4215.897461, 4196.922852, 4202.051270, 4189.743652, 4195.384277, 4212.820313, 4205.127930, 4212.307617, 4204.615234, 607.000000, 8192.000000, 8164.000000, 0.000000, 0.000000, 0.000000, -21126.000000, 72.820511, 4.000000, 4.000000, 4.000000, 4.000000, 4.000000, 4.000000, 4.000000, 4.000000, 4.000000, 4.000000, 4.000000, 4.000000, 4.000000, 4.000000, 4.000000, 4.000000
92.000000, 0.000000, 4172.820313, 4229.743652, 4212.307617, 4223.076660, 4231.281738, 4211.794922, 4198.974121, 4190.769043, 4185.127930, 4187.179199, 4214.358887, 4210.769043, 4208.717773, 4201.025391, 3480.000000, 8192.000000, 8164.000000, 0.000000, 0.000000, 0.000000, -21126.000000, 81.025642, 4.000000, 4.000000, 4.000000, 4.000000, 4.000000, 4.000000, 4.000000, 4.000000, 4.000000, 4.000000, 4.000000, 4.000000, 4.000000, 4.000000, 4.000000, 4.000000
93.000000, 0.000000, 4181.538574, 4232.820313, 4220.512695, 4231.281738, 4231.281738, 4203.589844, 4198.974121, 4192.820313, 4187.179199, 4190.769043, 4222.563965, 4218.461426, 4221.025391, 4207.179199, 3411.000000, 8190.000000, 8160.000000, 0.000000, 0.000000, 0.000000, -21126.000000, 88.717949, 4.000000, 4.000000, 4.000000, 4.000000, 4.000000, 4.000000, 4.000000, 4.000000, 4.000000, 4.000000, 4.000000, 4.000000, 4.000000, 4.000000, 4.000000, 4.000000
94.000000, 0.000000, 4188.717773, 4234.871582, 4225.127930, 4234.358887, 4222.051270, 4201.538574, 4194.358887, 4201.538574, 4193.333008, 4201.538574, 4230.769043, 4221.538574, 4232.307617, 4208.717773, 3541.000000, 8190.000000, 8160.000000, 0.000000, 0.000000, 0.000000, -21126.000000, 96.410255, 4.000000, 4.000000, 4.000000, 4.000000, 4.000000, 4.000000, 4.000000, 4.000000, 4.000000, 4.000000, 4.000000, 4.000000, 4.000000, 4.000000, 4.000000, 4.000000
95.000000, 0.000000, 4180.512695, 4231.794922, 4219.487305, 4226.666504, 4209.230469, 4200.512695, 4190.256348, 4195.384277, 4188.717773, 4187.692383, 4221.538574, 4214.871582, 4224.102539, 4206.153809, 607.000000, 8192.000000, 8164.000000, 0.000000, 0.000000, 0.000000, -21126.000000, 104.615379, 4.000000, 4.000000, 4.000000, 4.000000, 4.000000, 4.000000, 4.000000, 4.000000, 4.000000, 4.000000, 4.000000, 4.000000, 4.000000, 4.000000, 4.000000, 4.000000
96.000000, 0.000000, 4172.820313, 4227.179199, 4220.000000, 4215.384277, 4221.538574, 4202.563965, 4190.769043, 4183.589844, 4173.846191, 4161.025391, 4208.717773, 4208.717773, 4211.281738, 4202.563965, 3480.000000, 8192.000000, 8164.000000, 0.000000, 0.000000, 0.000000, -21126.000000, 112.307686, 4.000000, 4.000000, 4.000000, 4.000000, 4.000000, 4.000000, 4.000000, 4.000000, 4.000000, 4.000000, 4.000000, 4.000000, 4.000000, 4.000000, 4.000000, 4.000000
97.000000, 0.000000, 4174.871582, 4221.538574, 4221.025391, 4213.846191, 4227.179199, 4202.563965, 4188.717773, 4183.076660, 4165.127930, 4154.871582, 4206.153809, 4199.487305, 4206.153809, 4200.000000, 3411.000000, 8186.000000, 8176.000000, 0.000000, 0.000000, 0.000000, -21126.000000, 120.512817, 4.000000, 4.000000, 4.000000, 4.000000, 4.000000, 4.000000, 4.000000, 4.000000, 4.000000, 4.000000, 4.000000, 4.000000, 4.000000, 4.000000, 4.000000, 4.000000
98.000000, 0.000000, 4169.230469, 4217.436035, 4212.307617, 4214.871582, 4212.820313, 4202.051270, 4187.179199, 4185.641113, 4167.692383, 4158.461426, 4200.512695, 4193.333008, 4201.025391, 4206.666504, 3541.000000, 8186.000000, 8176.000000, 0.000000, 0.000000, 0.000000, -21126.000000, 128.205124, 4.000000, 4.000000, 4.000000, 4.000000, 4.000000, 4.000000, 4.000000, 4.000000, 4.000000, 4.000000, 4.000000, 4.000000, 4.000000, 4.000000, 4.000000, 4.000000
99.000000, 0.000000, 4168.205078, 4218.461426, 4206.666504, 4206.666504, 4213.333008, 4200.000000, 4186.666504, 4185.641113, 4172.307617, 4145.641113, 4196.410156, 4192.820313, 4197.948730, 4203.589844, 607.000000, 8184.000000, 8175.000000, 0.000000, 0.000000, 0.000000, -21126.000000, 135.897430, 4.000000, 4.000000, 4.000000, 4.000000, 4.000000, 4.000000, 4.000000, 4.000000, 4.000000, 4.000000, 4.000000, 4.000000, 4.000000, 4.000000, 4.000000, 4.000000
100.000000, 0.000000, 4174.358887, 4220.512695, 4202.563965, 4203.076660, 4216.410156, 4189.743652, 4179.487305, 4184.615234, 4174.358887, 4141.025391, 4202.051270, 4190.256348, 4207.692383, 4200.000000, 3480.000000, 8184.000000, 8175.000000, 0.000000, 0.000000, 0.000000, -21126.000000, 143.589737, 4.000000, 4.000000, 4.000000, 4.000000, 4.000000, 4.000000, 4.000000, 4.000000, 4.000000, 4.000000, 4.000000, 4.000000, 4.000000, 4.000000, 4.000000, 4.000000
101.000000, 0.000000, 4175.384277, 4222.051270, 4198.974121, 4207.692383, 4201.025391, 4183.076660, 4174.358887, 4179.487305, 4168.717773, 4150.256348, 4198.461426, 4190.256348, 4205.641113, 4205.127930, 3411.000000, 8179.000000, 8173.000000, 0.000000, 0.000000, 0.000000, -21126.000000, 151.794861, 4.000000, 4.000000, 4.000000, 4.000000, 4.000000, 4.000000, 4.000000, 4.000000, 4.000000, 4.000000, 4.000000, 4.000000, 4.000000, 4.000000, 4.000000, 4.000000
102.000000, 0.000000, 4168.205078, 4215.897461, 4204.615234, 4203.589844, 4196.922852, 4189.230469, 4178.974121, 4173.846191, 4156.922852, 4141.025391, 4184.615234, 4193.333008, 4178.461426, 4203.076660, 3541.000000, 8179.000000, 8173.000000, 0.000000, 0.000000, 0.000000, -21126.000000, 159.487183, 4.000000, 4.000000, 4.000000, 4.000000, 4.000000, 4.000000, 4.000000, 4.000000, 4.000000, 4.000000, 4.000000, 4.000000, 4.000000, 4.000000, 4.000000, 4.000000
103.000000, 0.000000, 4157.436035, 4203.589844, 4216.410156, 4200.000000, 4213.333008, 4196.410156, 4179.487305, 4174.358887, 4153.846191, 4126.153809, 4183.589844, 4197.436035, 4173.846191, 4205.641113, 607.000000, 8177.000000, 8167.000000, 0.000000, 0.000000, 0.000000, -21126.000000, 167.692307, 4.000000, 4.000000, 4.000000, 4.000000, 4.000000, 4.000000, 4.000000, 4.000000, 4.000000, 4.000000, 4.000000, 4.000000, 4.000000, 4.000000, 4.000000, 4.000000
104.000000, 0.000000, 4163.589844, 4204.615234, 4213.846191, 4206.153809, 4212.820313, 4185.641113, 4167.692383, 4168.717773, 4154.358887, 4126.153809, 4184.615234, 4195.384277, 4194.358887, 4206.153809, 3480.000000, 8177.000000, 8167.000000, 0.000000, 0.000000, 0.000000, -21126.000000, 175.384613, 4.000000, 4.000000, 4.000000, 4.000000, 4.000000, 4.000000, 4.000000, 4.000000, 4.000000, 4.000000, 4.000000, 4.000000, 4.000000, 4.000000, 4.000000, 4.000000
105.000000, 0.000000, 4165.641113, 4203.076660, 4192.820313, 4197.948730, 4163.589844, 4178.461426, 4166.666504, 4153.846191, 4144.615234, 4118.461426, 4175.384277, 4181.025391, 4188.717773, 4201.025391, 3411.000000, 8168.000000, 8168.000000, 0.000000, 0.000000, 0.000000, -21126.000000, 183.589737, 4.000000, 4.000000, 4.000000, 4.000000, 4.000000, 4.000000, 4.000000, 4.000000, 4.000000, 4.000000, 4.000000, 4.000000, 4.000000, 4.000000, 4.000000, 4.000000
106.000000, 0.000000, 4145.641113, 4183.589844, 4171.794922, 4173.846191, 4118.974121, 4196.922852, 4181.025391, 4150.769043, 4141.025391, 4095.384521, 4169.743652, 4160.512695, 4170.769043, 4203.076660, 3541.000000, 8168.000000, 8168.000000, 0.000000, 0.000000, 0.000000, -21126.000000, 191.282043, 4.000000, 4.000000, 4.000000, 4.000000, 4.000000, 4.000000, 4.000000, 4.000000, 4.000000, 4.000000, 4.000000, 4.000000, 4.000000, 4.000000, 4.000000, 4.000000
107.000000, 0.000000, 4158.974121, 4191.281738, 4181.538574, 4190.256348, 4161.538574, 4221.025391, 4200.000000, 4187.692383, 4174.358887, 4105.127930, 4187.179199, 4168.717773, 4201.025391, 4205.641113, 607.000000, 8160.000000, 8154.000000, 0.000000, 0.000000, 0.000000, -21126.000000, 198.974350, 4.000000, 4.000000, 4.000000, 4.000000, 4.000000, 4.000000, 4.000000, 4.000000, 4.000000, 4.000000, 4.000000, 4.000000, 4.000000, 4.000000, 4.000000, 4.000000
108.000000, 0.000000, 4178.461426, 4210.256348, 4197.436035, 4215.897461, 4191.281738, 4229.230469, 4208.717773, 4219.487305, 4205.641113, 4139.487305, 4213.846191, 4190.256348, 4241.025391, 4208.717773, 3480.000000, 8160.000000, 8154.000000, 0.000000, 0.000000, 0.000000, -21126.000000, 206.666656, 4.000000, 4.000000, 4.000000, 4.000000, 4.000000, 4.000000, 4.000000, 4.000000, 4.000000, 4.000000, 4.000000, 4.000000, 4.000000, 4.000000, 4.000000, 4.000000
109.000000, 0.000000, 4183.076660, 4211.281738, 4210.256348, 4205.127930, 4173.333008, 4233.846191, 4218.974121, 4225.127930, 4210.256348, 4167.692383, 4242.051270, 4206.666504, 4264.102539, 4210.256348, 3411.000000, 8159.000000, 8156.000000, 0.000000, 0.000000, 0.000000, -21126.000000, 214.871796, 4.000000, 4.000000, 4.000000, 4.000000, 4.000000, 4.000000, 4.000000, 4.000000, 4.000000, 4.000000, 4.000000, 4.000000, 4.000000, 4.000000, 4.000000, 4.000000
110.000000, 0.000000, 4193.333008, 4216.410156, 4226.666504, 4194.358887, 4188.717773, 4230.256348, 4228.205078, 4229.743652, 4212.820313, 4177.948730, 4254.871582, 4228.205078, 4276.922852, 4210.769043, 3541.000000, 8159.000000, 8156.000000, 0.000000, 0.000000, 0.000000, -21126.000000, 222.564102, 4.000000, 4.000000, 4.000000, 4.000000, 4.000000, 4.000000, 4.000000, 4.000000, 4.000000, 4.000000, 4.000000, 4.000000, 4.000000, 4.000000, 4.000000, 4.000000
111.000000, 0.000000, 4193.333008, 4223.076660, 4227.692383, 4201.025391, 4222.051270, 4213.846191, 4220.512695, 4228.717773, 4215.897461, 4150.769043, 4237.436035, 4228.205078, 4260.512695, 4209.743652, 607.000000, 8169.000000, 8168.000000, 0.000000, 0.000000, 0.000000, -21126.000000, 230.769226, 4.000000, 4.000000, 4.000000, 4.000000, 4.000000, 4.000000, 4.000000, 4.000000, 4.000000, 4.000000, 4.000000, 4.000000, 4.000000, 4.000000, 4.000000, 4.000000
112.000000, 0.000000, 4194.358887, 4222.563965, 4223.076660, 4207.692383, 4236.922852, 4216.410156, 4214.358887, 4226.666504, 4220.000000, 4116.410156, 4225.641113, 4212.307617, 4248.717773, 4204.615234, 3480.000000, 8169.000000, 8168.000000, 0.000000, 0.000000, 0.000000, -21126.000000, 238.461533, 4.000000, 4.000000, 4.000000, 4.000000, 4.000000, 4.000000, 4.000000, 4.000000, 4.000000, 4.000000, 4.000000, 4.000000, 4.000000, 4.000000, 4.000000, 4.000000
113.000000, 0.000000, 4204.102539, 4232.307617, 4229.743652, 4208.717773, 4253.846191, 4235.384277, 4223.076660, 4232.820313, 4226.153809, 4114.358887, 4239.487305, 4218.461426, 4264.615234, 4210.769043, 3411.000000, 8181.000000, 8183.000000, 0.000000, 0.000000, 0.000000, -21126.000000, 246.153839, 4.000000, 4.000000, 4.000000, 4.000000, 4.000000, 4.000000, 4.000000, 4.000000, 4.000000, 4.000000, 4.000000, 4.000000, 4.000000, 4.000000, 4.000000, 4.000000
114.000000, 0.000000, 4201.538574, 4235.897461, 4222.051270, 4195.897461, 4264.615234, 4230.256348, 4227.179199, 4228.717773, 4214.871582, 4111.281738, 4236.922852, 4217.948730, 4259.487305, 4211.794922, 3541.000000, 8181.000000, 8183.000000, 0.000000, 0.000000, 0.000000, -21126.000000, 254.358963, 4.000000, 4.000000, 4.000000, 4.000000, 4.000000, 4.000000, 4.000000, 4.000000, 4.000000, 4.000000, 4.000000, 4.000000, 4.000000, 4.000000, 4.000000, 4.000000
115.000000, 0.000000, 4185.641113, 4221.025391, 4201.025391, 4167.692383, 4253.846191, 4215.384277, 4217.948730, 4207.692383, 4196.410156, 4075.897217, 4217.436035, 4195.384277, 4238.461426, 4203.076660, 607.000000, 8184.000000, 8179.000000, 0.000000, 0.000000, 0.000000, -21126.000000, 262.051270, 4.000000, 4.000000, 4.000000, 4.000000, 4.000000, 4.000000, 4.000000, 4.000000, 4.000000, 4.000000, 4.000000, 4.000000, 4.000000, 4.000000, 4.000000, 4.000000
116.000000, 0.000000, 4186.666504, 4226.666504, 4206.153809, 4163.076660, 4268.717773, 4217.948730, 4211.281738, 4205.127930, 4198.461426, 4052.820313, 4222.051270, 4197.948730, 4249.230469, 4204.615234, 3480.000000, 8184.000000, 8179.000000, 0.000000, 0.000000, 0.000000, -21126.000000, 270.256409, 4.000000, 4.000000, 4.000000, 4.000000, 4.000000, 4.000000, 4.000000, 4.000000, 4.000000, 4.000000, 4.000000, 4.000000, 4.000000, 4.000000, 4.000000, 4.000000
117.000000, 0.000000, 4198.461426, 4237.948730, 4222.563965, 4176.922852, 4285.127930, 4216.410156, 4211.794922, 4215.897461, 4198.461426, 4059.487061, 4229.230469, 4214.871582, 4261.025391, 4206.153809, 3411.000000, 8179.000000, 8165.000000, 0.000000, 0.000000, 0.000000, -21126.000000, 277.948700, 4.000000, 4.000000, 4.000000, 4.000000, 4.000000, 4.000000, 4.000000, 4.000000, 4.000000, 4.000000, 4.000000, 4.000000, 4.000000, 4.000000, 4.000000, 4.000000
118.000000, 0.000000, 4192.307617, 4228.717773, 4222.563965, 4173.333008, 4276.922852, 4204.102539, 4216.922852, 4215.897461, 4187.692383, 4047.692139, 4217.436035, 4210.769043, 4250.769043, 4208.205078, 3541.000000, 8179.000000, 8165.000000, 0.000000, 0.000000, 0.000000, -21126.000000, 285.641022, 4.000000, 4.000000, 4.000000, 4.000000, 4.000000, 4.000000, 4.000000, 4.000000, 4.000000, 4.000000, 4.000000, 4.000000, 4.000000, 4.000000, 4.000000, 4.000000
119.000000, 0.000000, 4194.358887, 4227.692383, 4227.179199, 4170.769043, 4283.076660, 4198.461426, 4217.948730, 4216.410156, 4193.333008, 4028.717773, 4221.025391, 4212.307617, 4253.846191, 4208.717773, 607.000000, 8177.000000, 8160.000000, 0.000000, 0.000000, 0.000000, -21126.000000, 293.846161, 4.000000, 4.000000, 4.000000, 4.000000, 4.000000, 4.000000, 4.000000, 4.000000, 4.000000, 4.000000, 4.000000, 4.000000, 4.000000, 4.000000, 4.000000, 4.000000
120.000000, 0.000000, 4208.717773, 4236.410156, 4235.384277, 4183.076660, 4307.692383, 4199.487305, 4212.307617, 4218.974121, 4201.538574, 4040.512695, 4234.871582, 4221.538574, 4267.179199, 4204.615234, 3480.000000, 8177.000000, 8160.000000, 0.000000, 0.000000, 0.000000, -21126.000000, 301.538452, 4.000000, 4.000000, 4.000000, 4.000000, 4.000000, 4.000000, 4.000000, 4.000000, 4.000000, 4.000000, 4.000000, 4.000000, 4.000000, 4.000000, 4.000000, 4.000000
121.000000, 0.000000, 4209.743652, 4237.948730, 4233.333008, 4190.769043, 4322.051270, 4203.589844, 4215.897461, 4225.641113, 4198.974121, 4053.845947, 4235.384277, 4223.076660, 4273.333008, 4209.230469, 3411.000000, 8176.000000, 8156.000000, 0.000000, 0.000000, 0.000000, -21126.000000, 309.743591, 4.000000, 4.000000, 4.000000, 4.000000, 4.000000, 4.000000, 4.000000, 4.000000, 4.000000, 4.000000, 4.000000, 4.000000, 4.000000, 4.000000, 4.000000, 4.000000
122.000000, 0.000000, 4208.717773, 4232.820313, 4226.666504, 4183.589844, 4309.743652, 4207.692383, 4216.410156, 4228.205078, 4199.487305, 4044.102539, 4230.256348, 4219.487305, 4270.256348, 4205.641113, 3541.000000, 8176.000000, 8156.000000, 0.000000, 0.000000, 0.000000, -21126.000000, 317.435883, 4.000000, 4.000000, 4.000000, 4.000000, 4.000000, 4.000000, 4.000000, 4.000000, 4.000000, 4.000000, 4.000000, 4.000000, 4.000000, 4.000000, 4.000000, 4.000000
123.000000, 0.000000, 4208.717773, 4235.897461, 4225.127930, 4183.589844, 4316.410156, 4213.846191, 4216.410156, 4227.179199, 4205.127930, 4043.589600, 4228.205078, 4220.512695, 4268.717773, 4201.538574, 607.000000, 8170.000000, 8153.000000, 0.000000, 0.000000, 0.000000, -21126.000000, 325.128204, 4.000000, 4.000000, 4.000000, 4.000000, 4.000000, 4.000000, 4.000000, 4.000000, 4.000000, 4.000000, 4.000000, 4.000000, 4.000000, 4.000000, 4.000000, 4.000000
124.000000, 0.000000, 4198.974121, 4232.307617, 4218.974121, 4182.563965, 4325.127930, 4213.846191, 4218.461426, 4216.410156, 4197.436035, 4047.179443, 4210.256348, 4210.769043, 4254.358887, 4202.563965, 3480.000000, 8170.000000, 8153.000000, 0.000000, 0.000000, 0.000000, -21126.000000, 332.820496, 4.000000, 4.000000, 4.000000, 4.000000, 4.000000, 4.000000, 4.000000, 4.000000, 4.000000, 4.000000, 4.000000, 4.000000, 4.000000, 4.000000, 4.000000, 4.000000
125.000000, 0.000000, 4189.743652, 4215.897461, 4208.205078, 4167.692383, 4296.922852, 4201.538574, 4206.153809, 4198.461426, 4181.025391, 4027.179443, 4196.410156, 4197.948730, 4232.820313, 4201.538574, 3411.000000, 8171.000000, 8153.000000, 0.000000, 0.000000, 0.000000, -21126.000000, 341.025635, 4.000000, 4.000000, 4.000000, 4.000000, 4.000000, 4.000000, 4.000000, 4.000000, 4.000000, 4.000000, 4.000000, 4.000000, 4.000000, 4.000000, 4.000000, 4.000000
126.000000, 0.000000, 4192.307617, 4212.820313, 4212.307617, 4170.256348, 4289.743652, 4197.436035, 4200.000000, 4194.871582, 4180.512695, 4018.461426, 4208.717773, 4207.179199, 4233.846191, 4205.641113, 3541.000000, 8171.000000, 8153.000000, 0.000000, 0.000000, 0.000000, -21126.000000, 348.717926, 4.000000, 4.000000, 4.000000, 4.000000, 4.000000, 4.000000, 4.000000, 4.000000, 4.000000, 4.000000, 4.000000, 4.000000, 4.000000, 4.000000, 4.000000, 4.000000
127.000000, 0.000000, 4200.512695, 4222.051270, 4223.076660, 4186.153809, 4317.948730, 4208.205078, 4211.794922, 4203.076660, 4190.256348, 4040.512695, 4217.948730, 4215.384277, 4245.641113, 4205.127930, 54.000000, 8179.000000, 8161.000000, 0.000000, 0.000000, 0.000000, -21126.000000, 356.410248, 4.000000, 4.000000, 4.000000, 4.000000, 4.000000, 4.000000, 4.000000, 4.000000, 4.000000, 4.000000, 4.000000, 4.000000, 4.000000, 4.000000, 4.000000, 4.000000
0.000000, 0.000000, 4190.769043, 4216.922852, 4214.358887, 4182.051270, 4316.922852, 4208.205078, 4212.820313, 4201.025391, 4188.205078, 4051.794678, 4205.641113, 4203.589844, 4240.512695, 4203.076660, 3350.000000, 8179.000000, 8161.000000, 0.000000, 0.000000, 0.000000, -21126.000000, 364.615387, 4.000000, 4.000000, 4.000000, 4.000000, 4.000000, 4.000000, 4.000000, 4.000000, 4.000000, 4.000000, 4.000000, 4.000000, 4.000000, 4.000000, 4.000000, 4.000000
1.000000, 0.000000, 4188.205078, 4211.794922, 4207.692383, 4183.589844, 4290.769043, 4197.948730, 4204.615234, 4193.846191, 4180.000000, 4042.051270, 4198.974121, 4200.512695, 4234.358887, 4204.615234, 3508.000000, 8181.000000, 8164.000000, 0.000000, 0.000000, 0.000000, -21126.000000, 372.307678, 4.000000, 4.000000, 4.000000, 4.000000, 4.000000, 4.000000, 4.000000, 4.000000, 4.000000, 4.000000, 4.000000, 4.000000, 4.000000, 4.000000, 4.000000, 4.000000
2.000000, 0.000000, 4205.127930, 4224.102539, 4223.589844, 4206.153809, 4291.794922, 4203.589844, 4213.333008, 4204.615234, 4188.717773, 4042.051270, 4211.794922, 4213.846191, 4245.127930, 4204.615234, 2545.000000, 8181.000000, 8164.000000, 0.000000, 0.000000, 0.000000, -21126.000000, 380.512817, 4.000000, 4.000000, 4.000000, 4.000000, 4.000000, 4.000000, 4.000000, 4.000000, 4.000000, 4.000000, 4.000000, 4.000000, 4.000000, 4.000000, 4.000000, 4.000000
3.000000, 0.000000, 4192.820313, 4220.512695, 4216.922852, 4196.410156, 4282.051270, 4204.102539, 4217.948730, 4206.666504, 4190.256348, 4040.512695, 4206.666504, 4208.717773, 4237.948730, 4206.153809, 2154.000000, 8200.000000, 8157.000000, 0.000000, 0.000000, 0.000000, -21126.000000, 388.205109, 4.000000, 4.000000, 4.000000, 4.000000, 4.000000, 4.000000, 4.000000, 4.000000, 4.000000, 4.000000, 4.000000, 4.000000, 4.000000, 4.000000, 4.000000, 4.000000
4.000000, 0.000000, 4171.281738, 4203.589844, 4189.230469, 4166.153809, 4242.563965, 4192.307617, 4208.205078, 4184.615234, 4169.743652, 4023.076904, 4183.589844, 4187.692383, 4215.384277, 4200.000000, 3522.000000, 8200.000000, 8157.000000, 0.000000, 0.000000, 0.000000, -21126.000000, 395.897430, 4.000000, 4.000000, 4.000000, 4.000000, 4.000000, 4.000000, 4.000000, 4.000000, 4.000000, 4.000000, 4.000000, 4.000000, 4.000000, 4.000000, 4.000000, 4.000000
5.000000, 0.000000, 4185.641113, 4209.230469, 4198.461426, 4181.538574, 4246.153809, 4202.563965, 4214.358887, 4186.666504, 4168.717773, 4025.640869, 4192.820313, 4194.358887, 4226.666504, 4198.461426, 3531.000000, 8199.000000, 8161.000000, 0.000000, 0.000000, 0.000000, -21126.000000, 404.102539, 4.000000, 4.000000, 4.000000, 4.000000, 4.000000, 4.000000, 4.000000, 4.000000, 4.000000, 4.000000, 4.000000, 4.000000, 4.000000, 4.000000, 4.000000, 4.000000
6.000000, 0.000000, 4201.025391, 4223.076660, 4218.974121, 4209.230469, 4278.974121, 4218.461426, 4222.051270, 4210.769043, 4188.205078, 4046.153809, 4214.358887, 4209.743652, 4248.717773, 4207.179199, 3067.000000, 8199.000000, 8161.000000, 0.000000, 0.000000, 0.000000, -21126.000000, 411.794861, 4.000000, 4.000000, 4.000000, 4.000000, 4.000000, 4.000000, 4.000000, 4.000000, 4.000000, 4.000000, 4.000000, 4.000000, 4.000000, 4.000000, 4.000000, 4.000000
7.000000, 0.000000, 4195.384277, 4218.974121, 4206.153809, 4200.000000, 4270.769043, 4205.127930, 4207.692383, 4206.666504, 4188.717773, 4042.051270, 4205.641113, 4200.000000, 4241.025391, 4205.127930, 3512.000000, 8201.000000, 8157.000000, 0.000000, 0.000000, 0.000000, -21126.000000, 420.000000, 4.000000, 4.000000, 4.000000, 4.000000, 4.000000, 4.000000, 4.000000, 4.000000, 4.000000, 4.000000, 4.000000, 4.000000, 4.000000, 4.000000, 4.000000, 4.000000
8.000000, 0.000000, 4192.307617, 4213.846191, 4204.102539, 4198.974121, 4250.769043, 4195.384277, 4206.153809, 4203.076660, 4185.641113, 4029.230713, 4202.051270, 4201.025391, 4239.487305, 4204.102539, 3473.000000, 8201.000000, 8157.000000, 0.000000, 0.000000, 0.000000, -21126.000000, 427.692291, 4.000000, 4.000000, 4.000000, 4.000000, 4.000000, 4.000000, 4.000000, 4.000000, 4.000000, 4.000000, 4.000000, 4.000000, 4.000000, 4.000000, 4.000000, 4.000000
9.000000, 0.000000, 4205.641113, 4221.025391, 4231.281738, 4218.974121, 4260.512695, 4211.794922, 4224.102539, 4226.666504, 4197.948730, 4040.000000, 4216.922852, 4222.563965, 4251.794922, 4205.127930, 3553.000000, 8202.000000, 8157.000000, 0.000000, 0.000000, 0.000000, -21126.000000, 435.897430, 4.000000, 4.000000, 4.000000, 4.000000, 4.000000, 4.000000, 4.000000, 4.000000, 4.000000, 4.000000, 4.000000, 4.000000, 4.000000, 4.000000, 4.000000, 4.000000
10.000000, 0.000000, 4210.769043, 4227.179199, 4232.307617, 4214.871582, 4262.563965, 4216.922852, 4228.205078, 4232.820313, 4201.025391, 4052.820313, 4210.769043, 4226.666504, 4244.615234, 4204.102539, 3540.000000, 8202.000000, 8157.000000, 0.000000, 0.000000, 0.000000, -21126.000000, 443.589722, 4.000000, 4.000000, 4.000000, 4.000000, 4.000000, 4.000000, 4.000000, 4.000000, 4.000000, 4.000000, 4.000000, 4.000000, 4.000000, 4.000000, 4.000000, 4.000000
11.000000, 0.000000, 4204.102539, 4225.127930, 4214.871582, 4198.461426, 4239.487305, 4202.051270, 4216.410156, 4219.487305, 4193.333008, 4057.948730, 4201.025391, 4213.846191, 4236.410156, 4205.127930, 609.000000, 8205.000000, 8159.000000, 0.000000, 0.000000, 0.000000, -21126.000000, 451.794861, 4.000000, 4.000000, 4.000000, 4.000000, 4.000000, 4.000000, 4.000000, 4.000000, 4.000000, 4.000000, 4.000000, 4.000000, 4.000000, 4.000000, 4.000000, 4.000000
12.000000, 0.000000, 4213.333008, 4222.563965, 4215.384277, 4205.127930, 4230.769043, 4200.000000, 4214.358887, 4228.717773, 4208.205078, 4072.307617, 4216.410156, 4215.897461, 4248.205078, 4203.589844, 3485.000000, 8205.000000, 8159.000000, 0.000000, 0.000000, 0.000000, -21126.000000, 459.487183, 4.000000, 4.000000, 4.000000, 4.000000, 4.000000, 4.000000, 4.000000, 4.000000, 4.000000, 4.000000, 4.000000, 4.000000, 4.000000, 4.000000, 4.000000, 4.000000
13.000000, 0.000000, 4216.410156, 4220.000000, 4220.000000, 4209.743652, 4243.076660, 4208.717773, 4220.512695, 4242.051270, 4222.051270, 4080.512695, 4225.641113, 4221.538574, 4252.820313, 4206.666504, 3412.000000, 8199.000000, 8162.000000, 0.000000, 0.000000, 0.000000, -21126.000000, 467.692291, 4.000000, 4.000000, 4.000000, 4.000000, 4.000000, 4.000000, 4.000000, 4.000000, 4.000000, 4.000000, 4.000000, 4.000000, 4.000000, 4.000000, 4.000000, 4.000000
14.000000, 0.000000, 4210.256348, 4216.410156, 4219.487305, 4201.538574, 4252.820313, 4206.153809, 4218.461426, 4229.743652, 4209.743652, 4074.358887, 4218.974121, 4214.358887, 4244.615234, 4206.153809, 3540.000000, 8199.000000, 8162.000000, 0.000000, 0.000000, 0.000000, -21126.000000, 475.384613, 4.000000, 4.000000, 4.000000, 4.000000, 4.000000, 4.000000, 4.000000, 4.000000, 4.000000, 4.000000, 4.000000, 4.000000, 4.000000, 4.000000, 4.000000, 4.000000
15.000000, 0.000000, 4211.794922, 4213.846191, 4221.025391, 4201.538574, 4244.615234, 4198.974121, 4213.333008, 4217.436035, 4196.410156, 4068.717773, 4214.358887, 4208.717773, 4238.974121, 4205.641113, 609.000000, 8194.000000, 8158.000000, 0.000000, 0.000000, 0.000000, -21126.000000, 483.589722, 4.000000, 4.000000, 4.000000, 4.000000, 4.000000, 4.000000, 4.000000, 4.000000, 4.000000, 4.000000, 4.000000, 4.000000, 4.000000, 4.000000, 4.000000, 4.000000
16.000000, 0.000000, 4211.794922, 4214.871582, 4220.000000, 4203.076660, 4232.307617, 4200.512695, 4214.358887, 4221.025391, 4200.512695, 4066.153809, 4209.743652, 4213.333008, 4232.820313, 4210.256348, 0.000000, 8194.000000, 8158.000000, 0.000000, 0.000000, 0.000000, -21126.000000, 491.282043, 4.000000, 4.000000, 4.000000, 4.000000, 4.000000, 4.000000, 4.000000, 4.000000, 4.000000, 4.000000, 4.000000, 4.000000, 4.000000, 4.000000, 4.000000, 4.000000
17.000000, 0.000000, 4212.820313, 4212.307617, 4217.948730, 4198.461426, 4229.230469, 4202.563965, 4216.410156, 4224.615234, 4201.538574, 4061.025635, 4206.666504, 4218.974121, 4229.230469, 4206.153809, 0.000000, 8196.000000, 8158.000000, 0.000000, 0.000000, 0.000000, -21126.000000, 498.974335, 4.000000, 4.000000, 4.000000, 4.000000, 4.000000, 4.000000, 4.000000, 4.000000, 4.000000, 4.000000, 4.000000, 4.000000, 4.000000, 4.000000, 4.000000, 4.000000
18.000000, 0.000000, 4208.717773, 4203.589844, 4217.948730, 4197.436035, 4228.717773, 4203.076660, 4211.281738, 4214.871582, 4192.820313, 4052.307617, 4204.102539, 4218.461426, 4228.205078, 4207.692383, 0.000000, 8196.000000, 8158.000000, 0.000000, 0.000000, 0.000000, -21126.000000, 507.179474, 4.000000, 4.000000, 4.000000, 4.000000, 4.000000, 4.000000, 4.000000, 4.000000, 4.000000, 4.000000, 4.000000, 4.000000, 4.000000, 4.000000, 4.000000, 4.000000
19.000000, 0.000000, 4207.692383, 4202.051270, 4216.922852, 4196.922852, 4221.025391, 4203.076660, 4205.127930, 4201.538574, 4186.666504, 4046.666504, 4194.358887, 4208.205078, 4221.025391, 4206.666504, 0.000000, 8200.000000, 8158.000000, 0.000000, 0.000000, 0.000000, -21126.000000, 514.871765, 4.000000, 4.000000, 4.000000, 4.000000, 4.000000, 4.000000, 4.000000, 4.000000, 4.000000, 4.000000, 4.000000, 4.000000, 4.000000, 4.000000, 4.000000, 4.000000
20.000000, 0.000000, 4212.307617, 4204.615234, 4209.743652, 4193.333008, 4210.769043, 4200.512695, 4209.230469, 4203.589844, 4185.641113, 4048.717773, 4191.281738, 4194.871582, 4216.922852, 4199.487305, 0.000000, 8200.000000, 8158.000000, 0.000000, 0.000000, 0.000000, -21126.000000, 522.564087, 4.000000, 4.000000, 4.000000, 4.000000, 4.000000, 4.000000, 4.000000, 4.000000, 4.000000, 4.000000, 4.000000, 4.000000, 4.000000, 4.000000, 4.000000, 4.000000
21.000000, 0.000000, 4206.666504, 4200.512695, 4200.512695, 4194.871582, 4217.436035, 4203.589844, 4218.461426, 4215.384277, 4193.846191, 4051.794678, 4198.461426, 4189.230469, 4221.025391, 4204.102539, 0.000000, 8199.000000, 8154.000000, 0.000000, 0.000000, 0.000000, -21126.000000, 530.769226, 4.000000, 4.000000, 4.000000, 4.000000, 4.000000, 4.000000, 4.000000, 4.000000, 4.000000, 4.000000, 4.000000, 4.000000, 4.000000, 4.000000, 4.000000, 4.000000
22.000000, 0.000000, 4208.205078, 4201.538574, 4201.025391, 4200.512695, 4235.897461, 4214.358887, 4219.487305, 4223.589844, 4204.615234, 4056.410156, 4202.563965, 4195.897461, 4230.256348, 4206.153809, 0.000000, 8199.000000, 8154.000000, 0.000000, 0.000000, 0.000000, -21126.000000, 538.461548, 4.000000, 4.000000, 4.000000, 4.000000, 4.000000, 4.000000, 4.000000, 4.000000, 4.000000, 4.000000, 4.000000, 4.000000, 4.000000, 4.000000, 4.000000, 4.000000
23.000000, 0.000000, 4212.307617, 4208.205078, 4210.256348, 4200.512695, 4232.820313, 4214.871582, 4212.820313, 4220.000000, 4203.589844, 4071.281982, 4206.666504, 4203.076660, 4235.384277, 4205.641113, 0.000000, 8201.000000, 8160.000000, 0.000000, 0.000000, 0.000000, -21126.000000, 546.666626, 4.000000, 4.000000, 4.000000, 4.000000, 4.000000, 4.000000, 4.000000, 4.000000, 4.000000, 4.000000, 4.000000, 4.000000, 4.000000, 4.000000, 4.000000, 4.000000
24.000000, 0.000000, 4211.794922, 4205.641113, 4216.410156, 4198.974121, 4213.333008, 4207.692383, 4210.256348, 4215.897461, 4200.000000, 4075.384521, 4208.717773, 4202.563965, 4227.692383, 4204.102539, 0.000000, 8201.000000, 8160.000000, 0.000000, 0.000000, 0.000000, -21126.000000, 554.358948, 4.000000, 4.000000, 4.000000, 4.000000, 4.000000, 4.000000, 4.000000, 4.000000, 4.000000, 4.000000, 4.000000, 4.000000, 4.000000, 4.000000, 4.000000, 4.000000
25.000000, 0.000000, 4213.846191, 4198.461426, 4217.948730, 4199.487305, 4210.769043, 4212.820313, 4216.922852, 4216.922852, 4200.000000, 4063.589600, 4204.615234, 4195.384277, 4219.487305, 4202.563965, 0.000000, 8201.000000, 8160.000000, 0.000000, 0.000000, 0.000000, -21126.000000, 562.051270, 4.000000, 4.000000, 4.000000, 4.000000, 4.000000, 4.000000, 4.000000, 4.000000, 4.000000, 4.000000, 4.000000, 4.000000, 4.000000, 4.000000, 4.000000, 4.000000
26.000000, 0.000000, 4210.769043, 4193.846191, 4213.333008, 4193.333008, 4214.358887, 4216.922852, 4220.512695, 4215.384277, 4198.461426, 4058.974365, 4197.436035, 4190.769043, 4222.563965, 4206.666504, 0.000000, 8201.000000, 8160.000000, 0.000000, 0.000000, 0.000000, -21126.000000, 569.743591, 4.000000, 4.000000, 4.000000, 4.000000, 4.000000, 4.000000, 4.000000, 4.000000, 4.000000, 4.000000, 4.000000, 4.000000, 4.000000, 4.000000, 4.000000, 4.000000
27.000000, 0.000000, 4213.333008, 4196.410156, 4203.589844, 4187.692383, 4199.487305, 4209.230469, 4214.871582, 4214.871582, 4197.436035, 4064.102539, 4201.025391, 4189.230469, 4230.256348, 4203.589844, 0.000000, 8209.000000, 8151.000000, 0.000000, 0.000000, 0.000000, -21126.000000, 577.948730, 4.000000, 4.000000, 4.000000, 4.000000, 4.000000, 4.000000, 4.000000, 4.000000, 4.000000, 4.000000, 4.000000, 4.000000, 4.000000, 4.000000, 4.000000, 4.000000
28.000000, 0.000000, 4214.358887, 4197.436035, 4200.000000, 4188.205078, 4191.281738, 4206.153809, 4214.871582, 4214.871582, 4198.974121, 4069.743408, 4206.666504, 4191.794922, 4229.743652, 4203.076660, 0.000000, 8209.000000, 8151.000000, 0.000000, 0.000000, 0.000000, -21126.000000, 585.640991, 4.000000, 4.000000, 4.000000, 4.000000, 4.000000, 4.000000, 4.000000, 4.000000, 4.000000, 4.000000, 4.000000, 4.000000, 4.000000, 4.000000, 4.000000, 4.000000
29.000000, 0.000000, 4204.615234, 4189.230469, 4199.487305, 4187.179199, 4208.717773, 4210.769043, 4220.000000, 4216.410156, 4197.948730, 4073.333252, 4203.076660, 4196.410156, 4216.922852, 4206.153809, 0.000000, 8200.000000, 8157.000000, 0.000000, 0.000000, 0.000000, -21126.000000, 593.846130, 4.000000, 4.000000, 4.000000, 4.000000, 4.000000, 4.000000, 4.000000, 4.000000, 4.000000, 4.000000, 4.000000, 4.000000, 4.000000, 4.000000, 4.000000, 4.000000
30.000000, 0.000000, 4202.051270, 4188.205078, 4196.410156, 4189.743652, 4220.512695, 4214.358887, 4218.461426, 4217.948730, 4196.922852, 4072.307617, 4196.922852, 4191.794922, 4213.333008, 4202.563965, 0.000000, 8200.000000, 8157.000000, 0.000000, 0.000000, 0.000000, -21126.000000, 601.538452, 4.000000, 4.000000, 4.000000, 4.000000, 4.000000, 4.000000, 4.000000, 4.000000, 4.000000, 4.000000, 4.000000, 4.000000, 4.000000, 4.000000, 4.000000, 4.000000
31.000000, 0.000000, 4208.717773, 4200.512695, 4195.384277, 4198.461426, 4215.897461, 4215.384277, 4216.922852, 4218.461426, 4198.461426, 4070.256348, 4203.076660, 4188.205078, 4225.127930, 4205.127930, 0.000000, 8197.000000, 8157.000000, 0.000000, 0.000000, 0.000000, -21126.000000, 609.743591, 4.000000, 4.000000, 4.000000, 4.000000, 4.000000, 4.000000, 4.000000, 4.000000, 4.000000, 4.000000, 4.000000, 4.000000, 4.000000, 4.000000, 4.000000, 4.000000
32.000000, 0.000000, 4217.436035, 4204.102539, 4201.025391, 4204.615234, 4213.846191, 4216.410156, 4218.461426, 4217.436035, 4200.512695, 4072.307617, 4214.358887, 4192.820313, 4232.307617, 4206.153809, 0.000000, 8197.000000, 8157.000000, 0.000000, 0.000000, 0.000000, -21126.000000, 617.435852, 4.000000, 4.000000, 4.000000, 4.000000, 4.000000, 4.000000, 4.000000, 4.000000, 4.000000, 4.000000, 4.000000, 4.000000, 4.000000, 4.000000, 4.000000, 4.000000
33.000000, 0.000000, 4219.487305, 4196.410156, 4205.641113, 4201.538574, 4208.717773, 4213.846191, 4218.461426, 4217.436035, 4204.102539, 4080.000000, 4219.487305, 4202.051270, 4237.436035, 4204.102539, 0.000000, 8200.000000, 8148.000000, 0.000000, 0.000000, 0.000000, -21126.000000, 625.640991, 4.000000, 4.000000, 4.000000, 4.000000, 4.000000, 4.000000, 4.000000, 4.000000, 4.000000, 4.000000, 4.000000, 4.000000, 4.000000, 4.000000, 4.000000, 4.000000
34.000000, 0.000000, 4220.000000, 4198.461426, 4203.589844, 4202.563965, 4203.076660, 4214.871582, 4217.948730, 4218.974121, 4206.666504, 4091.794678, 4220.000000, 4208.717773, 4243.589844, 4204.615234, 0.000000, 8200.000000, 8148.000000, 0.000000, 0.000000, 0.000000, -21126.000000, 633.333313, 4.000000, 4.000000, 4.000000, 4.000000, 4.000000, 4.000000, 4.000000, 4.000000, 4.000000, 4.000000, 4.000000, 4.000000, 4.000000, 4.000000, 4.000000, 4.000000
35.000000, 0.000000, 4224.102539, 4198.974121, 4205.127930, 4202.563965, 4206.666504, 4219.487305, 4218.461426, 4217.436035, 4203.589844, 4092.307617, 4217.948730, 4207.179199, 4235.384277, 4200.512695, 0.000000, 8194.000000, 8146.000000, 0.000000, 0.000000, 0.000000, -21126.000000, 641.538452, 4.000000, 4.000000, 4.000000, 4.000000, 4.000000, 4.000000, 4.000000, 4.000000, 4.000000, 4.000000, 4.000000, 4.000000, 4.000000, 4.000000, 4.000000, 4.000000
36.000000, 0.000000, 4217.948730, 4186.153809, 4207.179199, 4196.922852, 4200.000000, 4219.487305, 4218.974121, 4215.384277, 4204.615234, 4083.076904, 4213.333008, 4203.589844, 4221.538574, 4202.563965, 0.000000, 8194.000000, 8146.000000, 0.000000, 0.000000, 0.000000, -21126.000000, 649.230774, 4.000000, 4.000000, 4.000000, 4.000000, 4.000000, 4.000000, 4.000000, 4.000000, 4.000000, 4.000000, 4.000000, 4.000000, 4.000000, 4.000000, 4.000000, 4.000000
37.000000, 0.000000, 4218.974121, 4182.051270, 4207.179199, 4197.436035, 4193.333008, 4218.461426, 4220.512695, 4218.974121, 4211.794922, 4087.179443, 4210.769043, 4203.589844, 4230.256348, 4205.641113, 0.000000, 8196.000000, 8135.000000, 0.000000, 0.000000, 0.000000, -21126.000000, 657.435852, 4.000000, 4.000000, 4.000000, 4.000000, 4.000000, 4.000000, 4.000000, 4.000000, 4.000000, 4.000000, 4.000000, 4.000000, 4.000000, 4.000000, 4.000000, 4.000000
38.000000, 0.000000, 4221.025391, 4194.358887, 4207.692383, 4203.589844, 4208.717773, 4220.000000, 4221.025391, 4221.025391, 4210.256348, 4096.410156, 4210.256348, 4205.641113, 4235.897461, 4204.102539, 0.000000, 8196.000000, 8135.000000, 0.000000, 0.000000, 0.000000, -21126.000000, 665.128174, 4.000000, 4.000000, 4.000000, 4.000000, 4.000000, 4.000000, 4.000000, 4.000000, 4.000000, 4.000000, 4.000000, 4.000000, 4.000000, 4.000000, 4.000000, 4.000000
39.000000, 0.000000, 4211.281738, 4199.487305, 4206.153809, 4204.102539, 4218.974121, 4219.487305, 4220.512695, 4217.436035, 4201.025391, 4091.281982, 4202.563965, 4198.974121, 4218.974121, 4201.538574, 0.000000, 8199.000000, 8139.000000, 0.000000, 0.000000, 0.000000, -21126.000000, 673.333313, 4.000000, 4.000000, 4.000000, 4.000000, 4.000000, 4.000000, 4.000000, 4.000000, 4.000000, 4.000000, 4.000000, 4.000000, 4.000000, 4.000000, 4.000000, 4.000000
40.000000, 0.000000, 4209.230469, 4190.256348, 4203.076660, 4199.487305, 4204.615234, 4213.333008, 4218.461426, 4212.820313, 4198.461426, 4088.205078, 4201.025391, 4194.871582, 4211.281738, 4197.436035, 0.000000, 8199.000000, 8139.000000, 0.000000, 0.000000, 0.000000, -21126.000000, 681.538452, 4.000000, 4.000000, 4.000000, 4.000000, 4.000000, 4.000000, 4.000000, 4.000000, 4.000000, 4.000000, 4.000000, 4.000000, 4.000000, 4.000000, 4.000000, 4.000000
41.000000, 0.000000, 4210.769043, 4190.256348, 4202.051270, 4197.948730, 4193.333008, 4211.281738, 4221.025391, 4212.307617, 4204.615234, 4093.333252, 4207.692383, 4200.512695, 4219.487305, 4204.615234, 0.000000, 8194.000000, 8151.000000, 0.000000, 0.000000, 0.000000, -21126.000000, 689.230774, 4.000000, 4.000000, 4.000000, 4.000000, 4.000000, 4.000000, 4.000000, 4.000000, 4.000000, 4.000000, 4.000000, 4.000000, 4.000000, 4.000000, 4.000000, 4.000000
42.000000, 0.000000, 4211.794922, 4200.512695, 4201.538574, 4203.076660, 4204.102539, 4217.436035, 4227.179199, 4214.871582, 4204.102539, 4098.461426, 4204.615234, 4203.076660, 4217.948730, 4205.127930, 0.000000, 8194.000000, 8151.000000, 0.000000, 0.000000, 0.000000, -21126.000000, 697.435852, 4.000000, 4.000000, 4.000000, 4.000000, 4.000000, 4.000000, 4.000000, 4.000000, 4.000000, 4.000000, 4.000000, 4.000000, 4.000000, 4.000000, 4.000000, 4.000000
43.000000, 0.000000, 4211.281738, 4199.487305, 4196.922852, 4205.127930, 4203.589844, 4216.410156, 4224.102539, 4216.410156, 4191.281738, 4096.922852, 4198.974121, 4198.461426, 4212.820313, 4200.000000, 0.000000, 8199.000000, 8140.000000, 0.000000, 0.000000, 0.000000, -21126.000000, 705.128174, 4.000000, 4.000000, 4.000000, 4.000000, 4.000000, 4.000000, 4.000000, 4.000000, 4.000000, 4.000000, 4.000000, 4.000000, 4.000000, 4.000000, 4.000000, 4.000000
44.000000, 0.000000, 4208.717773, 4191.281738, 4192.307617, 4195.897461, 4185.641113, 4203.076660, 4212.820313, 4211.794922, 4184.102539, 4089.230713, 4201.538574, 4197.436035, 4220.512695, 4205.641113, 0.000000, 8199.000000, 8140.000000, 0.000000, 0.000000, 0.000000, -21126.000000, 713.333313, 4.000000, 4.000000, 4.000000, 4.000000, 4.000000, 4.000000, 4.000000, 4.000000, 4.000000, 4.000000, 4.000000, 4.000000, 4.000000, 4.000000, 4.000000, 4.000000
45.000000, 0.000000, 4213.333008, 4194.358887, 4193.333008, 4193.846191, 4188.717773, 4200.000000, 4209.230469, 4210.256348, 4193.846191, 4091.794678, 4203.076660, 4195.384277, 4221.538574, 4205.127930, 0.000000, 8194.000000, 8145.000000, 0.000000, 0.000000, 0.000000, -21126.000000, 721.025635, 4.000000, 4.000000, 4.000000, 4.000000, 4.000000, 4.000000, 4.000000, 4.000000, 4.000000, 4.000000, 4.000000, 4.000000, 4.000000, 4.000000, 4.000000, 4.000000
46.000000, 0.000000, 4215.384277, 4208.205078, 4200.000000, 4211.794922, 4206.666504, 4207.692383, 4216.410156, 4222.563965, 4206.666504, 4110.256348, 4206.153809, 4192.820313, 4222.563965, 4204.615234, 0.000000, 8194.000000, 8145.000000, 0.000000, 0.000000, 0.000000, -21126.000000, 729.230774, 4.000000, 4.000000, 4.000000, 4.000000, 4.000000, 4.000000, 4.000000, 4.000000, 4.000000, 4.000000, 4.000000, 4.000000, 4.000000, 4.000000, 4.000000, 4.000000
47.000000, 0.000000, 4214.358887, 4212.307617, 4202.563965, 4218.461426, 4204.102539, 4209.230469, 4218.461426, 4228.717773, 4207.179199, 4126.153809, 4209.743652, 4192.307617, 4234.358887, 4205.641113, 0.000000, 8195.000000, 8169.000000, 0.000000, 0.000000, 0.000000, -21126.000000, 737.435852, 4.000000, 4.000000, 4.000000, 4.000000, 4.000000, 4.000000, 4.000000, 4.000000, 4.000000, 4.000000, 4.000000, 4.000000, 4.000000, 4.000000, 4.000000, 4.000000
48.000000, 0.000000, 4214.358887, 4200.512695, 4190.769043, 4201.538574, 4193.333008, 4206.666504, 4212.820313, 4220.512695, 4203.589844, 4123.076660, 4202.563965, 4189.230469, 4231.281738, 4204.102539, 0.000000, 8195.000000, 8169.000000, 0.000000, 0.000000, 0.000000, -21126.000000, 745.128174, 4.000000, 4.000000, 4.000000, 4.000000, 4.000000, 4.000000, 4.000000, 4.000000, 4.000000, 4.000000, 4.000000, 4.000000, 4.000000, 4.000000, 4.000000, 4.000000
49.000000, 0.000000, 4209.230469, 4197.948730, 4181.025391, 4191.281738, 4201.025391, 4206.153809, 4210.769043, 4214.358887, 4200.512695, 4116.410156, 4198.974121, 4183.589844, 4219.487305, 4203.589844, 0.000000, 8197.000000, 8159.000000, 0.000000, 0.000000, 0.000000, -21126.000000, 753.333313, 4.000000, 4.000000, 4.000000, 4.000000, 4.000000, 4.000000, 4.000000, 4.000000, 4.000000, 4.000000, 4.000000, 4.000000, 4.000000, 4.000000, 4.000000, 4.000000
50.000000, 0.000000, 4211.794922, 4210.769043, 4185.127930, 4201.538574, 4201.538574, 4207.692383, 4209.743652, 4209.743652, 4194.358887, 4119.487305, 4205.641113, 4183.589844, 4228.205078, 4200.512695, 0.000000, 8197.000000, 8159.000000, 0.000000, 0.000000, 0.000000, -21126.000000, 761.025635, 4.000000, 4.000000, 4.000000, 4.000000, 4.000000, 4.000000, 4.000000, 4.000000, 4.000000, 4.000000, 4.000000, 4.000000, 4.000000, 4.000000, 4.000000, 4.000000
51.000000, 0.000000, 4212.820313, 4215.897461, 4188.717773, 4209.230469, 4192.307617, 4209.230469, 4206.666504, 4199.487305, 4186.153809, 4124.102539, 4205.127930, 4188.205078, 4235.384277, 4204.615234, 0.000000, 8205.000000, 8149.000000, 0.000000, 0.000000, 0.000000, -21126.000000, 769.230774, 4.000000, 4.000000, 4.000000, 4.000000, 4.000000, 4.000000, 4.000000, 4.000000, 4.000000, 4.000000, 4.000000, 4.000000, 4.000000, 4.000000, 4.000000, 4.000000
52.000000, 0.000000, 4209.230469, 4213.846191, 4187.179199, 4208.205078, 4198.974121, 4206.153809, 4202.051270, 4186.666504, 4181.538574, 4123.076660, 4195.897461, 4184.615234, 4220.000000, 4205.641113, 0.000000, 8205.000000, 8149.000000, 0.000000, 0.000000, 0.000000, -21126.000000, 776.923035, 4.000000, 4.000000, 4.000000, 4.000000, 4.000000, 4.000000, 4.000000, 4.000000, 4.000000, 4.000000, 4.000000, 4.000000, 4.000000, 4.000000, 4.000000, 4.000000
53.000000, 0.000000, 4208.717773, 4215.897461, 4183.589844, 4205.641113, 4208.717773, 4203.076660, 4204.102539, 4180.000000, 4184.102539, 4121.025391, 4195.897461, 4176.410156, 4215.897461, 4202.051270, 0.000000, 8206.000000, 8150.000000, 0.000000, 0.000000, 0.000000, -21126.000000, 785.128174, 4.000000, 4.000000, 4.000000, 4.000000, 4.000000, 4.000000, 4.000000, 4.000000, 4.000000, 4.000000, 4.000000, 4.000000, 4.000000, 4.000000, 4.000000, 4.000000
54.000000, 0.000000, 4203.076660, 4216.410156, 4184.102539, 4203.076660, 4203.076660, 4204.102539, 4211.794922, 4184.615234, 4185.641113, 4126.666504, 4200.512695, 4177.436035, 4224.102539, 4205.641113, 0.000000, 8206.000000, 8150.000000, 0.000000, 0.000000, 0.000000, -21126.000000, 792.820496, 4.000000, 4.000000, 4.000000, 4.000000, 4.000000, 4.000000, 4.000000, 4.000000, 4.000000, 4.000000, 4.000000, 4.000000, 4.000000, 4.000000, 4.000000, 4.000000
55.000000, 0.000000, 4205.127930, 4215.897461, 4194.871582, 4209.230469, 4196.410156, 4206.666504, 4212.820313, 4193.333008, 4183.589844, 4132.820313, 4201.025391, 4187.692383, 4222.563965, 4202.563965, 0.000000, 8205.000000, 8149.000000, 0.000000, 0.000000, 0.000000, -21126.000000, 801.025635, 4.000000, 4.000000, 4.000000, 4.000000, 4.000000, 4.000000, 4.000000, 4.000000, 4.000000, 4.000000, 4.000000, 4.000000, 4.000000, 4.000000, 4.000000, 4.000000
56.000000, 0.000000, 4206.666504, 4212.820313, 4205.641113, 4214.358887, 4202.563965, 4212.820313, 4213.333008, 4198.461426, 4187.692383, 4143.076660, 4202.563965, 4200.512695, 4219.487305, 4202.563965, 0.000000, 8205.000000, 8149.000000, 0.000000, 0.000000, 0.000000, -21126.000000, 809.230774, 4.000000, 4.000000, 4.000000, 4.000000, 4.000000, 4.000000, 4.000000, 4.000000, 4.000000, 4.000000, 4.000000, 4.000000, 4.000000, 4.000000, 4.000000, 4.000000
57.000000, 0.000000, 4203.076660, 4204.615234, 4200.512695, 4205.641113, 4198.461426, 4212.820313, 4216.922852, 4204.102539, 4197.948730, 4152.820313, 4206.153809, 4202.563965, 4218.461426, 4206.153809, 0.000000, 8218.000000, 8142.000000, 0.000000, 0.000000, 0.000000, -21126.000000, 816.923035, 4.000000, 4.000000, 4.000000, 4.000000, 4.000000, 4.000000, 4.000000, 4.000000, 4.000000, 4.000000, 4.000000, 4.000000, 4.000000, 4.000000, 4.000000, 4.000000
58.000000, 0.000000, 4201.025391, 4201.538574, 4190.256348, 4198.461426, 4181.538574, 4202.051270, 4212.820313, 4211.281738, 4203.589844, 4151.794922, 4203.589844, 4192.820313, 4216.922852, 4202.563965, 0.000000, 8218.000000, 8142.000000, 0.000000, 0.000000, 0.000000, -21126.000000, 825.128174, 4.000000, 4.000000, 4.000000, 4.000000, 4.000000, 4.000000, 4.000000, 4.000000, 4.000000, 4.000000, 4.000000, 4.000000, 4.000000, 4.000000, 4.000000, 4.000000
59.000000, 0.000000, 4191.794922, 4200.512695, 4186.666504, 4199.487305, 4182.563965, 4203.076660, 4209.743652, 4217.436035, 4208.205078, 4162.051270, 4200.000000, 4188.205078, 4214.358887, 4202.563965, 0.000000, 8211.000000, 8150.000000, 0.000000, 0.000000, 0.000000, -21126.000000, 832.820496, 4.000000, 4.000000, 4.000000, 4.000000, 4.000000, 4.000000, 4.000000, 4.000000, 4.000000, 4.000000, 4.000000, 4.000000, 4.000000, 4.000000, 4.000000, 4.000000
60.000000, 0.000000, 4192.307617, 4198.461426, 4187.179199, 4198.974121, 4195.384277, 4213.333008, 4217.948730, 4220.512695, 4211.281738, 4181.538574, 4200.512695, 4184.615234, 4211.281738, 4199.487305, 0.000000, 8211.000000, 8150.000000, 0.000000, 0.000000, 0.000000, -21126.000000, 841.025635, 4.000000, 4.000000, 4.000000, 4.000000, 4.000000, 4.000000, 4.000000, 4.000000, 4.000000, 4.000000, 4.000000, 4.000000, 4.000000, 4.000000, 4.000000, 4.000000
61.000000, 0.000000, 4201.025391, 4206.153809, 4185.127930, 4198.974121, 4197.948730, 4214.358887, 4226.666504, 4218.974121, 4204.102539, 4189.230469, 4201.025391, 4174.358887, 4215.897461, 4202.051270, 0.000000, 8219.000000, 8143.000000, 0.000000, 0.000000, 0.000000, -21126.000000, 848.717957, 4.000000, 4.000000, 4.000000, 4.000000, 4.000000, 4.000000, 4.000000, 4.000000, 4.000000, 4.000000, 4.000000, 4.000000, 4.000000, 4.000000, 4.000000, 4.000000
62.000000, 0.000000, 4205.127930, 4216.922852, 4185.127930, 4203.076660, 4195.384277, 4214.358887, 4225.641113, 4217.948730, 4199.487305, 4185.641113, 4203.589844, 4176.410156, 4226.153809, 4206.666504, 0.000000, 8219.000000, 8143.000000, 0.000000, 0.000000, 0.000000, -21126.000000, 856.923035, 4.000000, 4.000000, 4.000000, 4.000000, 4.000000, 4.000000, 4.000000, 4.000000, 4.000000, 4.000000, 4.000000, 4.000000, 4.000000, 4.000000, 4.000000, 4.000000
63.000000, 0.000000, 4213.333008, 4216.922852, 4192.820313, 4201.538574, 4200.000000, 4215.897461, 4216.922852, 4228.205078, 4215.897461, 4196.410156, 4216.410156, 4196.410156, 4235.897461, 4201.538574, 0.000000, 8221.000000, 8135.000000, 0.000000, 0.000000, 0.000000, -21126.000000, 865.128174, 4.000000, 4.000000, 4.000000, 4.000000, 4.000000, 4.000000, 4.000000, 4.000000, 4.000000, 4.000000, 4.000000, 4.000000, 4.000000, 4.000000, 4.000000, 4.000000
64.000000, 0.000000, 4220.000000, 4214.358887, 4201.025391, 4205.641113, 4206.153809, 4215.384277, 4215.897461, 4247.692383, 4236.410156, 4223.589844, 4234.871582, 4213.333008, 4251.794922, 4207.692383, 3362.000000, 8221.000000, 8135.000000, 0.000000, 0.000000, 0.000000, -21126.000000, 872.820496, 4.000000, 4.000000, 4.000000, 4.000000, 4.000000, 4.000000, 4.000000, 4.000000, 4.000000, 4.000000, 4.000000, 4.000000, 4.000000, 4.000000, 4.000000, 4.000000
65.000000, 0.000000, 4224.102539, 4216.922852, 4205.127930, 4213.333008, 4196.922852, 4217.436035, 4223.589844, 4249.230469, 4233.846191, 4242.051270, 4240.512695, 4216.410156, 4262.563965, 4211.794922, 3522.000000, 8215.000000, 8137.000000, 0.000000, 0.000000, 0.000000, -21126.000000, 881.025635, 4.000000, 4.000000, 4.000000, 4.000000, 4.000000, 4.000000, 4.000000, 4.000000, 4.000000, 4.000000, 4.000000, 4.000000, 4.000000, 4.000000, 4.000000, 4.000000
66.000000, 0.000000, 4222.051270, 4216.922852, 4206.666504, 4211.281738, 4178.974121, 4212.307617, 4217.948730, 4228.205078, 4218.461426, 4241.025391, 4235.384277, 4212.820313, 4255.897461, 4205.641113, 2553.000000, 8215.000000, 8137.000000, 0.000000, 0.000000, 0.000000, -21126.000000, 888.717957, 4.000000, 4.000000, 4.000000, 4.000000, 4.000000, 4.000000, 4.000000, 4.000000, 4.000000, 4.000000, 4.000000, 4.000000, 4.000000, 4.000000, 4.000000, 4.000000
67.000000, 0.000000, 4215.897461, 4211.281738, 4201.025391, 4203.589844, 4176.922852, 4202.051270, 4208.205078, 4212.820313, 4208.717773, 4227.692383, 4226.666504, 4205.127930, 4243.076660, 4202.051270, 2156.000000, 8209.000000, 8132.000000, 0.000000, 0.000000, 0.000000, -21126.000000, 896.923035, 4.000000, 4.000000, 4.000000, 4.000000, 4.000000, 4.000000, 4.000000, 4.000000, 4.000000, 4.000000, 4.000000, 4.000000, 4.000000, 4.000000, 4.000000, 4.000000
68.000000, 0.000000, 4216.410156, 4206.666504, 4196.410156, 4201.025391, 4188.717773, 4206.153809, 4213.333008, 4214.358887, 4207.179199, 4228.205078, 4220.000000, 4196.410156, 4237.948730, 4200.512695, 3528.000000, 8209.000000, 8132.000000, 0.000000, 0.000000, 0.000000, -21126.000000, 904.615356, 4.000000, 4.000000, 4.000000, 4.000000, 4.000000, 4.000000, 4.000000, 4.000000, 4.000000, 4.000000, 4.000000, 4.000000, 4.000000, 4.000000, 4.000000, 4.000000
69.000000, 0.000000, 4210.769043, 4203.076660, 4194.871582, 4199.487305, 4191.281738, 4210.256348, 4211.794922, 4212.307617, 4203.589844, 4244.615234, 4217.948730, 4195.897461, 4234.871582, 4204.102539, 3534.000000, 8204.000000, 8129.000000, 0.000000, 0.000000, 0.000000, -21126.000000, 912.820496, 4.000000, 4.000000, 4.000000, 4.000000, 4.000000, 4.000000, 4.000000, 4.000000, 4.000000, 4.000000, 4.000000, 4.000000, 4.000000, 4.000000, 4.000000, 4.000000
70.000000, 0.000000, 4205.641113, 4202.563965, 4191.281738, 4197.948730, 4189.230469, 4201.025391, 4204.102539, 4209.230469, 4198.461426, 4246.153809, 4216.410156, 4195.897461, 4228.717773, 4198.461426, 3121.000000, 8204.000000, 8129.000000, 0.000000, 0.000000, 0.000000, -21126.000000, 920.512817, 4.000000, 4.000000, 4.000000, 4.000000, 4.000000, 4.000000, 4.000000, 4.000000, 4.000000, 4.000000, 4.000000, 4.000000, 4.000000, 4.000000, 4.000000, 4.000000
71.000000, 0.000000, 4206.666504, 4208.717773, 4194.358887, 4201.538574, 4189.743652, 4197.948730, 4206.666504, 4215.897461, 4207.692383, 4241.538574, 4216.922852, 4193.846191, 4230.256348, 4195.384277, 3509.000000, 8198.000000, 8137.000000, 0.000000, 0.000000, 0.000000, -21126.000000, 928.205078, 4.000000, 4.000000, 4.000000, 4.000000, 4.000000, 4.000000, 4.000000, 4.000000, 4.000000, 4.000000, 4.000000, 4.000000, 4.000000, 4.000000, 4.000000, 4.000000
72.000000, 0.000000, 4206.666504, 4213.846191, 4198.974121, 4204.102539, 4181.538574, 4202.563965, 4203.076660, 4211.281738, 4214.871582, 4251.794922, 4217.948730, 4190.769043, 4232.820313, 4203.589844, 3515.000000, 8198.000000, 8137.000000, 0.000000, 0.000000, 0.000000, -21126.000000, 936.410217, 4.000000, 4.000000, 4.000000, 4.000000, 4.000000, 4.000000, 4.000000, 4.000000, 4.000000, 4.000000, 4.000000, 4.000000, 4.000000, 4.000000, 4.000000, 4.000000
73.000000, 0.000000, 4209.743652, 4214.358887, 4192.307617, 4203.076660, 4180.512695, 4200.000000, 4196.410156, 4197.948730, 4202.563965, 4263.076660, 4211.281738, 4182.563965, 4227.179199, 4204.102539, 3544.000000, 8197.000000, 8140.000000, 0.000000, 0.000000, 0.000000, -21126.000000, 944.102539, 4.000000, 4.000000, 4.000000, 4.000000, 4.000000, 4.000000, 4.000000, 4.000000, 4.000000, 4.000000, 4.000000, 4.000000, 4.000000, 4.000000, 4.000000, 4.000000
74.000000, 0.000000, 4207.179199, 4210.256348, 4184.102539, 4202.563965, 4193.846191, 4199.487305, 4205.127930, 4195.384277, 4186.666504, 4257.436035, 4202.563965, 4175.897461, 4218.974121, 4205.641113, 3537.000000, 8197.000000, 8140.000000, 0.000000, 0.000000, 0.000000, -21126.000000, 952.307678, 4.000000, 4.000000, 4.000000, 4.000000, 4.000000, 4.000000, 4.000000, 4.000000, 4.000000, 4.000000, 4.000000, 4.000000, 4.000000, 4.000000, 4.000000, 4.000000
75.000000, 0.000000, 4203.589844, 4204.615234, 4182.051270, 4200.000000, 4201.025391, 4208.205078, 4215.384277, 4200.512695, 4185.641113, 4245.641113, 4198.461426, 4170.769043, 4209.230469, 4202.563965, 607.000000, 8196.000000, 8140.000000, 0.000000, 0.000000, 0.000000, -21126.000000, 960.000000, 4.000000, 4.000000, 4.000000, 4.000000, 4.000000, 4.000000, 4.000000, 4.000000, 4.000000, 4.000000, 4.000000, 4.000000, 4.000000, 4.000000, 4.000000, 4.000000
76.000000, 0.000000, 4202.051270, 4199.487305, 4179.487305, 4195.384277, 4190.256348, 4217.948730, 4217.948730, 4206.666504, 4188.717773, 4236.410156, 4193.846191, 4167.692383, 4200.512695, 4197.436035, 3486.000000, 8196.000000, 8140.000000, 0.000000, 0.000000, 0.000000, -21126.000000, 968.205078, 4.000000, 4.000000, 4.000000, 4.000000, 4.000000, 4.000000, 4.000000, 4.000000, 4.000000, 4.000000, 4.000000, 4.000000, 4.000000, 4.000000, 4.000000, 4.000000
77.000000, 0.000000, 4201.025391, 4197.436035, 4178.461426, 4194.871582, 4177.948730, 4216.410156, 4218.461426, 4212.820313, 4193.846191, 4236.410156, 4196.410156, 4172.307617, 4203.589844, 4204.615234, 3414.000000, 8198.000000, 8142.000000, 0.000000, 0.000000, 0.000000, -21126.000000, 975.897400, 4.000000, 4.000000, 4.000000, 4.000000, 4.000000, 4.000000, 4.000000, 4.000000, 4.000000, 4.000000, 4.000000, 4.000000, 4.000000, 4.000000, 4.000000, 4.000000
78.000000, 0.000000, 4209.230469, 4198.974121, 4186.153809, 4197.948730, 4187.692383, 4208.717773, 4217.948730, 4220.000000, 4208.205078, 4252.307617, 4213.333008, 4183.076660, 4217.436035, 4205.127930, 3537.000000, 8198.000000, 8142.000000, 0.000000, 0.000000, 0.000000, -21126.000000, 984.102539, 4.000000, 4.000000, 4.000000, 4.000000, 4.000000, 4.000000, 4.000000, 4.000000, 4.000000, 4.000000, 4.000000, 4.000000, 4.000000, 4.000000, 4.000000, 4.000000
79.000000, 0.000000, 4211.281738, 4198.461426, 4190.256348, 4198.461426, 4188.205078, 4199.487305, 4214.871582, 4218.461426, 4210.769043, 4252.307617, 4221.538574, 4188.205078, 4225.641113, 4202.563965, 607.000000, 8202.000000, 8139.000000, 0.000000, 0.000000, 0.000000, -21126.000000, 991.794861, 4.000000, 4.000000, 4.000000, 4.000000, 4.000000, 4.000000, 4.000000, 4.000000, 4.000000, 4.000000, 4.000000, 4.000000, 4.000000, 4.000000, 4.000000, 4.000000
80.000000, 0.000000, 4208.717773, 4196.922852, 4191.281738, 4196.922852, 4169.743652, 4192.307617, 4212.820313, 4207.179199, 4192.307617, 4235.384277, 4215.897461, 4189.743652, 4222.563965, 4203.589844, 3486.000000, 8202.000000, 8139.000000, 0.000000, 0.000000, 0.000000, -21126.000000, 1000.000000, 4.000000, 4.000000, 4.000000, 4.000000, 4.000000, 4.000000, 4.000000, 4.000000, 4.000000, 4.000000, 4.000000, 4.000000, 4.000000, 4.000000, 4.000000, 4.000000
81.000000, 0.000000, 4209.230469, 4198.461426, 4194.871582, 4199.487305, 4172.820313, 4193.333008, 4209.230469, 4204.102539, 4189.230469, 4233.333008, 4214.871582, 4195.897461, 4221.538574, 4203.076660, 3414.000000, 8206.000000, 8135.000000, 0.000000, 0.000000, 0.000000, -21125.000000, 7.692307, 4.000000, 4.000000, 4.000000, 4.000000, 4.000000, 4.000000, 4.000000, 4.000000, 4.000000, 4.000000, 4.000000, 4.000000, 4.000000, 4.000000, 4.000000, 4.000000
82.000000, 0.000000, 4206.153809, 4202.051270, 4198.974121, 4205.127930, 4179.487305, 4198.461426, 4208.717773, 4204.615234, 4196.922852, 4237.948730, 4216.922852, 4199.487305, 4222.051270, 4205.127930, 3537.000000, 8206.000000, 8135.000000, 0.000000, 0.000000, 0.000000, -21125.000000, 15.897435, 4.000000, 4.000000, 4.000000, 4.000000, 4.000000, 4.000000, 4.000000, 4.000000, 4.000000, 4.000000, 4.000000, 4.000000, 4.000000, 4.000000, 4.000000, 4.000000
83.000000, 0.000000, 4207.179199, 4202.563965, 4197.948730, 4210.256348, 4165.641113, 4201.025391, 4210.769043, 4197.436035, 4191.794922, 4242.563965, 4215.384277, 4198.461426, 4222.051270, 4201.538574, 607.000000, 8209.000000, 8135.000000, 0.000000, 0.000000, 0.000000, -21125.000000, 24.102564, 4.000000, 4.000000, 4.000000, 4.000000, 4.000000, 4.000000, 4.000000, 4.000000, 4.000000, 4.000000, 4.000000, 4.000000, 4.000000, 4.000000, 4.000000, 4.000000
84.000000, 0.000000, 4206.153809, 4201.025391, 4198.974121, 4211.794922, 4169.230469, 4200.000000, 4211.281738, 4195.897461, 4190.256348, 4248.205078, 4215.897461, 4200.512695, 4224.102539, 4201.538574, 3486.000000, 8209.000000, 8135.000000, 0.000000, 0.000000, 0.000000, -21125.000000, 31.794870, 4.000000, 4.000000, 4.000000, 4.000000, 4.000000, 4.000000, 4.000000, 4.000000, 4.000000, 4.000000, 4.000000, 4.000000, 4.000000, 4.000000, 4.000000, 4.000000
85.000000, 0.000000, 4206.153809, 4202.051270, 4209.743652, 4214.871582, 4190.256348, 4200.000000, 4207.692383, 4196.410156, 4194.358887, 4237.436035, 4221.538574, 4208.205078, 4225.641113, 4203.589844, 3414.000000, 8208.000000, 8139.000000, 0.000000, 0.000000, 0.000000, -21125.000000, 39.487179, 4.000000, 4.000000, 4.000000, 4.000000, 4.000000, 4.000000, 4.000000, 4.000000, 4.000000, 4.000000, 4.000000, 4.000000, 4.000000, 4.000000, 4.000000, 4.000000
86.000000, 0.000000, 4219.487305, 4202.563965, 4221.538574, 4217.948730, 4188.205078, 4199.487305, 4206.666504, 4191.794922, 4192.307617, 4229.743652, 4229.230469, 4214.358887, 4229.743652, 4203.076660, 3537.000000, 8208.000000, 8139.000000, 0.000000, 0.000000, 0.000000, -21125.000000, 47.179485, 4.000000, 4.000000, 4.000000, 4.000000, 4.000000, 4.000000, 4.000000, 4.000000, 4.000000, 4.000000, 4.000000, 4.000000, 4.000000, 4.000000, 4.000000, 4.000000
87.000000, 0.000000, 4227.692383, 4202.563965, 4228.717773, 4217.948730, 4180.512695, 4198.461426, 4211.794922, 4200.512695, 4198.974121, 4243.589844, 4232.307617, 4218.461426, 4235.897461, 4209.230469, 607.000000, 8208.000000, 8137.000000, 0.000000, 0.000000, 0.000000, -21125.000000, 55.384613, 4.000000, 4.000000, 4.000000, 4.000000, 4.000000, 4.000000, 4.000000, 4.000000, 4.000000, 4.000000, 4.000000, 4.000000, 4.000000, 4.000000, 4.000000, 4.000000
88.000000, 0.000000, 4232.307617, 4206.666504, 4233.846191, 4223.589844, 4185.641113, 4206.153809, 4215.384277, 4216.922852, 4214.871582, 4253.333008, 4237.948730, 4222.563965, 4245.641113, 4210.769043, 3486.000000, 8208.000000, 8137.000000, 0.000000, 0.000000, 0.000000, -21125.000000, 63.076923, 4.000000, 4.000000, 4.000000, 4.000000, 4.000000, 4.000000, 4.000000, 4.000000, 4.000000, 4.000000, 4.000000, 4.000000, 4.000000, 4.000000, 4.000000, 4.000000
89.000000, 0.000000, 4236.410156, 4211.794922, 4236.922852, 4229.230469, 4192.307617, 4214.871582, 4222.051270, 4221.538574, 4222.051270, 4249.743652, 4248.717773, 4230.256348, 4252.820313, 4209.743652, 3414.000000, 8204.000000, 8134.000000, 0.000000, 0.000000, 0.000000, -21125.000000, 71.282051, 4.000000, 4.000000, 4.000000, 4.000000, 4.000000, 4.000000, 4.000000, 4.000000, 4.000000, 4.000000, 4.000000, 4.000000, 4.000000, 4.000000, 4.000000, 4.000000
90.000000, 0.000000, 4240.000000, 4213.333008, 4232.820313, 4227.692383, 4183.589844, 4205.641113, 4216.922852, 4215.897461, 4215.897461, 4245.641113, 4246.153809, 4228.717773, 4251.281738, 4206.153809, 3537.000000, 8204.000000, 8134.000000, 0.000000, 0.000000, 0.000000, -21125.000000, 78.974358, 4.000000, 4.000000, 4.000000, 4.000000, 4.000000, 4.000000, 4.000000, 4.000000, 4.000000, 4.000000, 4.000000, 4.000000, 4.000000, 4.000000, 4.000000, 4.000000
91.000000, 0.000000, 4237.436035, 4202.563965, 4224.102539, 4216.410156, 4160.000000, 4191.281738, 4203.589844, 4215.384277, 4208.205078, 4237.436035, 4233.846191, 4220.512695, 4245.127930, 4202.051270, 607.000000, 8211.000000, 8131.000000, 0.000000, 0.000000, 0.000000, -21125.000000, 87.179482, 4.000000, 4.000000, 4.000000, 4.000000, 4.000000, 4.000000, 4.000000, 4.000000, 4.000000, 4.000000, 4.000000, 4.000000, 4.000000, 4.000000, 4.000000, 4.000000
92.000000, 0.000000, 4219.487305, 4181.538574, 4217.436035, 4199.487305, 4153.846191, 4195.897461, 4211.794922, 4220.512695, 4205.641113, 4223.076660, 4231.281738, 4220.512695, 4234.358887, 4206.666504, 3486.000000, 8211.000000, 8131.000000, 0.000000, 0.000000, 0.000000, -21125.000000, 94.871796, 4.000000, 4.000000, 4.000000, 4.000000, 4.000000, 4.000000, 4.000000, 4.000000, 4.000000, 4.000000, 4.000000, 4.000000, 4.000000, 4.000000, 4.000000, 4.000000
93.000000, 0.000000, 4221.538574, 4182.563965, 4221.025391, 4197.436035, 4177.948730, 4205.641113, 4221.538574, 4215.384277, 4205.127930, 4223.076660, 4232.820313, 4220.000000, 4232.820313, 4201.538574, 3414.000000, 8208.000000, 8136.000000, 0.000000, 0.000000, 0.000000, -21125.000000, 102.564102, 4.000000, 4.000000, 4.000000, 4.000000, 4.000000, 4.000000, 4.000000, 4.000000, 4.000000, 4.000000, 4.000000, 4.000000, 4.000000, 4.000000, 4.000000, 4.000000
94.000000, 0.000000, 4243.076660, 4210.769043, 4224.615234, 4213.333008, 4189.743652, 4198.974121, 4206.666504, 4201.538574, 4200.512695, 4233.846191, 4235.897461, 4215.384277, 4244.102539, 4200.512695, 3537.000000, 8208.000000, 8136.000000, 0.000000, 0.000000, 0.000000, -21125.000000, 110.256409, 4.000000, 4.000000, 4.000000, 4.000000, 4.000000, 4.000000, 4.000000, 4.000000, 4.000000, 4.000000, 4.000000, 4.000000, 4.000000, 4.000000, 4.000000, 4.000000
95.000000, 0.000000, 4252.307617, 4224.102539, 4221.025391, 4221.025391, 4176.922852, 4188.717773, 4186.666504, 4192.307617, 4194.871582, 4229.230469, 4231.281738, 4210.256348, 4240.512695, 4208.717773, 607.000000, 8211.000000, 8139.000000, 0.000000, 0.000000, 0.000000, -21125.000000, 118.461533, 4.000000, 4.000000, 4.000000, 4.000000, 4.000000, 4.000000, 4.000000, 4.000000, 4.000000, 4.000000, 4.000000, 4.000000, 4.000000, 4.000000, 4.000000, 4.000000
96.000000, 0.000000, 4253.333008, 4215.897461, 4217.948730, 4215.897461, 4175.897461, 4185.641113, 4183.589844, 4190.256348, 4193.333008, 4220.000000, 4213.333008, 4205.641113, 4221.538574, 4205.641113, 3486.000000, 8211.000000, 8139.000000, 0.000000, 0.000000, 0.000000, -21125.000000, 126.153847, 4.000000, 4.000000, 4.000000, 4.000000, 4.000000, 4.000000, 4.000000, 4.000000, 4.000000, 4.000000, 4.000000, 4.000000, 4.000000, 4.000000, 4.000000, 4.000000
97.000000, 0.000000, 4254.871582, 4221.538574, 4217.948730, 4215.897461, 4172.820313, 4183.589844, 4189.230469, 4185.127930, 4187.692383, 4213.846191, 4198.974121, 4202.563965, 4209.743652, 4204.102539, 3414.000000, 8216.000000, 8147.000000, 0.000000, 0.000000, 0.000000, -21125.000000, 133.846146, 4.000000, 4.000000, 4.000000, 4.000000, 4.000000, 4.000000, 4.000000, 4.000000, 4.000000, 4.000000, 4.000000, 4.000000, 4.000000, 4.000000, 4.000000, 4.000000
98.000000, 0.000000, 4262.563965, 4234.871582, 4216.922852, 4222.563965, 4154.358887, 4182.563965, 4192.820313, 4180.512695, 4181.538574, 4201.025391, 4200.512695, 4199.487305, 4203.589844, 4204.615234, 3537.000000, 8216.000000, 8147.000000, 0.000000, 0.000000, 0.000000, -21125.000000, 142.051285, 4.000000, 4.000000, 4.000000, 4.000000, 4.000000, 4.000000, 4.000000, 4.000000, 4.000000, 4.000000, 4.000000, 4.000000, 4.000000, 4.000000, 4.000000, 4.000000
99.000000, 0.000000, 4269.743652, 4242.051270, 4216.410156, 4230.256348, 4165.127930, 4184.615234, 4188.205078, 4183.076660, 4187.179199, 4199.487305, 4207.179199, 4202.563965, 4203.076660, 4205.641113, 607.000000, 8214.000000, 8148.000000, 0.000000, 0.000000, 0.000000, -21125.000000, 149.743591, 4.000000, 4.000000, 4.000000, 4.000000, 4.000000, 4.000000, 4.000000, 4.000000, 4.000000, 4.000000, 4.000000, 4.000000, 4.000000, 4.000000, 4.000000, 4.000000
100.000000, 0.000000, 4270.769043, 4250.256348, 4214.871582, 4236.922852, 4192.307617, 4183.076660, 4179.487305, 4184.102539, 4185.641113, 4208.205078, 4204.102539, 4202.563965, 4203.589844, 4208.717773, 3486.000000, 8214.000000, 8148.000000, 0.000000, 0.000000, 0.000000, -21125.000000, 157.948715, 4.000000, 4.000000, 4.000000, 4.000000, 4.000000, 4.000000, 4.000000, 4.000000, 4.000000, 4.000000, 4.000000, 4.000000, 4.000000, 4.000000, 4.000000, 4.000000
101.000000, 0.000000, 4264.615234, 4248.205078, 4206.666504, 4231.794922, 4180.000000, 4178.974121, 4181.025391, 4181.025391, 4169.743652, 4195.384277, 4189.230469, 4188.717773, 4185.641113, 4202.563965, 3414.000000, 8219.000000, 8155.000000, 0.000000, 0.000000, 0.000000, -21125.000000, 165.641022, 4.000000, 4.000000, 4.000000, 4.000000, 4.000000, 4.000000, 4.000000, 4.000000, 4.000000, 4.000000, 4.000000, 4.000000, 4.000000, 4.000000, 4.000000, 4.000000
102.000000, 0.000000, 4253.333008, 4233.846191, 4200.000000, 4223.589844, 4162.051270, 4182.563965, 4191.281738, 4186.666504, 4170.256348, 4185.641113, 4185.641113, 4183.076660, 4170.256348, 4204.615234, 3537.000000, 8219.000000, 8155.000000, 0.000000, 0.000000, 0.000000, -21125.000000, 173.846146, 4.000000, 4.000000, 4.000000, 4.000000, 4.000000, 4.000000, 4.000000, 4.000000, 4.000000, 4.000000, 4.000000, 4.000000, 4.000000, 4.000000, 4.000000, 4.000000
103.000000, 0.000000, 4254.358887, 4228.717773, 4199.487305, 4226.666504, 4179.487305, 4189.743652, 4192.307617, 4197.948730, 4188.205078, 4195.897461, 4196.410156, 4188.717773, 4179.487305, 4206.666504, 607.000000, 8219.000000, 8162.000000, 0.000000, 0.000000, 0.000000, -21125.000000, 181.538452, 4.000000, 4.000000, 4.000000, 4.000000, 4.000000, 4.000000, 4.000000, 4.000000, 4.000000, 4.000000, 4.000000, 4.000000, 4.000000, 4.000000, 4.000000, 4.000000
104.000000, 0.000000, 4252.307617, 4233.333008, 4195.384277, 4230.256348, 4174.358887, 4188.205078, 4186.666504, 4190.769043, 4179.487305, 4190.769043, 4193.846191, 4183.589844, 4179.487305, 4202.563965, 3486.000000, 8219.000000, 8162.000000, 0.000000, 0.000000, 0.000000, -21125.000000, 189.230759, 4.000000, 4.000000, 4.000000, 4.000000, 4.000000, 4.000000, 4.000000, 4.000000, 4.000000, 4.000000, 4.000000, 4.000000, 4.000000, 4.000000, 4.000000, 4.000000
105.000000, 0.000000, 4242.051270, 4231.794922, 4194.358887, 4227.179199, 4151.281738, 4182.051270, 4191.281738, 4176.922852, 4158.461426, 4175.384277, 4183.589844, 4176.410156, 4164.102539, 4204.102539, 3414.000000, 8213.000000, 8160.000000, 0.000000, 0.000000, 0.000000, -21125.000000, 197.435898, 4.000000, 4.000000, 4.000000, 4.000000, 4.000000, 4.000000, 4.000000, 4.000000, 4.000000, 4.000000, 4.000000, 4.000000, 4.000000, 4.000000, 4.000000, 4.000000
106.000000, 0.000000, 4248.717773, 4230.256348, 4202.563965, 4229.230469, 4174.871582, 4183.589844, 4196.410156, 4181.538574, 4170.256348, 4180.512695, 4194.358887, 4182.563965, 4169.743652, 4204.615234, 3537.000000, 8213.000000, 8160.000000, 0.000000, 0.000000, 0.000000, -21125.000000, 205.641022, 4.000000, 4.000000, 4.000000, 4.000000, 4.000000, 4.000000, 4.000000, 4.000000, 4.000000, 4.000000, 4.000000, 4.000000, 4.000000, 4.000000, 4.000000, 4.000000
107.000000, 0.000000, 4252.820313, 4235.384277, 4203.589844, 4236.410156, 4203.589844, 4194.358887, 4190.769043, 4187.179199, 4187.692383, 4195.384277, 4206.666504, 4188.205078, 4186.153809, 4206.666504, 607.000000, 8208.000000, 8161.000000, 0.000000, 0.000000, 0.000000, -21125.000000, 213.333328, 4.000000, 4.000000, 4.000000, 4.000000, 4.000000, 4.000000, 4.000000, 4.000000, 4.000000, 4.000000, 4.000000, 4.000000, 4.000000, 4.000000, 4.000000, 4.000000
108.000000, 0.000000, 4247.179199, 4236.410156, 4198.461426, 4233.333008, 4194.358887, 4194.358887, 4185.641113, 4184.102539, 4185.127930, 4197.948730, 4201.025391, 4187.179199, 4184.615234, 4203.589844, 3486.000000, 8208.000000, 8161.000000, 0.000000, 0.000000, 0.000000, -21125.000000, 221.025635, 4.000000, 4.000000, 4.000000, 4.000000, 4.000000, 4.000000, 4.000000, 4.000000, 4.000000, 4.000000, 4.000000, 4.000000, 4.000000, 4.000000, 4.000000, 4.000000
109.000000, 0.000000, 4246.153809, 4233.333008, 4206.666504, 4229.743652, 4182.051270, 4184.615234, 4189.230469, 4192.820313, 4183.076660, 4195.897461, 4198.974121, 4188.717773, 4174.871582, 4202.051270, 3414.000000, 8209.000000, 8162.000000, 0.000000, 0.000000, 0.000000, -21125.000000, 229.230759, 4.000000, 4.000000, 4.000000, 4.000000, 4.000000, 4.000000, 4.000000, 4.000000, 4.000000, 4.000000, 4.000000, 4.000000, 4.000000, 4.000000, 4.000000, 4.000000
110.000000, 0.000000, 4242.563965, 4227.179199, 4212.307617, 4229.743652, 4184.102539, 4187.179199, 4200.000000, 4203.076660, 4185.127930, 4197.436035, 4198.974121, 4191.794922, 4166.666504, 4205.641113, 3537.000000, 8209.000000, 8162.000000, 0.000000, 0.000000, 0.000000, -21125.000000, 236.923065, 4.000000, 4.000000, 4.000000, 4.000000, 4.000000, 4.000000, 4.000000, 4.000000, 4.000000, 4.000000, 4.000000, 4.000000, 4.000000, 4.000000, 4.000000, 4.000000
111.000000, 0.000000, 4245.641113, 4225.641113, 4210.256348, 4229.230469, 4188.717773, 4198.974121, 4209.230469, 4201.538574, 4184.615234, 4199.487305, 4196.922852, 4190.256348, 4168.717773, 4200.512695, 607.000000, 8206.000000, 8158.000000, 0.000000, 0.000000, 0.000000, -21125.000000, 245.128204, 4.000000, 4.000000, 4.000000, 4.000000, 4.000000, 4.000000, 4.000000, 4.000000, 4.000000, 4.000000, 4.000000, 4.000000, 4.000000, 4.000000, 4.000000, 4.000000
112.000000, 0.000000, 4248.717773, 4229.230469, 4211.281738, 4227.179199, 4181.538574, 4201.538574, 4208.717773, 4208.717773, 4193.846191, 4203.076660, 4203.076660, 4190.769043, 4180.000000, 4202.051270, 3486.000000, 8206.000000, 8158.000000, 0.000000, 0.000000, 0.000000, -21125.000000, 252.820511, 4.000000, 4.000000, 4.000000, 4.000000, 4.000000, 4.000000, 4.000000, 4.000000, 4.000000, 4.000000, 4.000000, 4.000000, 4.000000, 4.000000, 4.000000, 4.000000
113.000000, 0.000000, 4245.127930, 4225.641113, 4210.256348, 4222.051270, 4166.666504, 4196.922852, 4207.692383, 4216.410156, 4204.102539, 4206.153809, 4198.974121, 4188.205078, 4176.922852, 4202.563965, 3414.000000, 8206.000000, 8155.000000, 0.000000, 0.000000, 0.000000, -21125.000000, 260.512817, 4.000000, 4.000000, 4.000000, 4.000000, 4.000000, 4.000000, 4.000000, 4.000000, 4.000000, 4.000000, 4.000000, 4.000000, 4.000000, 4.000000, 4.000000, 4.000000
114.000000, 0.000000, 4242.051270, 4218.461426, 4203.076660, 4215.897461, 4175.897461, 4201.538574, 4218.974121, 4210.769043, 4200.512695, 4208.205078, 4184.615234, 4184.102539, 4162.563965, 4200.512695, 3537.000000, 8206.000000, 8155.000000, 0.000000, 0.000000, 0.000000, -21125.000000, 268.717957, 4.000000, 4.000000, 4.000000, 4.000000, 4.000000, 4.000000, 4.000000, 4.000000, 4.000000, 4.000000, 4.000000, 4.000000, 4.000000, 4.000000, 4.000000, 4.000000
115.000000, 0.000000, 4237.948730, 4217.436035, 4201.025391, 4213.846191, 4201.538574, 4212.820313, 4223.076660, 4209.743652, 4202.051270, 4214.358887, 4189.743652, 4186.153809, 4163.076660, 4206.666504, 607.000000, 8217.000000, 8148.000000, 0.000000, 0.000000, 0.000000, -21125.000000, 276.923065, 4.000000, 4.000000, 4.000000, 4.000000, 4.000000, 4.000000, 4.000000, 4.000000, 4.000000, 4.000000, 4.000000, 4.000000, 4.000000, 4.000000, 4.000000, 4.000000
116.000000, 0.000000, 4242.563965, 4219.487305, 4204.615234, 4216.922852, 4205.127930, 4218.461426, 4216.922852, 4214.871582, 4215.897461, 4221.538574, 4202.051270, 4189.743652, 4173.846191, 4204.615234, 3486.000000, 8217.000000, 8148.000000, 0.000000, 0.000000, 0.000000, -21125.000000, 284.615387, 4.000000, 4.000000, 4.000000, 4.000000, 4.000000, 4.000000, 4.000000, 4.000000, 4.000000, 4.000000, 4.000000, 4.000000, 4.000000, 4.000000, 4.000000, 4.000000
117.000000, 0.000000, 4243.076660, 4220.000000, 4204.102539, 4217.436035, 4195.897461, 4218.461426, 4219.487305, 4211.281738, 4218.974121, 4221.538574, 4196.922852, 4189.743652, 4174.358887, 4203.076660, 3414.000000, 8225.000000, 8149.000000, 0.000000, 0.000000, 0.000000, -21125.000000, 292.307678, 4.000000, 4.000000, 4.000000, 4.000000, 4.000000, 4.000000, 4.000000, 4.000000, 4.000000, 4.000000, 4.000000, 4.000000, 4.000000, 4.000000, 4.000000, 4.000000
118.000000, 0.000000, 4233.846191, 4213.333008, 4196.410156, 4208.205078, 4190.769043, 4212.820313, 4221.538574, 4195.384277, 4205.127930, 4214.871582, 4186.666504, 4182.563965, 4168.717773, 4204.102539, 3537.000000, 8225.000000, 8149.000000, 0.000000, 0.000000, 0.000000, -21125.000000, 300.000000, 4.000000, 4.000000, 4.000000, 4.000000, 4.000000, 4.000000, 4.000000, 4.000000, 4.000000, 4.000000, 4.000000, 4.000000, 4.000000, 4.000000, 4.000000, 4.000000
119.000000, 0.000000, 4229.230469, 4203.076660, 4187.692383, 4198.461426, 4185.127930, 4207.179199, 4208.205078, 4170.769043, 4184.615234, 4204.615234, 4183.076660, 4171.794922, 4163.589844, 4200.000000, 607.000000, 8233.000000, 8153.000000, 0.000000, 0.000000, 0.000000, -21125.000000, 308.205109, 4.000000, 4.000000, 4.000000, 4.000000, 4.000000, 4.000000, 4.000000, 4.000000, 4.000000, 4.000000, 4.000000, 4.000000, 4.000000, 4.000000, 4.000000, 4.000000
120.000000, 0.000000, 4227.692383, 4207.179199, 4188.717773, 4197.948730, 4186.666504, 4208.205078, 4205.641113, 4165.127930, 4184.102539, 4204.102539, 4188.205078, 4170.256348, 4167.179199, 4202.563965, 3486.000000, 8233.000000, 8153.000000, 0.000000, 0.000000, 0.000000, -21125.000000, 315.897430, 4.000000, 4.000000, 4.000000, 4.000000, 4.000000, 4.000000, 4.000000, 4.000000, 4.000000, 4.000000, 4.000000, 4.000000, 4.000000, 4.000000, 4.000000, 4.000000
121.000000, 0.000000, 4232.820313, 4215.384277, 4193.333008, 4203.076660, 4183.076660, 4209.230469, 4211.794922, 4181.538574, 4200.512695, 4216.922852, 4194.871582, 4173.846191, 4173.846191, 4205.641113, 3414.000000, 8235.000000, 8157.000000, 0.000000, 0.000000, 0.000000, -21125.000000, 323.589722, 4.000000, 4.000000, 4.000000, 4.000000, 4.000000, 4.000000, 4.000000, 4.000000, 4.000000, 4.000000, 4.000000, 4.000000, 4.000000, 4.000000, 4.000000, 4.000000
122.000000, 0.000000, 4229.743652, 4206.666504, 4190.769043, 4201.025391, 4169.743652, 4201.538574, 4207.179199, 4182.051270, 4197.948730, 4216.410156, 4192.307617, 4170.256348, 4167.179199, 4204.102539, 3537.000000, 8235.000000, 8157.000000, 0.000000, 0.000000, 0.000000, -21125.000000, 331.282043, 4.000000, 4.000000, 4.000000, 4.000000, 4.000000, 4.000000, 4.000000, 4.000000, 4.000000, 4.000000, 4.000000, 4.000000, 4.000000, 4.000000, 4.000000, 4.000000
123.000000, 0.000000, 4223.589844, 4198.974121, 4193.333008, 4197.948730, 4178.974121, 4199.487305, 4204.102539, 4173.333008, 4186.666504, 4208.205078, 4191.281738, 4172.307617, 4169.743652, 4204.102539, 607.000000, 8237.000000, 8156.000000, 0.000000, 0.000000, 0.000000, -21125.000000, 339.487183, 4.000000, 4.000000, 4.000000, 4.000000, 4.000000, 4.000000, 4.000000, 4.000000, 4.000000, 4.000000, 4.000000, 4.000000, 4.000000, 4.000000, 4.000000, 4.000000
124.000000, 0.000000, 4231.281738, 4206.153809, 4202.051270, 4207.692383, 4200.512695, 4206.153809, 4207.692383, 4185.641113, 4197.436035, 4219.487305, 4203.589844, 4185.127930, 4185.641113, 4204.615234, 3486.000000, 8237.000000, 8156.000000, 0.000000, 0.000000, 0.000000, -21125.000000, 347.179474, 4.000000, 4.000000, 4.000000, 4.000000, 4.000000, 4.000000, 4.000000, 4.000000, 4.000000, 4.000000, 4.000000, 4.000000, 4.000000, 4.000000, 4.000000, 4.000000
125.000000, 0.000000, 4224.615234, 4205.641113, 4195.897461, 4210.256348, 4194.871582, 4203.589844, 4204.615234, 4193.333008, 4205.641113, 4223.076660, 4205.641113, 4181.538574, 4180.512695, 4205.641113, 3414.000000, 8239.000000, 8164.000000, 0.000000, 0.000000, 0.000000, -21125.000000, 354.871796, 4.000000, 4.000000, 4.000000, 4.000000, 4.000000, 4.000000, 4.000000, 4.000000, 4.000000, 4.000000, 4.000000, 4.000000, 4.000000, 4.000000, 4.000000, 4.000000
126.000000, 0.000000, 4211.794922, 4195.384277, 4185.127930, 4198.461426, 4177.436035, 4195.384277, 4198.974121, 4184.615234, 4195.897461, 4213.846191, 4194.358887, 4165.641113, 4165.127930, 4199.487305, 3537.000000, 8239.000000, 8164.000000, 0.000000, 0.000000, 0.000000, -21125.000000, 363.076904, 4.000000, 4.000000, 4.000000, 4.000000, 4.000000, 4.000000, 4.000000, 4.000000, 4.000000, 4.000000, 4.000000, 4.000000, 4.000000, 4.000000, 4.000000, 4.000000
127.000000, 0.000000, 4216.922852, 4197.948730, 4183.076660, 4195.897461, 4184.615234, 4199.487305, 4203.076660, 4186.666504, 4196.922852, 4215.384277, 4191.281738, 4167.179199, 4170.256348, 4200.512695, 54.000000, 8232.000000, 8164.000000, 0.000000, 0.000000, 0.000000, -21125.000000, 370.769226, 4.000000, 4.000000, 4.000000, 4.000000, 4.000000, 4.000000, 4.000000, 4.000000, 4.000000, 4.000000, 4.000000, 4.000000, 4.000000, 4.000000, 4.000000, 4.000000
0.000000, 0.000000, 4224.615234, 4203.589844, 4185.641113, 4207.179199, 4190.256348, 4204.102539, 4205.641113, 4194.358887, 4203.076660, 4210.256348, 4189.743652, 4171.281738, 4175.384277, 4206.666504, 3362.000000, 8232.000000, 8164.000000, 0.000000, 0.000000, 0.000000, -21125.000000, 378.461517, 4.000000, 4.000000, 4.000000, 4.000000, 4.000000, 4.000000, 4.000000, 4.000000, 4.000000, 4.000000, 4.000000, 4.000000, 4.000000, 4.000000, 4.000000, 4.000000
1.000000, 0.000000, 4225.127930, 4204.615234, 4191.794922, 4212.820313, 4174.358887, 4195.897461, 4195.384277, 4191.281738, 4196.410156, 4198.974121, 4186.666504, 4166.153809, 4166.666504, 4203.589844, 3514.000000, 8221.000000, 8164.000000, 0.000000, 0.000000, 0.000000, -21125.000000, 386.153839, 4.000000, 4.000000, 4.000000, 4.000000, 4.000000, 4.000000, 4.000000, 4.000000, 4.000000, 4.000000, 4.000000, 4.000000, 4.000000, 4.000000, 4.000000, 4.000000
2.000000, 0.000000, 4228.717773, 4209.230469, 4198.461426, 4214.871582, 4172.820313, 4188.205078, 4185.641113, 4184.102539, 4193.333008, 4207.692383, 4192.307617, 4172.307617, 4172.307617, 4206.666504, 2552.000000, 8221.000000, 8164.000000, 0.000000, 0.000000, 0.000000, -21125.000000, 394.358978, 4.000000, 4.000000, 4.000000, 4.000000, 4.000000, 4.000000, 4.000000, 4.000000, 4.000000, 4.000000, 4.000000, 4.000000, 4.000000, 4.000000, 4.000000, 4.000000
3.000000, 0.000000, 4243.076660, 4216.410156, 4202.563965, 4218.974121, 4188.717773, 4196.410156, 4190.769043, 4184.102539, 4198.974121, 4211.794922, 4199.487305, 4184.102539, 4187.692383, 4206.666504, 2157.000000, 8214.000000, 8162.000000, 0.000000, 0.000000, 0.000000, -21125.000000, 402.051270, 4.000000, 4.000000, 4.000000, 4.000000, 4.000000, 4.000000, 4.000000, 4.000000, 4.000000, 4.000000, 4.000000, 4.000000, 4.000000, 4.000000, 4.000000, 4.000000
4.000000, 0.000000, 4243.589844, 4216.410156, 4202.563965, 4219.487305, 4188.717773, 4201.025391, 4204.102539, 4187.179199, 4203.076660, 4202.051270, 4202.051270, 4181.538574, 4189.230469, 4206.666504, 3526.000000, 8214.000000, 8162.000000, 0.000000, 0.000000, 0.000000, -21125.000000, 409.743591, 4.000000, 4.000000, 4.000000, 4.000000, 4.000000, 4.000000, 4.000000, 4.000000, 4.000000, 4.000000, 4.000000, 4.000000, 4.000000, 4.000000, 4.000000, 4.000000
5.000000, 0.000000, 4231.281738, 4209.230469, 4202.563965, 4217.436035, 4184.102539, 4197.948730, 4203.076660, 4186.666504, 4201.025391, 4203.076660, 4196.922852, 4177.436035, 4178.461426, 4209.743652, 3537.000000, 8209.000000, 8165.000000, 0.000000, 0.000000, 0.000000, -21125.000000, 417.948700, 4.000000, 4.000000, 4.000000, 4.000000, 4.000000, 4.000000, 4.000000, 4.000000, 4.000000, 4.000000, 4.000000, 4.000000, 4.000000, 4.000000, 4.000000, 4.000000
6.000000, 0.000000, 4237.948730, 4206.666504, 4206.153809, 4220.000000, 4186.153809, 4198.974121, 4197.436035, 4185.641113, 4194.358887, 4207.692383, 4189.230469, 4182.563965, 4171.794922, 4205.127930, 3133.000000, 8209.000000, 8165.000000, 0.000000, 0.000000, 0.000000, -21125.000000, 426.153839, 4.000000, 4.000000, 4.000000, 4.000000, 4.000000, 4.000000, 4.000000, 4.000000, 4.000000, 4.000000, 4.000000, 4.000000, 4.000000, 4.000000, 4.000000, 4.000000
7.000000, 0.000000, 4242.563965, 4208.717773, 4206.666504, 4221.025391, 4174.871582, 4198.461426, 4198.461426, 4183.589844, 4190.256348, 4204.615234, 4189.743652, 4188.205078, 4177.948730, 4207.692383, 3509.000000, 8202.000000, 8170.000000, 0.000000, 0.000000, 0.000000, -21125.000000, 433.846130, 4.000000, 4.000000, 4.000000, 4.000000, 4.000000, 4.000000, 4.000000, 4.000000, 4.000000, 4.000000, 4.000000, 4.000000, 4.000000, 4.000000, 4.000000, 4.000000
8.000000, 0.000000, 4241.538574, 4215.384277, 4206.666504, 4221.538574, 4173.846191, 4197.948730, 4198.461426, 4189.743652, 4200.512695, 4210.769043, 4196.410156, 4192.820313, 4184.615234, 4210.256348, 3517.000000, 8202.000000, 8170.000000, 0.000000, 0.000000, 0.000000, -21125.000000, 441.538452, 4.000000, 4.000000, 4.000000, 4.000000, 4.000000, 4.000000, 4.000000, 4.000000, 4.000000, 4.000000, 4.000000, 4.000000, 4.000000, 4.000000, 4.000000, 4.000000
9.000000, 0.000000, 4245.127930, 4214.871582, 4211.281738, 4223.076660, 4194.871582, 4208.205078, 4200.000000, 4204.102539, 4218.974121, 4228.205078, 4203.076660, 4202.051270, 4188.205078, 4207.692383, 3534.000000, 8195.000000, 8171.000000, 0.000000, 0.000000, 0.000000, -21125.000000, 449.743591, 4.000000, 4.000000, 4.000000, 4.000000, 4.000000, 4.000000, 4.000000, 4.000000, 4.000000, 4.000000, 4.000000, 4.000000, 4.000000, 4.000000, 4.000000, 4.000000
10.000000, 0.000000, 4243.589844, 4203.589844, 4213.846191, 4221.538574, 4197.436035, 4211.794922, 4204.102539, 4204.102539, 4217.436035, 4234.871582, 4203.589844, 4203.589844, 4190.769043, 4208.717773, 3537.000000, 8195.000000, 8171.000000, 0.000000, 0.000000, 0.000000, -21125.000000, 457.435883, 4.000000, 4.000000, 4.000000, 4.000000, 4.000000, 4.000000, 4.000000, 4.000000, 4.000000, 4.000000, 4.000000, 4.000000, 4.000000, 4.000000, 4.000000, 4.000000
11.000000, 0.000000, 4249.230469, 4205.127930, 4215.897461, 4217.948730, 4190.256348, 4204.615234, 4201.538574, 4197.948730, 4215.384277, 4233.333008, 4204.615234, 4199.487305, 4191.794922, 4203.076660, 604.000000, 8184.000000, 8176.000000, 0.000000, 0.000000, 0.000000, -21125.000000, 465.641022, 4.000000, 4.000000, 4.000000, 4.000000, 4.000000, 4.000000, 4.000000, 4.000000, 4.000000, 4.000000, 4.000000, 4.000000, 4.000000, 4.000000, 4.000000, 4.000000
12.000000, 0.000000, 4251.281738, 4213.846191, 4217.948730, 4216.922852, 4181.538574, 4201.538574, 4200.000000, 4208.205078, 4229.743652, 4233.333008, 4207.179199, 4201.025391, 4188.205078, 4203.589844, 3478.000000, 8184.000000, 8176.000000, 0.000000, 0.000000, 0.000000, -21125.000000, 473.333313, 4.000000, 4.000000, 4.000000, 4.000000, 4.000000, 4.000000, 4.000000, 4.000000, 4.000000, 4.000000, 4.000000, 4.000000, 4.000000, 4.000000, 4.000000, 4.000000
13.000000, 0.000000, 4244.615234, 4206.153809, 4209.743652, 4217.948730, 4168.205078, 4198.461426, 4206.666504, 4219.487305, 4226.153809, 4234.358887, 4202.051270, 4199.487305, 4181.025391, 4206.153809, 3407.000000, 8175.000000, 8179.000000, 0.000000, 0.000000, 0.000000, -21125.000000, 481.538452, 4.000000, 4.000000, 4.000000, 4.000000, 4.000000, 4.000000, 4.000000, 4.000000, 4.000000, 4.000000, 4.000000, 4.000000, 4.000000, 4.000000, 4.000000, 4.000000
14.000000, 0.000000, 4244.615234, 4200.512695, 4200.000000, 4217.436035, 4178.974121, 4198.974121, 4212.307617, 4216.410156, 4214.871582, 4243.589844, 4198.974121, 4196.922852, 4181.538574, 4203.076660, 3537.000000, 8175.000000, 8179.000000, 0.000000, 0.000000, 0.000000, -21125.000000, 489.230743, 4.000000, 4.000000, 4.000000, 4.000000, 4.000000, 4.000000, 4.000000, 4.000000, 4.000000, 4.000000, 4.000000, 4.000000, 4.000000, 4.000000, 4.000000, 4.000000
15.000000, 0.000000, 4246.666504, 4209.743652, 4205.127930, 4219.487305, 4205.127930, 4211.794922, 4213.333008, 4215.897461, 4224.615234, 4249.743652, 4206.153809, 4202.563965, 4187.179199, 4206.153809, 604.000000, 8167.000000, 8181.000000, 0.000000, 0.000000, 0.000000, -21125.000000, 497.435883, 4.000000, 4.000000, 4.000000, 4.000000, 4.000000, 4.000000, 4.000000, 4.000000, 4.000000, 4.000000, 4.000000, 4.000000, 4.000000, 4.000000, 4.000000, 4.000000
16.000000, 0.000000, 4246.666504, 4207.692383, 4208.717773, 4218.461426, 4201.025391, 4221.538574, 4215.384277, 4219.487305, 4225.641113, 4241.538574, 4207.692383, 4200.000000, 4186.153809, 4206.153809, 0.000000, 8167.000000, 8181.000000, 0.000000, 0.000000, 0.000000, -21125.000000, 505.128204, 4.000000, 4.000000, 4.000000, 4.000000, 4.000000, 4.000000, 4.000000, 4.000000, 4.000000, 4.000000, 4.000000, 4.000000, 4.000000, 4.000000, 4.000000, 4.000000
17.000000, 0.000000, 4245.127930, 4202.051270, 4201.025391, 4214.871582, 4190.256348, 4216.922852, 4214.358887, 4210.256348, 4206.666504, 4234.358887, 4201.025391, 4187.179199, 4186.153809, 4207.692383, 0.000000, 8164.000000, 8175.000000, 0.000000, 0.000000, 0.000000, -21125.000000, 513.333313, 4.000000, 4.000000, 4.000000, 4.000000, 4.000000, 4.000000, 4.000000, 4.000000, 4.000000, 4.000000, 4.000000, 4.000000, 4.000000, 4.000000, 4.000000, 4.000000
18.000000, 0.000000, 4249.743652, 4211.794922, 4200.000000, 4218.974121, 4197.436035, 4210.256348, 4208.717773, 4197.948730, 4204.102539, 4231.794922, 4195.897461, 4184.102539, 4185.641113, 4207.692383, 0.000000, 8164.000000, 8175.000000, 0.000000, 0.000000, 0.000000, -21125.000000, 521.025635, 4.000000, 4.000000, 4.000000, 4.000000, 4.000000, 4.000000, 4.000000, 4.000000, 4.000000, 4.000000, 4.000000, 4.000000, 4.000000, 4.000000, 4.000000, 4.000000
19.000000, 0.000000, 4246.153809, 4214.871582, 4205.127930, 4218.461426, 4196.922852, 4204.615234, 4205.127930, 4205.127930, 4215.384277, 4222.563965, 4188.717773, 4187.692383, 4172.307617, 4203.589844, 0.000000, 8168.000000, 8176.000000, 0.000000, 0.000000, 0.000000, -21125.000000, 528.717957, 4.000000, 4.000000, 4.000000, 4.000000, 4.000000, 4.000000, 4.000000, 4.000000, 4.000000, 4.000000, 4.000000, 4.000000, 4.000000, 4.000000, 4.000000, 4.000000
20.000000, 0.000000, 4236.922852, 4210.256348, 4198.461426, 4215.897461, 4192.307617, 4201.538574, 4202.051270, 4212.820313, 4214.358887, 4223.076660, 4190.769043, 4188.205078, 4174.358887, 4206.153809, 0.000000, 8168.000000, 8176.000000, 0.000000, 0.000000, 0.000000, -21125.000000, 536.923035, 4.000000, 4.000000, 4.000000, 4.000000, 4.000000, 4.000000, 4.000000, 4.000000, 4.000000, 4.000000, 4.000000, 4.000000, 4.000000, 4.000000, 4.000000, 4.000000
21.000000, 0.000000, 4246.666504, 4216.922852, 4189.230469, 4225.127930, 4191.281738, 4203.589844, 4197.436035, 4203.589844, 4205.641113, 4228.205078, 4206.153809, 4186.666504, 4196.410156, 4202.563965, 0.000000, 8178.000000, 8179.000000, 0.000000, 0.000000, 0.000000, -21125.000000, 544.615356, 4.000000, 4.000000, 4.000000, 4.000000, 4.000000, 4.000000, 4.000000, 4.000000, 4.000000, 4.000000, 4.000000, 4.000000, 4.000000, 4.000000, 4.000000, 4.000000
22.000000, 0.000000, 4248.717773, 4221.025391, 4189.743652, 4229.743652, 4190.256348, 4205.127930, 4197.948730, 4200.512695, 4202.051270, 4217.436035, 4202.563965, 4181.025391, 4196.410156, 4201.538574, 0.000000, 8178.000000, 8179.000000, 0.000000, 0.000000, 0.000000, -21125.000000, 552.820496, 4.000000, 4.000000, 4.000000, 4.000000, 4.000000, 4.000000, 4.000000, 4.000000, 4.000000, 4.000000, 4.000000, 4.000000, 4.000000, 4.000000, 4.000000, 4.000000
23.000000, 0.000000, 4238.461426, 4216.410156, 4194.358887, 4220.000000, 4201.025391, 4204.102539, 4201.538574, 4203.589844, 4198.461426, 4209.743652, 4183.076660, 4176.410156, 4174.358887, 4203.076660, 0.000000, 8180.000000, 8176.000000, 0.000000, 0.000000, 0.000000, -21125.000000, 560.512817, 4.000000, 4.000000, 4.000000, 4.000000, 4.000000, 4.000000, 4.000000, 4.000000, 4.000000, 4.000000, 4.000000, 4.000000, 4.000000, 4.000000, 4.000000, 4.000000
24.000000, 0.000000, 4244.102539, 4215.384277, 4196.922852, 4216.922852, 4205.641113, 4203.076660, 4193.846191, 4192.820313, 4191.281738, 4216.922852, 4182.051270, 4175.897461, 4168.717773, 4200.512695, 0.000000, 8180.000000, 8176.000000, 0.000000, 0.000000, 0.000000, -21125.000000, 568.205139, 4.000000, 4.000000, 4.000000, 4.000000, 4.000000, 4.000000, 4.000000, 4.000000, 4.000000, 4.000000, 4.000000, 4.000000, 4.000000, 4.000000, 4.000000, 4.000000
25.000000, 0.000000, 4246.153809, 4216.922852, 4198.461426, 4223.076660, 4198.974121, 4200.512695, 4186.153809, 4186.153809, 4188.717773, 4213.846191, 4190.256348, 4180.512695, 4181.538574, 4204.102539, 0.000000, 8193.000000, 8177.000000, 0.000000, 0.000000, 0.000000, -21125.000000, 576.410217, 4.000000, 4.000000, 4.000000, 4.000000, 4.000000, 4.000000, 4.000000, 4.000000, 4.000000, 4.000000, 4.000000, 4.000000, 4.000000, 4.000000, 4.000000, 4.000000
26.000000, 0.000000, 4242.563965, 4215.897461, 4200.000000, 4221.538574, 4199.487305, 4200.000000, 4193.333008, 4192.820313, 4197.948730, 4203.589844, 4187.179199, 4180.000000, 4182.563965, 4202.563965, 0.000000, 8193.000000, 8177.000000, 0.000000, 0.000000, 0.000000, -21125.000000, 584.102539, 4.000000, 4.000000, 4.000000, 4.000000, 4.000000, 4.000000, 4.000000, 4.000000, 4.000000, 4.000000, 4.000000, 4.000000, 4.000000, 4.000000, 4.000000, 4.000000
27.000000, 0.000000, 4243.076660, 4215.384277, 4196.410156, 4217.436035, 4190.769043, 4198.974121, 4202.563965, 4195.384277, 4201.538574, 4201.538574, 4184.102539, 4176.922852, 4173.846191, 4199.487305, 0.000000, 8198.000000, 8174.000000, 0.000000, 0.000000, 0.000000, -21125.000000, 591.794861, 4.000000, 4.000000, 4.000000, 4.000000, 4.000000, 4.000000, 4.000000, 4.000000, 4.000000, 4.000000, 4.000000, 4.000000, 4.000000, 4.000000, 4.000000, 4.000000
28.000000, 0.000000, 4243.076660, 4216.410156, 4188.717773, 4217.436035, 4178.461426, 4199.487305, 4201.025391, 4197.436035, 4195.897461, 4206.153809, 4189.230469, 4179.487305, 4173.846191, 4198.974121, 0.000000, 8198.000000, 8174.000000, 0.000000, 0.000000, 0.000000, -21125.000000, 600.000000, 4.000000, 4.000000, 4.000000, 4.000000, 4.000000, 4.000000, 4.000000, 4.000000, 4.000000, 4.000000, 4.000000, 4.000000, 4.000000, 4.000000, 4.000000, 4.000000
29.000000, 0.000000, 4242.563965, 4216.410156, 4189.743652, 4216.922852, 4194.871582, 4204.615234, 4197.948730, 4202.051270, 4202.051270, 4218.974121, 4199.487305, 4185.641113, 4185.641113, 4198.974121, 0.000000, 8196.000000, 8169.000000, 0.000000, 0.000000, 0.000000, -21125.000000, 607.692322, 4.000000, 4.000000, 4.000000, 4.000000, 4.000000, 4.000000, 4.000000, 4.000000, 4.000000, 4.000000, 4.000000, 4.000000, 4.000000, 4.000000, 4.000000, 4.000000
30.000000, 0.000000, 4240.512695, 4215.897461, 4195.384277, 4215.897461, 4210.769043, 4207.179199, 4199.487305, 4199.487305, 4210.256348, 4224.102539, 4208.205078, 4192.820313, 4193.846191, 4206.666504, 0.000000, 8196.000000, 8169.000000, 0.000000, 0.000000, 0.000000, -21125.000000, 615.384583, 4.000000, 4.000000, 4.000000, 4.000000, 4.000000, 4.000000, 4.000000, 4.000000, 4.000000, 4.000000, 4.000000, 4.000000, 4.000000, 4.000000, 4.000000, 4.000000
31.000000, 0.000000, 4249.743652, 4217.436035, 4202.563965, 4220.512695, 4203.076660, 4211.281738, 4207.179199, 4207.692383, 4215.384277, 4221.025391, 4214.358887, 4198.974121, 4202.051270, 4205.641113, 0.000000, 8194.000000, 8172.000000, 0.000000, 0.000000, 0.000000, -21125.000000, 623.076904, 4.000000, 4.000000, 4.000000, 4.000000, 4.000000, 4.000000, 4.000000, 4.000000, 4.000000, 4.000000, 4.000000, 4.000000, 4.000000, 4.000000, 4.000000, 4.000000
32.000000, 0.000000, 4252.307617, 4220.000000, 4202.563965, 4224.615234, 4201.025391, 4217.948730, 4215.897461, 4220.512695, 4222.051270, 4221.538574, 4211.281738, 4196.922852, 4206.153809, 4202.563965, 0.000000, 8194.000000, 8172.000000, 0.000000, 0.000000, 0.000000, -21125.000000, 631.282043, 4.000000, 4.000000, 4.000000, 4.000000, 4.000000, 4.000000, 4.000000, 4.000000, 4.000000, 4.000000, 4.000000, 4.000000, 4.000000, 4.000000, 4.000000, 4.000000
33.000000, 0.000000, 4235.384277, 4212.307617, 4190.256348, 4215.384277, 4203.589844, 4213.333008, 4210.256348, 4206.153809, 4210.769043, 4212.820313, 4194.358887, 4182.051270, 4189.230469, 4202.563965, 0.000000, 8184.000000, 8171.000000, 0.000000, 0.000000, 0.000000, -21125.000000, 638.974365, 4.000000, 4.000000, 4.000000, 4.000000, 4.000000, 4.000000, 4.000000, 4.000000, 4.000000, 4.000000, 4.000000, 4.000000, 4.000000, 4.000000, 4.000000, 4.000000
34.000000, 0.000000, 4225.641113, 4202.563965, 4181.538574, 4206.153809, 4186.666504, 4198.974121, 4192.307617, 4189.743652, 4195.384277, 4200.512695, 4182.051270, 4173.846191, 4177.948730, 4197.436035, 0.000000, 8184.000000, 8171.000000, 0.000000, 0.000000, 0.000000, -21125.000000, 646.666626, 4.000000, 4.000000, 4.000000, 4.000000, 4.000000, 4.000000, 4.000000, 4.000000, 4.000000, 4.000000, 4.000000, 4.000000, 4.000000, 4.000000, 4.000000, 4.000000
35.000000, 0.000000, 4226.666504, 4206.666504, 4191.281738, 4211.794922, 4180.000000, 4198.974121, 4195.384277, 4207.179199, 4206.666504, 4211.281738, 4191.281738, 4187.179199, 4188.205078, 4201.538574, 0.000000, 8185.000000, 8164.000000, 0.000000, 0.000000, 0.000000, -21125.000000, 654.871765, 4.000000, 4.000000, 4.000000, 4.000000, 4.000000, 4.000000, 4.000000, 4.000000, 4.000000, 4.000000, 4.000000, 4.000000, 4.000000, 4.000000, 4.000000, 4.000000
36.000000, 0.000000, 4235.384277, 4215.897461, 4204.102539, 4219.487305, 4198.974121, 4212.820313, 4213.333008, 4221.538574, 4225.127930, 4226.666504, 4203.076660, 4201.025391, 4198.974121, 4205.641113, 0.000000, 8185.000000, 8164.000000, 0.000000, 0.000000, 0.000000, -21125.000000, 662.564087, 4.000000, 4.000000, 4.000000, 4.000000, 4.000000, 4.000000, 4.000000, 4.000000, 4.000000, 4.000000, 4.000000, 4.000000, 4.000000, 4.000000, 4.000000, 4.000000
37.000000, 0.000000, 4239.487305, 4213.846191, 4202.051270, 4218.461426, 4209.230469, 4213.333008, 4210.769043, 4208.717773, 4218.974121, 4221.025391, 4203.076660, 4197.948730, 4203.076660, 4202.051270, 0.000000, 8187.000000, 8168.000000, 0.000000, 0.000000, 0.000000, -21125.000000, 670.769226, 4.000000, 4.000000, 4.000000, 4.000000, 4.000000, 4.000000, 4.000000, 4.000000, 4.000000, 4.000000, 4.000000, 4.000000, 4.000000, 4.000000, 4.000000, 4.000000
38.000000, 0.000000, 4232.820313, 4207.179199, 4193.333008, 4216.410156, 4201.538574, 4201.538574, 4205.641113, 4200.000000, 4205.127930, 4209.230469, 4199.487305, 4188.717773, 4197.436035, 4202.051270, 0.000000, 8187.000000, 8168.000000, 0.000000, 0.000000, 0.000000, -21125.000000, 678.461548, 4.000000, 4.000000, 4.000000, 4.000000, 4.000000, 4.000000, 4.000000, 4.000000, 4.000000, 4.000000, 4.000000, 4.000000, 4.000000, 4.000000, 4.000000, 4.000000
