title:winkLeft5, recorded:16.05.18 20.10.04, timestamp started:2018-05-12T20:28:52.032863+02:00            , sampling:128, subject:Noé, labels:COUNTER INTERPOLATED AF3 F7 F3 FC5 T7 P7 O1 O2 P8 T8 FC6 F4 F8 AF4 RAW_CQ GYROX GYROY MARKER MARKER_HARDWARE SYNC TIME_STAMP_s TIME_STAMP_ms CQ_AF3 CQ_F7 CQ_F3 CQ_FC5 CQ_T7 CQ_P7 CQ_O1 CQ_O2 CQ_P8 CQ_T8 CQ_FC6 CQ_F4 CQ_F8 CQ_AF4 CQ_CMS CQ_DRL, chan:40, samples:7149, units:emotiv
96.000000, 0.000000, 4172.307617, 4121.538574, 4191.281738, 4134.871582, 4199.487305, 4213.846191, 4217.436035, 4220.512695, 4243.076660, 4187.179199, 4164.615234, 4197.436035, 4178.974121, 4192.307617, 3480.000000, 8235.000000, 8173.000000, 0.000000, 0.000000, 0.000000, 16793.000000, 275.384613, 4.000000, 4.000000, 4.000000, 4.000000, 4.000000, 4.000000, 4.000000, 4.000000, 4.000000, 4.000000, 4.000000, 4.000000, 4.000000, 4.000000, 4.000000, 4.000000
97.000000, 0.000000, 4165.641113, 4127.692383, 4188.205078, 4144.102539, 4200.512695, 4214.358887, 4216.410156, 4208.205078, 4240.000000, 4187.179199, 4169.743652, 4196.922852, 4178.461426, 4195.384277, 2356.000000, 8241.000000, 8164.000000, 0.000000, 0.000000, 0.000000, 16793.000000, 283.076904, 4.000000, 4.000000, 4.000000, 4.000000, 4.000000, 4.000000, 4.000000, 4.000000, 4.000000, 4.000000, 4.000000, 4.000000, 4.000000, 4.000000, 4.000000, 4.000000
98.000000, 0.000000, 4170.769043, 4138.974121, 4192.307617, 4140.000000, 4202.563965, 4215.897461, 4216.410156, 4207.692383, 4236.410156, 4186.666504, 4176.922852, 4198.974121, 4182.051270, 4193.846191, 3195.000000, 8241.000000, 8164.000000, 0.000000, 0.000000, 0.000000, 16793.000000, 291.282043, 4.000000, 4.000000, 4.000000, 4.000000, 4.000000, 4.000000, 4.000000, 4.000000, 4.000000, 4.000000, 4.000000, 4.000000, 4.000000, 4.000000, 4.000000, 4.000000
99.000000, 0.000000, 4177.436035, 4138.974121, 4199.487305, 4140.512695, 4198.974121, 4214.358887, 4211.794922, 4217.436035, 4240.512695, 4192.307617, 4185.641113, 4211.281738, 4187.692383, 4200.512695, 1978.000000, 8239.000000, 8154.000000, 0.000000, 0.000000, 0.000000, 16793.000000, 298.974365, 4.000000, 4.000000, 4.000000, 4.000000, 4.000000, 4.000000, 4.000000, 4.000000, 4.000000, 4.000000, 4.000000, 4.000000, 4.000000, 4.000000, 4.000000, 4.000000
100.000000, 0.000000, 4178.974121, 4137.948730, 4201.538574, 4152.820313, 4197.948730, 4213.333008, 4210.256348, 4219.487305, 4252.307617, 4210.769043, 4197.948730, 4217.948730, 4191.281738, 4207.179199, 3480.000000, 8239.000000, 8154.000000, 0.000000, 0.000000, 0.000000, 16793.000000, 306.666656, 4.000000, 4.000000, 4.000000, 4.000000, 4.000000, 4.000000, 4.000000, 4.000000, 4.000000, 4.000000, 4.000000, 4.000000, 4.000000, 4.000000, 4.000000, 4.000000
101.000000, 0.000000, 4184.615234, 4136.410156, 4205.641113, 4154.358887, 4210.769043, 4220.000000, 4214.358887, 4217.436035, 4263.589844, 4220.000000, 4202.563965, 4220.000000, 4192.307617, 4200.000000, 2356.000000, 8238.000000, 8148.000000, 0.000000, 0.000000, 0.000000, 16793.000000, 314.358978, 4.000000, 4.000000, 4.000000, 4.000000, 4.000000, 4.000000, 4.000000, 4.000000, 4.000000, 4.000000, 4.000000, 4.000000, 4.000000, 4.000000, 4.000000, 4.000000
102.000000, 0.000000, 4179.487305, 4134.358887, 4206.666504, 4148.717773, 4217.436035, 4218.974121, 4210.256348, 4211.281738, 4254.358887, 4205.127930, 4193.333008, 4225.127930, 4187.692383, 4198.974121, 3195.000000, 8238.000000, 8148.000000, 0.000000, 0.000000, 0.000000, 16793.000000, 322.051270, 4.000000, 4.000000, 4.000000, 4.000000, 4.000000, 4.000000, 4.000000, 4.000000, 4.000000, 4.000000, 4.000000, 4.000000, 4.000000, 4.000000, 4.000000, 4.000000
103.000000, 0.000000, 4175.897461, 4126.153809, 4202.563965, 4146.153809, 4209.230469, 4202.563965, 4197.948730, 4207.179199, 4241.538574, 4196.410156, 4184.102539, 4214.871582, 4181.538574, 4195.384277, 1978.000000, 8238.000000, 8151.000000, 0.000000, 0.000000, 0.000000, 16793.000000, 329.743591, 4.000000, 4.000000, 4.000000, 4.000000, 4.000000, 4.000000, 4.000000, 4.000000, 4.000000, 4.000000, 4.000000, 4.000000, 4.000000, 4.000000, 4.000000, 4.000000
104.000000, 0.000000, 4175.384277, 4111.281738, 4198.974121, 4142.051270, 4201.025391, 4200.512695, 4198.974121, 4214.358887, 4246.153809, 4202.051270, 4185.127930, 4212.307617, 4177.436035, 4193.846191, 3480.000000, 8238.000000, 8151.000000, 0.000000, 0.000000, 0.000000, 16793.000000, 337.948700, 4.000000, 4.000000, 4.000000, 4.000000, 4.000000, 4.000000, 4.000000, 4.000000, 4.000000, 4.000000, 4.000000, 4.000000, 4.000000, 4.000000, 4.000000, 4.000000
105.000000, 0.000000, 4168.205078, 4109.230469, 4194.871582, 4136.922852, 4200.512695, 4216.410156, 4203.589844, 4210.769043, 4241.025391, 4202.051270, 4184.615234, 4215.897461, 4175.897461, 4194.358887, 2356.000000, 8229.000000, 8145.000000, 0.000000, 0.000000, 0.000000, 16793.000000, 345.641022, 4.000000, 4.000000, 4.000000, 4.000000, 4.000000, 4.000000, 4.000000, 4.000000, 4.000000, 4.000000, 4.000000, 4.000000, 4.000000, 4.000000, 4.000000, 4.000000
106.000000, 0.000000, 4171.794922, 4124.102539, 4199.487305, 4141.538574, 4205.641113, 4223.589844, 4196.410156, 4198.974121, 4228.717773, 4203.589844, 4183.589844, 4215.897461, 4175.897461, 4192.820313, 3195.000000, 8229.000000, 8145.000000, 0.000000, 0.000000, 0.000000, 16793.000000, 353.333313, 4.000000, 4.000000, 4.000000, 4.000000, 4.000000, 4.000000, 4.000000, 4.000000, 4.000000, 4.000000, 4.000000, 4.000000, 4.000000, 4.000000, 4.000000, 4.000000
107.000000, 0.000000, 4176.922852, 4128.717773, 4204.615234, 4150.256348, 4213.846191, 4217.436035, 4205.127930, 4211.794922, 4238.974121, 4198.461426, 4187.692383, 4219.487305, 4174.871582, 4200.000000, 1978.000000, 8231.000000, 8150.000000, 0.000000, 0.000000, 0.000000, 16793.000000, 361.025635, 4.000000, 4.000000, 4.000000, 4.000000, 4.000000, 4.000000, 4.000000, 4.000000, 4.000000, 4.000000, 4.000000, 4.000000, 4.000000, 4.000000, 4.000000, 4.000000
108.000000, 0.000000, 4181.025391, 4122.563965, 4203.076660, 4155.384277, 4216.922852, 4214.358887, 4214.871582, 4220.512695, 4247.179199, 4190.256348, 4186.666504, 4212.820313, 4174.871582, 4194.871582, 3480.000000, 8231.000000, 8150.000000, 0.000000, 0.000000, 0.000000, 16793.000000, 368.717926, 4.000000, 4.000000, 4.000000, 4.000000, 4.000000, 4.000000, 4.000000, 4.000000, 4.000000, 4.000000, 4.000000, 4.000000, 4.000000, 4.000000, 4.000000, 4.000000
109.000000, 0.000000, 4180.512695, 4129.230469, 4205.127930, 4157.436035, 4217.948730, 4225.127930, 4201.025391, 4207.179199, 4246.666504, 4205.641113, 4191.281738, 4215.384277, 4181.538574, 4192.820313, 2356.000000, 8226.000000, 8159.000000, 0.000000, 0.000000, 0.000000, 16793.000000, 376.410248, 4.000000, 4.000000, 4.000000, 4.000000, 4.000000, 4.000000, 4.000000, 4.000000, 4.000000, 4.000000, 4.000000, 4.000000, 4.000000, 4.000000, 4.000000, 4.000000
110.000000, 0.000000, 4180.512695, 4142.051270, 4209.230469, 4159.487305, 4221.025391, 4231.281738, 4191.794922, 4202.051270, 4244.615234, 4219.487305, 4202.051270, 4224.615234, 4184.615234, 4201.025391, 3195.000000, 8226.000000, 8159.000000, 0.000000, 0.000000, 0.000000, 16793.000000, 384.615387, 4.000000, 4.000000, 4.000000, 4.000000, 4.000000, 4.000000, 4.000000, 4.000000, 4.000000, 4.000000, 4.000000, 4.000000, 4.000000, 4.000000, 4.000000, 4.000000
111.000000, 0.000000, 4192.307617, 4141.025391, 4208.717773, 4167.692383, 4218.461426, 4221.025391, 4200.512695, 4214.358887, 4238.461426, 4209.230469, 4202.563965, 4220.512695, 4182.051270, 4196.922852, 1978.000000, 8219.000000, 8176.000000, 0.000000, 0.000000, 0.000000, 16793.000000, 392.307678, 4.000000, 4.000000, 4.000000, 4.000000, 4.000000, 4.000000, 4.000000, 4.000000, 4.000000, 4.000000, 4.000000, 4.000000, 4.000000, 4.000000, 4.000000, 4.000000
112.000000, 0.000000, 4189.230469, 4135.897461, 4207.179199, 4174.358887, 4215.897461, 4213.846191, 4205.127930, 4222.563965, 4244.615234, 4210.256348, 4194.358887, 4219.487305, 4181.538574, 4195.897461, 3480.000000, 8219.000000, 8176.000000, 0.000000, 0.000000, 0.000000, 16793.000000, 400.000000, 4.000000, 4.000000, 4.000000, 4.000000, 4.000000, 4.000000, 4.000000, 4.000000, 4.000000, 4.000000, 4.000000, 4.000000, 4.000000, 4.000000, 4.000000, 4.000000
113.000000, 0.000000, 4185.127930, 4140.512695, 4207.692383, 4165.127930, 4220.512695, 4221.025391, 4200.512695, 4217.436035, 4252.307617, 4218.974121, 4197.436035, 4216.410156, 4183.076660, 4191.281738, 2356.000000, 8218.000000, 8183.000000, 0.000000, 0.000000, 0.000000, 16793.000000, 407.692291, 4.000000, 4.000000, 4.000000, 4.000000, 4.000000, 4.000000, 4.000000, 4.000000, 4.000000, 4.000000, 4.000000, 4.000000, 4.000000, 4.000000, 4.000000, 4.000000
114.000000, 0.000000, 4191.281738, 4150.769043, 4210.256348, 4158.461426, 4224.102539, 4219.487305, 4202.051270, 4216.922852, 4241.025391, 4215.384277, 4211.281738, 4223.589844, 4186.153809, 4193.333008, 3195.000000, 8218.000000, 8183.000000, 0.000000, 0.000000, 0.000000, 16793.000000, 415.384613, 4.000000, 4.000000, 4.000000, 4.000000, 4.000000, 4.000000, 4.000000, 4.000000, 4.000000, 4.000000, 4.000000, 4.000000, 4.000000, 4.000000, 4.000000, 4.000000
115.000000, 0.000000, 4188.717773, 4149.230469, 4209.743652, 4169.743652, 4219.487305, 4208.717773, 4209.743652, 4217.436035, 4224.615234, 4215.384277, 4207.692383, 4229.743652, 4185.127930, 4202.563965, 1978.000000, 8213.000000, 8192.000000, 0.000000, 0.000000, 0.000000, 16793.000000, 423.589722, 4.000000, 4.000000, 4.000000, 4.000000, 4.000000, 4.000000, 4.000000, 4.000000, 4.000000, 4.000000, 4.000000, 4.000000, 4.000000, 4.000000, 4.000000, 4.000000
116.000000, 0.000000, 4188.717773, 4142.563965, 4209.230469, 4174.871582, 4215.897461, 4218.461426, 4217.948730, 4209.230469, 4231.281738, 4213.333008, 4196.410156, 4220.512695, 4180.000000, 4192.820313, 3480.000000, 8213.000000, 8192.000000, 0.000000, 0.000000, 0.000000, 16793.000000, 431.282043, 4.000000, 4.000000, 4.000000, 4.000000, 4.000000, 4.000000, 4.000000, 4.000000, 4.000000, 4.000000, 4.000000, 4.000000, 4.000000, 4.000000, 4.000000, 4.000000
117.000000, 0.000000, 4187.179199, 4141.538574, 4209.743652, 4167.692383, 4217.436035, 4238.461426, 4216.410156, 4205.641113, 4247.692383, 4203.589844, 4198.974121, 4224.615234, 4181.538574, 4192.820313, 2356.000000, 8205.000000, 8203.000000, 0.000000, 0.000000, 0.000000, 16793.000000, 438.974335, 4.000000, 4.000000, 4.000000, 4.000000, 4.000000, 4.000000, 4.000000, 4.000000, 4.000000, 4.000000, 4.000000, 4.000000, 4.000000, 4.000000, 4.000000, 4.000000
118.000000, 0.000000, 4186.666504, 4145.127930, 4211.281738, 4168.717773, 4218.974121, 4232.820313, 4208.205078, 4208.205078, 4247.692383, 4210.256348, 4204.615234, 4227.692383, 4184.102539, 4195.897461, 3195.000000, 8205.000000, 8203.000000, 0.000000, 0.000000, 0.000000, 16793.000000, 446.666656, 4.000000, 4.000000, 4.000000, 4.000000, 4.000000, 4.000000, 4.000000, 4.000000, 4.000000, 4.000000, 4.000000, 4.000000, 4.000000, 4.000000, 4.000000, 4.000000
119.000000, 0.000000, 4188.717773, 4141.538574, 4214.358887, 4171.281738, 4219.487305, 4215.384277, 4210.256348, 4215.384277, 4245.127930, 4223.076660, 4207.179199, 4225.127930, 4183.076660, 4192.820313, 1978.000000, 8207.000000, 8203.000000, 0.000000, 0.000000, 0.000000, 16793.000000, 454.358978, 4.000000, 4.000000, 4.000000, 4.000000, 4.000000, 4.000000, 4.000000, 4.000000, 4.000000, 4.000000, 4.000000, 4.000000, 4.000000, 4.000000, 4.000000, 4.000000
120.000000, 0.000000, 4186.666504, 4140.000000, 4217.436035, 4166.666504, 4226.153809, 4220.512695, 4213.846191, 4227.692383, 4256.922852, 4225.127930, 4213.333008, 4230.769043, 4186.153809, 4199.487305, 3480.000000, 8207.000000, 8203.000000, 0.000000, 0.000000, 0.000000, 16793.000000, 462.564087, 4.000000, 4.000000, 4.000000, 4.000000, 4.000000, 4.000000, 4.000000, 4.000000, 4.000000, 4.000000, 4.000000, 4.000000, 4.000000, 4.000000, 4.000000, 4.000000
121.000000, 0.000000, 4191.794922, 4152.307617, 4220.512695, 4175.897461, 4228.717773, 4236.922852, 4214.358887, 4231.794922, 4258.461426, 4222.563965, 4215.897461, 4230.256348, 4187.179199, 4199.487305, 2356.000000, 8200.000000, 8217.000000, 0.000000, 0.000000, 0.000000, 16793.000000, 470.256409, 4.000000, 4.000000, 4.000000, 4.000000, 4.000000, 4.000000, 4.000000, 4.000000, 4.000000, 4.000000, 4.000000, 4.000000, 4.000000, 4.000000, 4.000000, 4.000000
122.000000, 0.000000, 4193.333008, 4159.487305, 4223.076660, 4184.615234, 4218.974121, 4236.922852, 4215.897461, 4227.179199, 4239.487305, 4227.179199, 4213.846191, 4235.897461, 4185.641113, 4200.512695, 3195.000000, 8200.000000, 8217.000000, 0.000000, 0.000000, 0.000000, 16793.000000, 477.948700, 4.000000, 4.000000, 4.000000, 4.000000, 4.000000, 4.000000, 4.000000, 4.000000, 4.000000, 4.000000, 4.000000, 4.000000, 4.000000, 4.000000, 4.000000, 4.000000
123.000000, 0.000000, 4192.307617, 4150.256348, 4224.615234, 4175.897461, 4220.000000, 4229.743652, 4218.461426, 4230.256348, 4229.743652, 4234.871582, 4220.000000, 4236.410156, 4187.692383, 4198.974121, 1978.000000, 8200.000000, 8221.000000, 0.000000, 0.000000, 0.000000, 16793.000000, 485.641022, 4.000000, 4.000000, 4.000000, 4.000000, 4.000000, 4.000000, 4.000000, 4.000000, 4.000000, 4.000000, 4.000000, 4.000000, 4.000000, 4.000000, 4.000000, 4.000000
124.000000, 0.000000, 4192.307617, 4146.153809, 4220.512695, 4172.820313, 4226.153809, 4228.205078, 4220.000000, 4233.333008, 4226.666504, 4229.743652, 4220.512695, 4230.256348, 4187.692383, 4191.794922, 3480.000000, 8200.000000, 8221.000000, 0.000000, 0.000000, 0.000000, 16793.000000, 493.333313, 4.000000, 4.000000, 4.000000, 4.000000, 4.000000, 4.000000, 4.000000, 4.000000, 4.000000, 4.000000, 4.000000, 4.000000, 4.000000, 4.000000, 4.000000, 4.000000
125.000000, 0.000000, 4185.127930, 4149.230469, 4214.871582, 4178.461426, 4218.461426, 4233.333008, 4218.461426, 4232.820313, 4235.384277, 4225.127930, 4216.922852, 4231.794922, 4186.153809, 4194.871582, 2356.000000, 8199.000000, 8220.000000, 0.000000, 0.000000, 0.000000, 16793.000000, 501.025635, 4.000000, 4.000000, 4.000000, 4.000000, 4.000000, 4.000000, 4.000000, 4.000000, 4.000000, 4.000000, 4.000000, 4.000000, 4.000000, 4.000000, 4.000000, 4.000000
126.000000, 0.000000, 4190.769043, 4143.076660, 4216.922852, 4170.769043, 4215.384277, 4233.846191, 4214.358887, 4235.384277, 4252.820313, 4232.307617, 4221.538574, 4232.820313, 4189.230469, 4192.307617, 3195.000000, 8199.000000, 8220.000000, 0.000000, 0.000000, 0.000000, 16793.000000, 509.230743, 4.000000, 4.000000, 4.000000, 4.000000, 4.000000, 4.000000, 4.000000, 4.000000, 4.000000, 4.000000, 4.000000, 4.000000, 4.000000, 4.000000, 4.000000, 4.000000
127.000000, 0.000000, 4192.820313, 4142.051270, 4222.051270, 4165.127930, 4215.897461, 4221.538574, 4210.256348, 4225.127930, 4244.102539, 4229.743652, 4222.563965, 4236.922852, 4188.717773, 4192.307617, 55.000000, 8200.000000, 8214.000000, 0.000000, 0.000000, 0.000000, 16793.000000, 516.923035, 4.000000, 4.000000, 4.000000, 4.000000, 4.000000, 4.000000, 4.000000, 4.000000, 4.000000, 4.000000, 4.000000, 4.000000, 4.000000, 4.000000, 4.000000, 4.000000
0.000000, 0.000000, 4185.127930, 4153.846191, 4222.563965, 4173.333008, 4208.205078, 4214.871582, 4214.358887, 4214.358887, 4229.230469, 4213.846191, 4215.897461, 4235.897461, 4184.102539, 4192.820313, 3312.000000, 8200.000000, 8214.000000, 0.000000, 0.000000, 0.000000, 16793.000000, 524.615356, 4.000000, 4.000000, 4.000000, 4.000000, 4.000000, 4.000000, 4.000000, 4.000000, 4.000000, 4.000000, 4.000000, 4.000000, 4.000000, 4.000000, 4.000000, 4.000000
1.000000, 0.000000, 4186.153809, 4154.871582, 4221.538574, 4172.820313, 4207.692383, 4216.410156, 4214.358887, 4216.922852, 4231.794922, 4207.179199, 4208.717773, 4234.358887, 4180.000000, 4189.230469, 3355.000000, 8198.000000, 8202.000000, 0.000000, 0.000000, 0.000000, 16793.000000, 532.307678, 4.000000, 4.000000, 4.000000, 4.000000, 4.000000, 4.000000, 4.000000, 4.000000, 4.000000, 4.000000, 4.000000, 4.000000, 4.000000, 4.000000, 4.000000, 4.000000
2.000000, 0.000000, 4185.641113, 4149.230469, 4221.025391, 4167.692383, 4218.974121, 4212.820313, 4204.102539, 4211.794922, 4225.641113, 4206.666504, 4209.230469, 4240.000000, 4183.589844, 4195.384277, 2751.000000, 8198.000000, 8202.000000, 0.000000, 0.000000, 0.000000, 16793.000000, 540.000000, 4.000000, 4.000000, 4.000000, 4.000000, 4.000000, 4.000000, 4.000000, 4.000000, 4.000000, 4.000000, 4.000000, 4.000000, 4.000000, 4.000000, 4.000000, 4.000000
3.000000, 0.000000, 4189.743652, 4154.871582, 4223.589844, 4173.846191, 4218.974121, 4213.846191, 4196.410156, 4201.025391, 4228.717773, 4206.666504, 4214.871582, 4237.948730, 4190.769043, 4194.871582, 3568.000000, 8207.000000, 8191.000000, 0.000000, 0.000000, 0.000000, 16793.000000, 547.692322, 4.000000, 4.000000, 4.000000, 4.000000, 4.000000, 4.000000, 4.000000, 4.000000, 4.000000, 4.000000, 4.000000, 4.000000, 4.000000, 4.000000, 4.000000, 4.000000
4.000000, 0.000000, 4183.589844, 4158.461426, 4221.538574, 4175.897461, 4211.794922, 4218.461426, 4198.974121, 4204.615234, 4245.127930, 4204.102539, 4211.281738, 4237.948730, 4180.512695, 4190.769043, 3534.000000, 8207.000000, 8191.000000, 0.000000, 0.000000, 0.000000, 16793.000000, 555.897400, 4.000000, 4.000000, 4.000000, 4.000000, 4.000000, 4.000000, 4.000000, 4.000000, 4.000000, 4.000000, 4.000000, 4.000000, 4.000000, 4.000000, 4.000000, 4.000000
5.000000, 0.000000, 4171.281738, 4151.281738, 4211.794922, 4171.281738, 4214.358887, 4218.461426, 4201.538574, 4209.743652, 4238.974121, 4195.897461, 4198.974121, 4230.256348, 4165.641113, 4188.205078, 3547.000000, 8201.000000, 8184.000000, 0.000000, 0.000000, 0.000000, 16793.000000, 563.589722, 4.000000, 4.000000, 4.000000, 4.000000, 4.000000, 4.000000, 4.000000, 4.000000, 4.000000, 4.000000, 4.000000, 4.000000, 4.000000, 4.000000, 4.000000, 4.000000
6.000000, 0.000000, 4178.461426, 4153.333008, 4212.307617, 4173.846191, 4217.436035, 4225.127930, 4200.512695, 4208.717773, 4237.948730, 4203.589844, 4197.436035, 4223.076660, 4176.410156, 4188.205078, 3482.000000, 8201.000000, 8184.000000, 0.000000, 0.000000, 0.000000, 16793.000000, 571.282043, 4.000000, 4.000000, 4.000000, 4.000000, 4.000000, 4.000000, 4.000000, 4.000000, 4.000000, 4.000000, 4.000000, 4.000000, 4.000000, 4.000000, 4.000000, 4.000000
7.000000, 0.000000, 4180.512695, 4157.948730, 4216.922852, 4179.487305, 4214.871582, 4224.102539, 4201.538574, 4211.794922, 4249.230469, 4215.897461, 4204.102539, 4231.281738, 4190.769043, 4195.897461, 3226.000000, 8209.000000, 8177.000000, 0.000000, 0.000000, 0.000000, 16793.000000, 578.974365, 4.000000, 4.000000, 4.000000, 4.000000, 4.000000, 4.000000, 4.000000, 4.000000, 4.000000, 4.000000, 4.000000, 4.000000, 4.000000, 4.000000, 4.000000, 4.000000
8.000000, 0.000000, 4171.281738, 4148.717773, 4210.256348, 4176.410156, 4212.820313, 4200.512695, 4200.000000, 4209.230469, 4236.922852, 4204.102539, 4202.051270, 4228.205078, 4186.153809, 4190.256348, 3550.000000, 8209.000000, 8177.000000, 0.000000, 0.000000, 0.000000, 16793.000000, 586.666626, 4.000000, 4.000000, 4.000000, 4.000000, 4.000000, 4.000000, 4.000000, 4.000000, 4.000000, 4.000000, 4.000000, 4.000000, 4.000000, 4.000000, 4.000000, 4.000000
9.000000, 0.000000, 4165.127930, 4142.051270, 4206.153809, 4169.230469, 4213.333008, 4188.205078, 4195.897461, 4209.743652, 4227.692383, 4193.846191, 4205.641113, 4228.717773, 4189.230469, 4189.743652, 3544.000000, 8216.000000, 8176.000000, 0.000000, 0.000000, 0.000000, 16793.000000, 594.871765, 4.000000, 4.000000, 4.000000, 4.000000, 4.000000, 4.000000, 4.000000, 4.000000, 4.000000, 4.000000, 4.000000, 4.000000, 4.000000, 4.000000, 4.000000, 4.000000
10.000000, 0.000000, 4171.794922, 4150.256348, 4212.820313, 4169.230469, 4208.717773, 4211.794922, 4196.410156, 4215.384277, 4242.563965, 4209.230469, 4218.461426, 4234.871582, 4203.076660, 4200.000000, 3199.000000, 8216.000000, 8176.000000, 0.000000, 0.000000, 0.000000, 16793.000000, 602.564087, 4.000000, 4.000000, 4.000000, 4.000000, 4.000000, 4.000000, 4.000000, 4.000000, 4.000000, 4.000000, 4.000000, 4.000000, 4.000000, 4.000000, 4.000000, 4.000000
11.000000, 0.000000, 4180.000000, 4157.436035, 4218.461426, 4177.948730, 4202.051270, 4223.589844, 4191.281738, 4207.179199, 4249.230469, 4220.512695, 4222.051270, 4235.384277, 4202.051270, 4196.922852, 1994.000000, 8227.000000, 8167.000000, 0.000000, 0.000000, 0.000000, 16793.000000, 610.256409, 4.000000, 4.000000, 4.000000, 4.000000, 4.000000, 4.000000, 4.000000, 4.000000, 4.000000, 4.000000, 4.000000, 4.000000, 4.000000, 4.000000, 4.000000, 4.000000
12.000000, 0.000000, 4167.179199, 4147.179199, 4214.358887, 4184.102539, 4206.666504, 4205.127930, 4191.794922, 4202.563965, 4245.127930, 4215.384277, 4217.436035, 4238.974121, 4193.333008, 4194.871582, 3503.000000, 8227.000000, 8167.000000, 0.000000, 0.000000, 0.000000, 16793.000000, 617.948730, 4.000000, 4.000000, 4.000000, 4.000000, 4.000000, 4.000000, 4.000000, 4.000000, 4.000000, 4.000000, 4.000000, 4.000000, 4.000000, 4.000000, 4.000000, 4.000000
13.000000, 0.000000, 4164.615234, 4138.461426, 4212.820313, 4182.563965, 4215.897461, 4201.025391, 4211.281738, 4216.410156, 4250.769043, 4214.358887, 4214.871582, 4232.307617, 4188.717773, 4191.281738, 2364.000000, 8226.000000, 8159.000000, 0.000000, 0.000000, 0.000000, 16793.000000, 625.640991, 4.000000, 4.000000, 4.000000, 4.000000, 4.000000, 4.000000, 4.000000, 4.000000, 4.000000, 4.000000, 4.000000, 4.000000, 4.000000, 4.000000, 4.000000, 4.000000
14.000000, 0.000000, 4172.307617, 4145.127930, 4217.948730, 4174.871582, 4220.000000, 4214.871582, 4217.436035, 4222.563965, 4253.846191, 4216.922852, 4216.410156, 4231.794922, 4188.717773, 4192.820313, 3199.000000, 8226.000000, 8159.000000, 0.000000, 0.000000, 0.000000, 16793.000000, 633.333313, 4.000000, 4.000000, 4.000000, 4.000000, 4.000000, 4.000000, 4.000000, 4.000000, 4.000000, 4.000000, 4.000000, 4.000000, 4.000000, 4.000000, 4.000000, 4.000000
15.000000, 0.000000, 4170.256348, 4151.281738, 4213.846191, 4172.820313, 4218.461426, 4217.436035, 4202.563965, 4214.358887, 4251.281738, 4215.897461, 4217.948730, 4234.358887, 4190.256348, 4195.384277, 1994.000000, 8228.000000, 8155.000000, 0.000000, 0.000000, 0.000000, 16793.000000, 641.538452, 4.000000, 4.000000, 4.000000, 4.000000, 4.000000, 4.000000, 4.000000, 4.000000, 4.000000, 4.000000, 4.000000, 4.000000, 4.000000, 4.000000, 4.000000, 4.000000
16.000000, 0.000000, 4168.205078, 4145.641113, 4205.641113, 4174.358887, 4211.794922, 4208.717773, 4193.846191, 4210.769043, 4244.615234, 4205.641113, 4210.769043, 4224.102539, 4185.127930, 4185.127930, 0.000000, 8228.000000, 8155.000000, 0.000000, 0.000000, 0.000000, 16793.000000, 649.230774, 4.000000, 4.000000, 4.000000, 4.000000, 4.000000, 4.000000, 4.000000, 4.000000, 4.000000, 4.000000, 4.000000, 4.000000, 4.000000, 4.000000, 4.000000, 4.000000
17.000000, 0.000000, 4161.538574, 4139.487305, 4205.641113, 4169.743652, 4210.769043, 4200.000000, 4191.794922, 4204.102539, 4229.230469, 4191.281738, 4200.000000, 4225.127930, 4183.589844, 4188.717773, 0.000000, 8242.000000, 8153.000000, 0.000000, 0.000000, 0.000000, 16793.000000, 656.923035, 4.000000, 4.000000, 4.000000, 4.000000, 4.000000, 4.000000, 4.000000, 4.000000, 4.000000, 4.000000, 4.000000, 4.000000, 4.000000, 4.000000, 4.000000, 4.000000
18.000000, 0.000000, 4162.051270, 4146.153809, 4210.256348, 4171.794922, 4216.922852, 4194.871582, 4187.692383, 4197.948730, 4223.589844, 4190.769043, 4205.127930, 4229.230469, 4194.358887, 4194.871582, 0.000000, 8242.000000, 8153.000000, 0.000000, 0.000000, 0.000000, 16793.000000, 664.615356, 4.000000, 4.000000, 4.000000, 4.000000, 4.000000, 4.000000, 4.000000, 4.000000, 4.000000, 4.000000, 4.000000, 4.000000, 4.000000, 4.000000, 4.000000, 4.000000
19.000000, 0.000000, 4170.256348, 4153.333008, 4216.410156, 4182.051270, 4215.897461, 4208.205078, 4195.384277, 4201.538574, 4230.769043, 4195.384277, 4217.436035, 4230.256348, 4195.384277, 4193.333008, 0.000000, 8249.000000, 8150.000000, 0.000000, 0.000000, 0.000000, 16793.000000, 672.307678, 4.000000, 4.000000, 4.000000, 4.000000, 4.000000, 4.000000, 4.000000, 4.000000, 4.000000, 4.000000, 4.000000, 4.000000, 4.000000, 4.000000, 4.000000, 4.000000
20.000000, 0.000000, 4169.743652, 4153.333008, 4218.461426, 4186.153809, 4207.692383, 4224.615234, 4208.717773, 4201.025391, 4230.769043, 4187.692383, 4214.358887, 4229.230469, 4186.666504, 4194.358887, 0.000000, 8249.000000, 8150.000000, 0.000000, 0.000000, 0.000000, 16793.000000, 680.000000, 4.000000, 4.000000, 4.000000, 4.000000, 4.000000, 4.000000, 4.000000, 4.000000, 4.000000, 4.000000, 4.000000, 4.000000, 4.000000, 4.000000, 4.000000, 4.000000
21.000000, 0.000000, 4174.871582, 4152.820313, 4221.538574, 4183.589844, 4213.333008, 4218.461426, 4213.333008, 4206.153809, 4230.769043, 4194.871582, 4207.692383, 4228.205078, 4190.256348, 4190.256348, 0.000000, 8259.000000, 8160.000000, 0.000000, 0.000000, 0.000000, 16793.000000, 688.205139, 4.000000, 4.000000, 4.000000, 4.000000, 4.000000, 4.000000, 4.000000, 4.000000, 4.000000, 4.000000, 4.000000, 4.000000, 4.000000, 4.000000, 4.000000, 4.000000
22.000000, 0.000000, 4176.922852, 4157.948730, 4226.666504, 4184.102539, 4228.717773, 4214.871582, 4215.384277, 4219.487305, 4232.307617, 4215.384277, 4216.410156, 4240.512695, 4201.538574, 4196.922852, 0.000000, 8259.000000, 8160.000000, 0.000000, 0.000000, 0.000000, 16793.000000, 695.897400, 4.000000, 4.000000, 4.000000, 4.000000, 4.000000, 4.000000, 4.000000, 4.000000, 4.000000, 4.000000, 4.000000, 4.000000, 4.000000, 4.000000, 4.000000, 4.000000
23.000000, 0.000000, 4176.410156, 4162.051270, 4220.512695, 4189.743652, 4230.256348, 4218.974121, 4215.384277, 4220.000000, 4220.512695, 4210.769043, 4220.512695, 4240.000000, 4196.410156, 4194.871582, 0.000000, 8267.000000, 8162.000000, 0.000000, 0.000000, 0.000000, 16793.000000, 703.589722, 4.000000, 4.000000, 4.000000, 4.000000, 4.000000, 4.000000, 4.000000, 4.000000, 4.000000, 4.000000, 4.000000, 4.000000, 4.000000, 4.000000, 4.000000, 4.000000
24.000000, 0.000000, 4169.230469, 4149.743652, 4208.717773, 4183.589844, 4219.487305, 4218.974121, 4215.384277, 4210.769043, 4212.820313, 4193.846191, 4203.589844, 4229.743652, 4175.384277, 4182.563965, 0.000000, 8267.000000, 8162.000000, 0.000000, 0.000000, 0.000000, 16793.000000, 711.282043, 4.000000, 4.000000, 4.000000, 4.000000, 4.000000, 4.000000, 4.000000, 4.000000, 4.000000, 4.000000, 4.000000, 4.000000, 4.000000, 4.000000, 4.000000, 4.000000
25.000000, 0.000000, 4155.384277, 4136.410156, 4207.179199, 4169.743652, 4213.846191, 4222.563965, 4219.487305, 4213.846191, 4231.794922, 4194.871582, 4193.846191, 4232.307617, 4172.307617, 4188.717773, 0.000000, 8275.000000, 8153.000000, 0.000000, 0.000000, 0.000000, 16793.000000, 718.974365, 4.000000, 4.000000, 4.000000, 4.000000, 4.000000, 4.000000, 4.000000, 4.000000, 4.000000, 4.000000, 4.000000, 4.000000, 4.000000, 4.000000, 4.000000, 4.000000
26.000000, 0.000000, 4163.076660, 4144.102539, 4218.461426, 4176.922852, 4218.974121, 4232.307617, 4222.051270, 4223.076660, 4252.820313, 4205.127930, 4207.692383, 4233.846191, 4187.179199, 4193.846191, 0.000000, 8275.000000, 8153.000000, 0.000000, 0.000000, 0.000000, 16793.000000, 726.666626, 4.000000, 4.000000, 4.000000, 4.000000, 4.000000, 4.000000, 4.000000, 4.000000, 4.000000, 4.000000, 4.000000, 4.000000, 4.000000, 4.000000, 4.000000, 4.000000
27.000000, 0.000000, 4170.256348, 4157.436035, 4225.127930, 4192.307617, 4223.076660, 4229.230469, 4222.563965, 4220.512695, 4251.794922, 4216.410156, 4217.436035, 4236.410156, 4191.794922, 4196.922852, 0.000000, 8294.000000, 8151.000000, 0.000000, 0.000000, 0.000000, 16793.000000, 734.871765, 4.000000, 4.000000, 4.000000, 4.000000, 4.000000, 4.000000, 4.000000, 4.000000, 4.000000, 4.000000, 4.000000, 4.000000, 4.000000, 4.000000, 4.000000, 4.000000
28.000000, 0.000000, 4165.641113, 4152.820313, 4220.000000, 4183.076660, 4212.820313, 4209.743652, 4211.794922, 4214.358887, 4246.666504, 4223.076660, 4214.358887, 4234.871582, 4190.769043, 4195.384277, 0.000000, 8294.000000, 8151.000000, 0.000000, 0.000000, 0.000000, 16793.000000, 742.564087, 4.000000, 4.000000, 4.000000, 4.000000, 4.000000, 4.000000, 4.000000, 4.000000, 4.000000, 4.000000, 4.000000, 4.000000, 4.000000, 4.000000, 4.000000, 4.000000
29.000000, 0.000000, 4169.230469, 4149.743652, 4215.384277, 4174.871582, 4203.589844, 4203.076660, 4200.000000, 4216.922852, 4248.205078, 4216.922852, 4216.922852, 4236.410156, 4194.358887, 4194.358887, 0.000000, 8307.000000, 8151.000000, 0.000000, 0.000000, 0.000000, 16793.000000, 750.256409, 4.000000, 4.000000, 4.000000, 4.000000, 4.000000, 4.000000, 4.000000, 4.000000, 4.000000, 4.000000, 4.000000, 4.000000, 4.000000, 4.000000, 4.000000, 4.000000
30.000000, 0.000000, 4171.281738, 4160.512695, 4214.871582, 4186.666504, 4210.769043, 4214.871582, 4198.461426, 4217.436035, 4245.127930, 4213.846191, 4222.563965, 4240.000000, 4195.384277, 4200.512695, 0.000000, 8307.000000, 8151.000000, 0.000000, 0.000000, 0.000000, 16793.000000, 757.948669, 4.000000, 4.000000, 4.000000, 4.000000, 4.000000, 4.000000, 4.000000, 4.000000, 4.000000, 4.000000, 4.000000, 4.000000, 4.000000, 4.000000, 4.000000, 4.000000
31.000000, 0.000000, 4171.794922, 4164.102539, 4220.000000, 4189.230469, 4221.025391, 4221.025391, 4201.538574, 4211.281738, 4244.615234, 4221.538574, 4217.436035, 4232.820313, 4191.281738, 4195.897461, 0.000000, 8329.000000, 8158.000000, 0.000000, 0.000000, 0.000000, 16793.000000, 765.640991, 4.000000, 4.000000, 4.000000, 4.000000, 4.000000, 4.000000, 4.000000, 4.000000, 4.000000, 4.000000, 4.000000, 4.000000, 4.000000, 4.000000, 4.000000, 4.000000
32.000000, 0.000000, 4168.205078, 4158.461426, 4220.512695, 4185.641113, 4219.487305, 4214.871582, 4201.538574, 4212.307617, 4245.127930, 4216.410156, 4212.820313, 4233.846191, 4191.281738, 4194.871582, 0.000000, 8329.000000, 8158.000000, 0.000000, 0.000000, 0.000000, 16793.000000, 773.333313, 4.000000, 4.000000, 4.000000, 4.000000, 4.000000, 4.000000, 4.000000, 4.000000, 4.000000, 4.000000, 4.000000, 4.000000, 4.000000, 4.000000, 4.000000, 4.000000
33.000000, 0.000000, 4166.666504, 4154.358887, 4212.307617, 4187.179199, 4214.871582, 4207.692383, 4200.000000, 4216.922852, 4236.410156, 4197.948730, 4215.384277, 4231.794922, 4186.666504, 4192.820313, 0.000000, 8344.000000, 8155.000000, 0.000000, 0.000000, 0.000000, 16793.000000, 781.538452, 4.000000, 4.000000, 4.000000, 4.000000, 4.000000, 4.000000, 4.000000, 4.000000, 4.000000, 4.000000, 4.000000, 4.000000, 4.000000, 4.000000, 4.000000, 4.000000
34.000000, 0.000000, 4169.743652, 4156.922852, 4209.743652, 4186.153809, 4215.384277, 4214.871582, 4206.666504, 4217.436035, 4234.871582, 4195.897461, 4214.871582, 4227.179199, 4183.076660, 4187.692383, 0.000000, 8344.000000, 8155.000000, 0.000000, 0.000000, 0.000000, 16793.000000, 789.230774, 4.000000, 4.000000, 4.000000, 4.000000, 4.000000, 4.000000, 4.000000, 4.000000, 4.000000, 4.000000, 4.000000, 4.000000, 4.000000, 4.000000, 4.000000, 4.000000
35.000000, 0.000000, 4163.076660, 4162.563965, 4211.794922, 4185.641113, 4216.410156, 4225.641113, 4218.461426, 4225.127930, 4246.666504, 4207.692383, 4216.410156, 4236.410156, 4189.230469, 4194.358887, 0.000000, 8377.000000, 8159.000000, 0.000000, 0.000000, 0.000000, 16793.000000, 796.923035, 4.000000, 4.000000, 4.000000, 4.000000, 4.000000, 4.000000, 4.000000, 4.000000, 4.000000, 4.000000, 4.000000, 4.000000, 4.000000, 4.000000, 4.000000, 4.000000
36.000000, 0.000000, 4160.000000, 4157.436035, 4207.179199, 4180.000000, 4219.487305, 4210.256348, 4221.538574, 4229.743652, 4245.641113, 4201.538574, 4213.333008, 4236.922852, 4185.127930, 4188.717773, 0.000000, 8377.000000, 8159.000000, 0.000000, 0.000000, 0.000000, 16793.000000, 804.615356, 4.000000, 4.000000, 4.000000, 4.000000, 4.000000, 4.000000, 4.000000, 4.000000, 4.000000, 4.000000, 4.000000, 4.000000, 4.000000, 4.000000, 4.000000, 4.000000
37.000000, 0.000000, 4160.512695, 4152.820313, 4205.641113, 4177.436035, 4218.974121, 4196.922852, 4217.948730, 4231.281738, 4249.743652, 4196.410156, 4205.641113, 4240.512695, 4177.436035, 4187.692383, 0.000000, 8395.000000, 8162.000000, 0.000000, 0.000000, 0.000000, 16793.000000, 812.307678, 4.000000, 4.000000, 4.000000, 4.000000, 4.000000, 4.000000, 4.000000, 4.000000, 4.000000, 4.000000, 4.000000, 4.000000, 4.000000, 4.000000, 4.000000, 4.000000
38.000000, 0.000000, 4167.692383, 4167.692383, 4217.436035, 4195.384277, 4216.410156, 4229.743652, 4217.948730, 4241.538574, 4273.333008, 4222.051270, 4217.436035, 4250.769043, 4189.230469, 4200.512695, 0.000000, 8395.000000, 8162.000000, 0.000000, 0.000000, 0.000000, 16793.000000, 820.000000, 4.000000, 4.000000, 4.000000, 4.000000, 4.000000, 4.000000, 4.000000, 4.000000, 4.000000, 4.000000, 4.000000, 4.000000, 4.000000, 4.000000, 4.000000, 4.000000
39.000000, 0.000000, 4174.358887, 4173.333008, 4220.000000, 4200.000000, 4218.461426, 4240.000000, 4217.948730, 4244.615234, 4275.897461, 4244.102539, 4230.769043, 4247.692383, 4195.897461, 4197.948730, 0.000000, 8404.000000, 8162.000000, 0.000000, 0.000000, 0.000000, 16793.000000, 828.205078, 4.000000, 4.000000, 4.000000, 4.000000, 4.000000, 4.000000, 4.000000, 4.000000, 4.000000, 4.000000, 4.000000, 4.000000, 4.000000, 4.000000, 4.000000, 4.000000
40.000000, 0.000000, 4156.922852, 4154.871582, 4202.051270, 4171.794922, 4215.384277, 4200.000000, 4223.589844, 4235.384277, 4257.948730, 4232.307617, 4221.538574, 4237.948730, 4183.589844, 4191.794922, 0.000000, 8404.000000, 8162.000000, 0.000000, 0.000000, 0.000000, 16793.000000, 835.897400, 4.000000, 4.000000, 4.000000, 4.000000, 4.000000, 4.000000, 4.000000, 4.000000, 4.000000, 4.000000, 4.000000, 4.000000, 4.000000, 4.000000, 4.000000, 4.000000
41.000000, 0.000000, 4150.769043, 4149.230469, 4194.358887, 4164.102539, 4212.307617, 4200.000000, 4232.820313, 4233.846191, 4252.307617, 4220.512695, 4214.871582, 4227.692383, 4174.871582, 4188.205078, 0.000000, 8416.000000, 8165.000000, 0.000000, 0.000000, 0.000000, 16793.000000, 843.589722, 4.000000, 4.000000, 4.000000, 4.000000, 4.000000, 4.000000, 4.000000, 4.000000, 4.000000, 4.000000, 4.000000, 4.000000, 4.000000, 4.000000, 4.000000, 4.000000
42.000000, 0.000000, 4156.922852, 4159.487305, 4197.948730, 4180.512695, 4216.410156, 4229.743652, 4225.127930, 4234.358887, 4254.871582, 4218.461426, 4216.410156, 4229.743652, 4174.358887, 4191.281738, 0.000000, 8416.000000, 8165.000000, 0.000000, 0.000000, 0.000000, 16793.000000, 851.282043, 4.000000, 4.000000, 4.000000, 4.000000, 4.000000, 4.000000, 4.000000, 4.000000, 4.000000, 4.000000, 4.000000, 4.000000, 4.000000, 4.000000, 4.000000, 4.000000
43.000000, 0.000000, 4150.256348, 4154.871582, 4195.384277, 4175.384277, 4217.436035, 4209.743652, 4210.256348, 4217.436035, 4248.205078, 4205.641113, 4208.205078, 4228.717773, 4167.179199, 4191.794922, 0.000000, 8418.000000, 8166.000000, 0.000000, 0.000000, 0.000000, 16793.000000, 858.974365, 4.000000, 4.000000, 4.000000, 4.000000, 4.000000, 4.000000, 4.000000, 4.000000, 4.000000, 4.000000, 4.000000, 4.000000, 4.000000, 4.000000, 4.000000, 4.000000
44.000000, 0.000000, 4154.358887, 4152.820313, 4202.051270, 4169.230469, 4211.281738, 4193.333008, 4207.179199, 4211.794922, 4241.538574, 4203.589844, 4207.692383, 4228.717773, 4170.256348, 4192.307617, 0.000000, 8418.000000, 8166.000000, 0.000000, 0.000000, 0.000000, 16793.000000, 867.179443, 4.000000, 4.000000, 4.000000, 4.000000, 4.000000, 4.000000, 4.000000, 4.000000, 4.000000, 4.000000, 4.000000, 4.000000, 4.000000, 4.000000, 4.000000, 4.000000
45.000000, 0.000000, 4166.666504, 4164.615234, 4210.769043, 4183.589844, 4213.333008, 4222.051270, 4206.153809, 4231.794922, 4248.205078, 4213.333008, 4227.179199, 4248.205078, 4187.179199, 4205.641113, 0.000000, 8416.000000, 8166.000000, 0.000000, 0.000000, 0.000000, 16793.000000, 874.871765, 4.000000, 4.000000, 4.000000, 4.000000, 4.000000, 4.000000, 4.000000, 4.000000, 4.000000, 4.000000, 4.000000, 4.000000, 4.000000, 4.000000, 4.000000, 4.000000
46.000000, 0.000000, 4171.281738, 4161.538574, 4205.641113, 4190.769043, 4221.025391, 4218.974121, 4197.436035, 4232.307617, 4250.256348, 4205.127930, 4231.794922, 4249.743652, 4185.641113, 4198.974121, 0.000000, 8416.000000, 8166.000000, 0.000000, 0.000000, 0.000000, 16793.000000, 882.564087, 4.000000, 4.000000, 4.000000, 4.000000, 4.000000, 4.000000, 4.000000, 4.000000, 4.000000, 4.000000, 4.000000, 4.000000, 4.000000, 4.000000, 4.000000, 4.000000
47.000000, 0.000000, 4168.717773, 4150.769043, 4204.102539, 4184.615234, 4216.922852, 4192.820313, 4203.076660, 4213.333008, 4240.000000, 4201.538574, 4220.000000, 4240.512695, 4177.948730, 4191.794922, 0.000000, 8404.000000, 8168.000000, 0.000000, 0.000000, 0.000000, 16793.000000, 890.256409, 4.000000, 4.000000, 4.000000, 4.000000, 4.000000, 4.000000, 4.000000, 4.000000, 4.000000, 4.000000, 4.000000, 4.000000, 4.000000, 4.000000, 4.000000, 4.000000
48.000000, 0.000000, 4170.769043, 4155.384277, 4210.256348, 4180.512695, 4207.179199, 4208.205078, 4218.461426, 4212.307617, 4241.538574, 4216.410156, 4216.922852, 4238.461426, 4185.641113, 4200.000000, 0.000000, 8404.000000, 8168.000000, 0.000000, 0.000000, 0.000000, 16793.000000, 897.948669, 4.000000, 4.000000, 4.000000, 4.000000, 4.000000, 4.000000, 4.000000, 4.000000, 4.000000, 4.000000, 4.000000, 4.000000, 4.000000, 4.000000, 4.000000, 4.000000
49.000000, 0.000000, 4173.333008, 4149.743652, 4211.794922, 4173.846191, 4206.666504, 4227.179199, 4216.410156, 4221.025391, 4251.794922, 4214.358887, 4219.487305, 4235.897461, 4182.563965, 4194.871582, 0.000000, 8395.000000, 8165.000000, 0.000000, 0.000000, 0.000000, 16793.000000, 905.640991, 4.000000, 4.000000, 4.000000, 4.000000, 4.000000, 4.000000, 4.000000, 4.000000, 4.000000, 4.000000, 4.000000, 4.000000, 4.000000, 4.000000, 4.000000, 4.000000
50.000000, 0.000000, 4164.102539, 4137.436035, 4207.692383, 4166.666504, 4208.205078, 4208.205078, 4201.538574, 4216.410156, 4240.512695, 4200.512695, 4218.461426, 4238.461426, 4168.205078, 4190.769043, 0.000000, 8395.000000, 8165.000000, 0.000000, 0.000000, 0.000000, 16793.000000, 913.846130, 4.000000, 4.000000, 4.000000, 4.000000, 4.000000, 4.000000, 4.000000, 4.000000, 4.000000, 4.000000, 4.000000, 4.000000, 4.000000, 4.000000, 4.000000, 4.000000
51.000000, 0.000000, 4168.717773, 4143.589844, 4202.563965, 4168.717773, 4200.000000, 4185.127930, 4197.436035, 4205.127930, 4224.615234, 4198.974121, 4208.205078, 4228.717773, 4163.589844, 4191.281738, 0.000000, 8370.000000, 8160.000000, 0.000000, 0.000000, 0.000000, 16793.000000, 921.538452, 4.000000, 4.000000, 4.000000, 4.000000, 4.000000, 4.000000, 4.000000, 4.000000, 4.000000, 4.000000, 4.000000, 4.000000, 4.000000, 4.000000, 4.000000, 4.000000
52.000000, 0.000000, 4180.512695, 4158.461426, 4197.948730, 4168.205078, 4198.974121, 4188.717773, 4204.615234, 4202.563965, 4229.230469, 4190.769043, 4198.461426, 4224.102539, 4168.205078, 4195.897461, 0.000000, 8370.000000, 8160.000000, 0.000000, 0.000000, 0.000000, 16793.000000, 929.230774, 4.000000, 4.000000, 4.000000, 4.000000, 4.000000, 4.000000, 4.000000, 4.000000, 4.000000, 4.000000, 4.000000, 4.000000, 4.000000, 4.000000, 4.000000, 4.000000
53.000000, 0.000000, 4190.769043, 4172.307617, 4204.615234, 4172.307617, 4214.871582, 4209.743652, 4202.051270, 4211.281738, 4224.102539, 4183.076660, 4207.692383, 4233.333008, 4180.000000, 4207.179199, 0.000000, 8350.000000, 8149.000000, 0.000000, 0.000000, 0.000000, 16793.000000, 936.923035, 4.000000, 4.000000, 4.000000, 4.000000, 4.000000, 4.000000, 4.000000, 4.000000, 4.000000, 4.000000, 4.000000, 4.000000, 4.000000, 4.000000, 4.000000, 4.000000
54.000000, 0.000000, 4217.948730, 4196.922852, 4218.461426, 4190.769043, 4214.358887, 4222.051270, 4198.974121, 4215.897461, 4210.769043, 4195.897461, 4230.256348, 4234.871582, 4196.922852, 4210.769043, 0.000000, 8350.000000, 8149.000000, 0.000000, 0.000000, 0.000000, 16793.000000, 944.615356, 4.000000, 4.000000, 4.000000, 4.000000, 4.000000, 4.000000, 4.000000, 4.000000, 4.000000, 4.000000, 4.000000, 4.000000, 4.000000, 4.000000, 4.000000, 4.000000
55.000000, 0.000000, 4228.717773, 4210.769043, 4221.538574, 4196.922852, 4201.538574, 4206.153809, 4209.230469, 4202.051270, 4216.410156, 4203.076660, 4233.333008, 4236.922852, 4202.051270, 4214.871582, 0.000000, 8312.000000, 8131.000000, 0.000000, 0.000000, 0.000000, 16793.000000, 952.307678, 4.000000, 4.000000, 4.000000, 4.000000, 4.000000, 4.000000, 4.000000, 4.000000, 4.000000, 4.000000, 4.000000, 4.000000, 4.000000, 4.000000, 4.000000, 4.000000
56.000000, 0.000000, 4231.281738, 4211.281738, 4226.153809, 4189.743652, 4194.871582, 4192.820313, 4211.794922, 4193.333008, 4230.256348, 4197.436035, 4228.717773, 4237.948730, 4197.948730, 4212.307617, 0.000000, 8312.000000, 8131.000000, 0.000000, 0.000000, 0.000000, 16793.000000, 960.512817, 4.000000, 4.000000, 4.000000, 4.000000, 4.000000, 4.000000, 4.000000, 4.000000, 4.000000, 4.000000, 4.000000, 4.000000, 4.000000, 4.000000, 4.000000, 4.000000
57.000000, 0.000000, 4251.281738, 4226.153809, 4238.974121, 4203.589844, 4205.127930, 4209.743652, 4204.615234, 4203.589844, 4232.820313, 4205.127930, 4241.025391, 4245.127930, 4203.589844, 4213.846191, 0.000000, 8291.000000, 8123.000000, 0.000000, 0.000000, 0.000000, 16793.000000, 968.205078, 4.000000, 4.000000, 4.000000, 4.000000, 4.000000, 4.000000, 4.000000, 4.000000, 4.000000, 4.000000, 4.000000, 4.000000, 4.000000, 4.000000, 4.000000, 4.000000
58.000000, 0.000000, 4260.512695, 4234.358887, 4234.871582, 4218.974121, 4215.384277, 4217.948730, 4205.641113, 4205.127930, 4231.281738, 4204.102539, 4250.256348, 4253.333008, 4204.102539, 4218.974121, 0.000000, 8291.000000, 8123.000000, 0.000000, 0.000000, 0.000000, 16793.000000, 975.897400, 4.000000, 4.000000, 4.000000, 4.000000, 4.000000, 4.000000, 4.000000, 4.000000, 4.000000, 4.000000, 4.000000, 4.000000, 4.000000, 4.000000, 4.000000, 4.000000
59.000000, 0.000000, 4256.410156, 4220.000000, 4217.948730, 4204.615234, 4196.922852, 4201.025391, 4206.666504, 4191.794922, 4218.974121, 4180.000000, 4246.153809, 4244.615234, 4196.410156, 4207.179199, 0.000000, 8254.000000, 8119.000000, 0.000000, 0.000000, 0.000000, 16793.000000, 984.102539, 4.000000, 4.000000, 4.000000, 4.000000, 4.000000, 4.000000, 4.000000, 4.000000, 4.000000, 4.000000, 4.000000, 4.000000, 4.000000, 4.000000, 4.000000, 4.000000
60.000000, 0.000000, 4252.820313, 4224.102539, 4214.358887, 4195.897461, 4192.307617, 4198.461426, 4203.076660, 4194.871582, 4204.615234, 4183.076660, 4243.076660, 4245.127930, 4201.025391, 4208.717773, 0.000000, 8254.000000, 8119.000000, 0.000000, 0.000000, 0.000000, 16793.000000, 991.794861, 4.000000, 4.000000, 4.000000, 4.000000, 4.000000, 4.000000, 4.000000, 4.000000, 4.000000, 4.000000, 4.000000, 4.000000, 4.000000, 4.000000, 4.000000, 4.000000
61.000000, 0.000000, 4258.974121, 4235.384277, 4223.589844, 4211.281738, 4224.615234, 4219.487305, 4214.358887, 4215.897461, 4224.102539, 4213.846191, 4249.743652, 4250.769043, 4203.589844, 4212.307617, 0.000000, 8236.000000, 8119.000000, 0.000000, 0.000000, 0.000000, 16793.000000, 999.487183, 4.000000, 4.000000, 4.000000, 4.000000, 4.000000, 4.000000, 4.000000, 4.000000, 4.000000, 4.000000, 4.000000, 4.000000, 4.000000, 4.000000, 4.000000, 4.000000
62.000000, 0.000000, 4251.794922, 4213.846191, 4224.102539, 4208.717773, 4228.717773, 4221.538574, 4217.436035, 4214.871582, 4237.948730, 4208.717773, 4250.256348, 4247.692383, 4186.666504, 4198.461426, 0.000000, 8236.000000, 8119.000000, 0.000000, 0.000000, 0.000000, 16794.000000, 7.692307, 4.000000, 4.000000, 4.000000, 4.000000, 4.000000, 4.000000, 4.000000, 4.000000, 4.000000, 4.000000, 4.000000, 4.000000, 4.000000, 4.000000, 4.000000, 4.000000
63.000000, 0.000000, 4225.641113, 4191.794922, 4218.974121, 4186.153809, 4189.230469, 4194.871582, 4200.512695, 4198.461426, 4212.820313, 4189.230469, 4236.410156, 4243.076660, 4178.974121, 4192.820313, 0.000000, 8221.000000, 8125.000000, 0.000000, 0.000000, 0.000000, 16794.000000, 15.384615, 4.000000, 4.000000, 4.000000, 4.000000, 4.000000, 4.000000, 4.000000, 4.000000, 4.000000, 4.000000, 4.000000, 4.000000, 4.000000, 4.000000, 4.000000, 4.000000
64.000000, 0.000000, 4230.769043, 4210.769043, 4227.179199, 4184.615234, 4186.153809, 4187.179199, 4197.436035, 4212.820313, 4218.461426, 4218.974121, 4236.922852, 4242.051270, 4190.769043, 4196.922852, 3310.000000, 8221.000000, 8125.000000, 0.000000, 0.000000, 0.000000, 16794.000000, 23.076923, 4.000000, 4.000000, 4.000000, 4.000000, 4.000000, 4.000000, 4.000000, 4.000000, 4.000000, 4.000000, 4.000000, 4.000000, 4.000000, 4.000000, 4.000000, 4.000000
65.000000, 0.000000, 4246.153809, 4221.025391, 4245.127930, 4198.461426, 4209.230469, 4212.307617, 4216.922852, 4238.461426, 4265.127930, 4239.487305, 4258.461426, 4259.487305, 4194.358887, 4206.153809, 3518.000000, 8189.000000, 8138.000000, 0.000000, 0.000000, 0.000000, 16794.000000, 31.282051, 4.000000, 4.000000, 4.000000, 4.000000, 4.000000, 4.000000, 4.000000, 4.000000, 4.000000, 4.000000, 4.000000, 4.000000, 4.000000, 4.000000, 4.000000, 4.000000
66.000000, 0.000000, 4238.461426, 4196.922852, 4247.179199, 4200.512695, 4199.487305, 4227.692383, 4233.333008, 4236.922852, 4278.974121, 4215.384277, 4266.666504, 4265.641113, 4188.717773, 4203.076660, 2743.000000, 8189.000000, 8138.000000, 0.000000, 0.000000, 0.000000, 16794.000000, 38.974358, 4.000000, 4.000000, 4.000000, 4.000000, 4.000000, 4.000000, 4.000000, 4.000000, 4.000000, 4.000000, 4.000000, 4.000000, 4.000000, 4.000000, 4.000000, 4.000000
67.000000, 0.000000, 4229.230469, 4182.563965, 4227.179199, 4189.230469, 4196.410156, 4206.153809, 4223.076660, 4221.538574, 4249.743652, 4215.897461, 4245.641113, 4250.256348, 4177.948730, 4191.281738, 3582.000000, 8172.000000, 8147.000000, 0.000000, 0.000000, 0.000000, 16794.000000, 47.179485, 4.000000, 4.000000, 4.000000, 4.000000, 4.000000, 4.000000, 4.000000, 4.000000, 4.000000, 4.000000, 4.000000, 4.000000, 4.000000, 4.000000, 4.000000, 4.000000
68.000000, 0.000000, 4222.563965, 4183.076660, 4211.281738, 4178.974121, 4209.230469, 4187.179199, 4202.563965, 4216.410156, 4232.307617, 4240.000000, 4233.846191, 4244.615234, 4163.589844, 4194.871582, 3543.000000, 8172.000000, 8147.000000, 0.000000, 0.000000, 0.000000, 16794.000000, 54.871792, 4.000000, 4.000000, 4.000000, 4.000000, 4.000000, 4.000000, 4.000000, 4.000000, 4.000000, 4.000000, 4.000000, 4.000000, 4.000000, 4.000000, 4.000000, 4.000000
69.000000, 0.000000, 4218.461426, 4172.820313, 4212.307617, 4183.076660, 4208.205078, 4196.922852, 4203.589844, 4215.897461, 4240.512695, 4230.769043, 4242.051270, 4244.102539, 4163.589844, 4194.871582, 3529.000000, 8153.000000, 8165.000000, 0.000000, 0.000000, 0.000000, 16794.000000, 62.564102, 4.000000, 4.000000, 4.000000, 4.000000, 4.000000, 4.000000, 4.000000, 4.000000, 4.000000, 4.000000, 4.000000, 4.000000, 4.000000, 4.000000, 4.000000, 4.000000
70.000000, 0.000000, 4210.256348, 4156.410156, 4215.384277, 4187.692383, 4206.666504, 4204.102539, 4211.794922, 4218.461426, 4252.307617, 4211.281738, 4244.102539, 4244.615234, 4168.717773, 4194.358887, 3617.000000, 8153.000000, 8165.000000, 0.000000, 0.000000, 0.000000, 16794.000000, 70.769226, 4.000000, 4.000000, 4.000000, 4.000000, 4.000000, 4.000000, 4.000000, 4.000000, 4.000000, 4.000000, 4.000000, 4.000000, 4.000000, 4.000000, 4.000000, 4.000000
71.000000, 0.000000, 4203.076660, 4157.436035, 4207.179199, 4180.000000, 4207.179199, 4204.615234, 4207.179199, 4226.153809, 4249.230469, 4221.025391, 4236.922852, 4237.948730, 4161.538574, 4193.333008, 3215.000000, 8144.000000, 8168.000000, 0.000000, 0.000000, 0.000000, 16794.000000, 78.461540, 4.000000, 4.000000, 4.000000, 4.000000, 4.000000, 4.000000, 4.000000, 4.000000, 4.000000, 4.000000, 4.000000, 4.000000, 4.000000, 4.000000, 4.000000, 4.000000
72.000000, 0.000000, 4192.307617, 4159.487305, 4201.025391, 4167.692383, 4196.410156, 4207.692383, 4207.692383, 4216.922852, 4232.307617, 4216.410156, 4225.641113, 4228.717773, 4147.179199, 4183.076660, 3538.000000, 8144.000000, 8168.000000, 0.000000, 0.000000, 0.000000, 16794.000000, 86.153847, 4.000000, 4.000000, 4.000000, 4.000000, 4.000000, 4.000000, 4.000000, 4.000000, 4.000000, 4.000000, 4.000000, 4.000000, 4.000000, 4.000000, 4.000000, 4.000000
73.000000, 0.000000, 4171.281738, 4147.692383, 4206.153809, 4163.589844, 4202.051270, 4204.615234, 4216.922852, 4197.948730, 4224.615234, 4193.846191, 4213.333008, 4225.127930, 4143.589844, 4185.641113, 3539.000000, 8145.000000, 8176.000000, 0.000000, 0.000000, 0.000000, 16794.000000, 93.846153, 4.000000, 4.000000, 4.000000, 4.000000, 4.000000, 4.000000, 4.000000, 4.000000, 4.000000, 4.000000, 4.000000, 4.000000, 4.000000, 4.000000, 4.000000, 4.000000
74.000000, 0.000000, 4181.538574, 4151.794922, 4214.871582, 4170.769043, 4225.127930, 4204.615234, 4210.769043, 4202.051270, 4232.820313, 4198.461426, 4212.307617, 4220.000000, 4151.281738, 4190.769043, 3198.000000, 8145.000000, 8176.000000, 0.000000, 0.000000, 0.000000, 16794.000000, 102.051277, 4.000000, 4.000000, 4.000000, 4.000000, 4.000000, 4.000000, 4.000000, 4.000000, 4.000000, 4.000000, 4.000000, 4.000000, 4.000000, 4.000000, 4.000000, 4.000000
75.000000, 0.000000, 4195.384277, 4155.897461, 4211.281738, 4174.358887, 4212.307617, 4219.487305, 4205.641113, 4220.512695, 4234.871582, 4211.281738, 4218.461426, 4224.615234, 4156.922852, 4190.769043, 1983.000000, 8149.000000, 8190.000000, 0.000000, 0.000000, 0.000000, 16794.000000, 109.743584, 4.000000, 4.000000, 4.000000, 4.000000, 4.000000, 4.000000, 4.000000, 4.000000, 4.000000, 4.000000, 4.000000, 4.000000, 4.000000, 4.000000, 4.000000, 4.000000
76.000000, 0.000000, 4178.974121, 4143.589844, 4196.410156, 4168.717773, 4189.743652, 4220.000000, 4209.230469, 4212.307617, 4221.025391, 4202.563965, 4206.666504, 4216.410156, 4147.692383, 4187.692383, 3493.000000, 8149.000000, 8190.000000, 0.000000, 0.000000, 0.000000, 16794.000000, 117.435898, 4.000000, 4.000000, 4.000000, 4.000000, 4.000000, 4.000000, 4.000000, 4.000000, 4.000000, 4.000000, 4.000000, 4.000000, 4.000000, 4.000000, 4.000000, 4.000000
77.000000, 0.000000, 4174.358887, 4141.025391, 4195.384277, 4169.230469, 4207.692383, 4205.127930, 4204.615234, 4194.358887, 4214.358887, 4191.281738, 4193.333008, 4199.487305, 4143.589844, 4183.076660, 2360.000000, 8154.000000, 8189.000000, 0.000000, 0.000000, 0.000000, 16794.000000, 125.641022, 4.000000, 4.000000, 4.000000, 4.000000, 4.000000, 4.000000, 4.000000, 4.000000, 4.000000, 4.000000, 4.000000, 4.000000, 4.000000, 4.000000, 4.000000, 4.000000
78.000000, 0.000000, 4180.000000, 4147.692383, 4208.205078, 4171.281738, 4228.717773, 4201.025391, 4203.589844, 4209.743652, 4227.179199, 4199.487305, 4206.666504, 4210.256348, 4154.871582, 4194.358887, 3198.000000, 8154.000000, 8189.000000, 0.000000, 0.000000, 0.000000, 16794.000000, 133.333328, 4.000000, 4.000000, 4.000000, 4.000000, 4.000000, 4.000000, 4.000000, 4.000000, 4.000000, 4.000000, 4.000000, 4.000000, 4.000000, 4.000000, 4.000000, 4.000000
79.000000, 0.000000, 4178.974121, 4145.641113, 4211.794922, 4167.692383, 4216.922852, 4196.922852, 4214.871582, 4227.179199, 4237.436035, 4212.307617, 4220.000000, 4219.487305, 4158.461426, 4197.948730, 1983.000000, 8166.000000, 8183.000000, 0.000000, 0.000000, 0.000000, 16794.000000, 141.025635, 4.000000, 4.000000, 4.000000, 4.000000, 4.000000, 4.000000, 4.000000, 4.000000, 4.000000, 4.000000, 4.000000, 4.000000, 4.000000, 4.000000, 4.000000, 4.000000
80.000000, 0.000000, 4181.025391, 4149.743652, 4212.307617, 4178.461426, 4199.487305, 4193.846191, 4224.102539, 4222.563965, 4242.563965, 4217.948730, 4218.461426, 4223.589844, 4155.384277, 4194.871582, 3493.000000, 8166.000000, 8183.000000, 0.000000, 0.000000, 0.000000, 16794.000000, 148.717941, 4.000000, 4.000000, 4.000000, 4.000000, 4.000000, 4.000000, 4.000000, 4.000000, 4.000000, 4.000000, 4.000000, 4.000000, 4.000000, 4.000000, 4.000000, 4.000000
81.000000, 0.000000, 4190.769043, 4163.076660, 4215.897461, 4189.743652, 4210.769043, 4200.000000, 4214.871582, 4222.563965, 4250.256348, 4218.461426, 4221.538574, 4229.230469, 4162.051270, 4201.025391, 2360.000000, 8175.000000, 8178.000000, 0.000000, 0.000000, 0.000000, 16794.000000, 156.923080, 4.000000, 4.000000, 4.000000, 4.000000, 4.000000, 4.000000, 4.000000, 4.000000, 4.000000, 4.000000, 4.000000, 4.000000, 4.000000, 4.000000, 4.000000, 4.000000
82.000000, 0.000000, 4196.922852, 4170.256348, 4220.000000, 4186.666504, 4232.820313, 4214.358887, 4209.743652, 4231.281738, 4252.307617, 4218.974121, 4232.820313, 4231.281738, 4171.281738, 4198.974121, 3198.000000, 8175.000000, 8178.000000, 0.000000, 0.000000, 0.000000, 16794.000000, 164.615387, 4.000000, 4.000000, 4.000000, 4.000000, 4.000000, 4.000000, 4.000000, 4.000000, 4.000000, 4.000000, 4.000000, 4.000000, 4.000000, 4.000000, 4.000000, 4.000000
83.000000, 0.000000, 4186.666504, 4172.307617, 4217.436035, 4187.692383, 4230.769043, 4227.179199, 4221.538574, 4228.205078, 4248.205078, 4222.563965, 4236.922852, 4240.000000, 4172.307617, 4197.436035, 1983.000000, 8181.000000, 8158.000000, 0.000000, 0.000000, 0.000000, 16794.000000, 172.307693, 4.000000, 4.000000, 4.000000, 4.000000, 4.000000, 4.000000, 4.000000, 4.000000, 4.000000, 4.000000, 4.000000, 4.000000, 4.000000, 4.000000, 4.000000, 4.000000
84.000000, 0.000000, 4176.410156, 4165.127930, 4199.487305, 4183.589844, 4218.461426, 4217.948730, 4222.563965, 4215.384277, 4249.230469, 4217.436035, 4220.512695, 4227.179199, 4157.436035, 4188.717773, 3493.000000, 8181.000000, 8158.000000, 0.000000, 0.000000, 0.000000, 16794.000000, 180.000000, 4.000000, 4.000000, 4.000000, 4.000000, 4.000000, 4.000000, 4.000000, 4.000000, 4.000000, 4.000000, 4.000000, 4.000000, 4.000000, 4.000000, 4.000000, 4.000000
85.000000, 0.000000, 4170.256348, 4145.641113, 4185.641113, 4167.692383, 4210.256348, 4197.948730, 4213.333008, 4209.230469, 4248.205078, 4205.641113, 4200.512695, 4209.230469, 4143.589844, 4182.051270, 2360.000000, 8197.000000, 8148.000000, 0.000000, 0.000000, 0.000000, 16794.000000, 188.205124, 4.000000, 4.000000, 4.000000, 4.000000, 4.000000, 4.000000, 4.000000, 4.000000, 4.000000, 4.000000, 4.000000, 4.000000, 4.000000, 4.000000, 4.000000, 4.000000
86.000000, 0.000000, 4164.615234, 4135.384277, 4188.205078, 4166.153809, 4204.102539, 4193.333008, 4216.410156, 4201.538574, 4232.307617, 4193.846191, 4198.974121, 4209.743652, 4147.692383, 4190.256348, 3198.000000, 8197.000000, 8148.000000, 0.000000, 0.000000, 0.000000, 16794.000000, 195.897430, 4.000000, 4.000000, 4.000000, 4.000000, 4.000000, 4.000000, 4.000000, 4.000000, 4.000000, 4.000000, 4.000000, 4.000000, 4.000000, 4.000000, 4.000000, 4.000000
87.000000, 0.000000, 4164.615234, 4141.538574, 4192.307617, 4171.794922, 4203.076660, 4183.589844, 4214.871582, 4195.384277, 4218.461426, 4189.743652, 4197.948730, 4205.641113, 4150.769043, 4190.256348, 1983.000000, 8207.000000, 8133.000000, 0.000000, 0.000000, 0.000000, 16794.000000, 203.589737, 4.000000, 4.000000, 4.000000, 4.000000, 4.000000, 4.000000, 4.000000, 4.000000, 4.000000, 4.000000, 4.000000, 4.000000, 4.000000, 4.000000, 4.000000, 4.000000
88.000000, 0.000000, 4158.974121, 4148.717773, 4193.333008, 4167.692383, 4198.461426, 4169.230469, 4200.000000, 4196.922852, 4222.051270, 4195.384277, 4189.743652, 4205.127930, 4144.615234, 4190.256348, 3493.000000, 8207.000000, 8133.000000, 0.000000, 0.000000, 0.000000, 16794.000000, 211.282043, 4.000000, 4.000000, 4.000000, 4.000000, 4.000000, 4.000000, 4.000000, 4.000000, 4.000000, 4.000000, 4.000000, 4.000000, 4.000000, 4.000000, 4.000000, 4.000000
89.000000, 0.000000, 4164.615234, 4148.717773, 4202.563965, 4174.871582, 4185.127930, 4195.897461, 4205.641113, 4201.025391, 4232.307617, 4202.051270, 4198.461426, 4212.820313, 4151.794922, 4194.358887, 2360.000000, 8232.000000, 8108.000000, 0.000000, 0.000000, 0.000000, 16794.000000, 219.487167, 4.000000, 4.000000, 4.000000, 4.000000, 4.000000, 4.000000, 4.000000, 4.000000, 4.000000, 4.000000, 4.000000, 4.000000, 4.000000, 4.000000, 4.000000, 4.000000
90.000000, 0.000000, 4181.025391, 4157.948730, 4212.307617, 4189.230469, 4199.487305, 4225.641113, 4217.948730, 4209.743652, 4244.615234, 4210.256348, 4220.512695, 4224.615234, 4170.769043, 4199.487305, 3198.000000, 8232.000000, 8108.000000, 0.000000, 0.000000, 0.000000, 16794.000000, 227.179489, 4.000000, 4.000000, 4.000000, 4.000000, 4.000000, 4.000000, 4.000000, 4.000000, 4.000000, 4.000000, 4.000000, 4.000000, 4.000000, 4.000000, 4.000000, 4.000000
91.000000, 0.000000, 4182.563965, 4175.897461, 4206.153809, 4188.717773, 4232.307617, 4206.666504, 4203.589844, 4217.436035, 4246.153809, 4215.384277, 4222.563965, 4230.256348, 4174.871582, 4203.589844, 1983.000000, 8241.000000, 8102.000000, 0.000000, 0.000000, 0.000000, 16794.000000, 234.871796, 4.000000, 4.000000, 4.000000, 4.000000, 4.000000, 4.000000, 4.000000, 4.000000, 4.000000, 4.000000, 4.000000, 4.000000, 4.000000, 4.000000, 4.000000, 4.000000
92.000000, 0.000000, 4183.076660, 4166.666504, 4205.641113, 4179.487305, 4230.256348, 4188.717773, 4200.000000, 4228.205078, 4244.102539, 4213.846191, 4216.410156, 4228.205078, 4167.179199, 4195.384277, 3493.000000, 8241.000000, 8102.000000, 0.000000, 0.000000, 0.000000, 16794.000000, 242.564102, 4.000000, 4.000000, 4.000000, 4.000000, 4.000000, 4.000000, 4.000000, 4.000000, 4.000000, 4.000000, 4.000000, 4.000000, 4.000000, 4.000000, 4.000000, 4.000000
93.000000, 0.000000, 4177.436035, 4146.153809, 4207.692383, 4177.436035, 4203.589844, 4186.153809, 4213.846191, 4232.820313, 4252.307617, 4212.820313, 4217.948730, 4230.256348, 4166.666504, 4193.846191, 2360.000000, 8245.000000, 8083.000000, 0.000000, 0.000000, 0.000000, 16794.000000, 250.769226, 4.000000, 4.000000, 4.000000, 4.000000, 4.000000, 4.000000, 4.000000, 4.000000, 4.000000, 4.000000, 4.000000, 4.000000, 4.000000, 4.000000, 4.000000, 4.000000
94.000000, 0.000000, 4173.846191, 4159.487305, 4200.512695, 4182.051270, 4197.436035, 4186.666504, 4207.692383, 4223.076660, 4252.820313, 4215.384277, 4217.948730, 4222.563965, 4171.794922, 4195.897461, 3198.000000, 8245.000000, 8083.000000, 0.000000, 0.000000, 0.000000, 16794.000000, 258.461517, 4.000000, 4.000000, 4.000000, 4.000000, 4.000000, 4.000000, 4.000000, 4.000000, 4.000000, 4.000000, 4.000000, 4.000000, 4.000000, 4.000000, 4.000000, 4.000000
95.000000, 0.000000, 4179.487305, 4177.948730, 4195.897461, 4187.179199, 4209.743652, 4192.820313, 4194.871582, 4212.307617, 4236.410156, 4205.641113, 4207.692383, 4212.820313, 4162.563965, 4190.769043, 1983.000000, 8247.000000, 8074.000000, 0.000000, 0.000000, 0.000000, 16794.000000, 266.666656, 4.000000, 4.000000, 4.000000, 4.000000, 4.000000, 4.000000, 4.000000, 4.000000, 4.000000, 4.000000, 4.000000, 4.000000, 4.000000, 4.000000, 4.000000, 4.000000
96.000000, 0.000000, 4170.256348, 4165.641113, 4196.410156, 4182.051270, 4216.922852, 4175.897461, 4201.025391, 4206.153809, 4216.922852, 4186.666504, 4191.281738, 4211.794922, 4144.615234, 4193.333008, 3493.000000, 8247.000000, 8074.000000, 0.000000, 0.000000, 0.000000, 16794.000000, 274.358978, 4.000000, 4.000000, 4.000000, 4.000000, 4.000000, 4.000000, 4.000000, 4.000000, 4.000000, 4.000000, 4.000000, 4.000000, 4.000000, 4.000000, 4.000000, 4.000000
97.000000, 0.000000, 4167.692383, 4156.922852, 4200.000000, 4171.794922, 4210.256348, 4163.076660, 4204.102539, 4207.179199, 4218.461426, 4187.692383, 4195.897461, 4206.666504, 4150.256348, 4193.846191, 2360.000000, 8249.000000, 8070.000000, 0.000000, 0.000000, 0.000000, 16794.000000, 282.564087, 4.000000, 4.000000, 4.000000, 4.000000, 4.000000, 4.000000, 4.000000, 4.000000, 4.000000, 4.000000, 4.000000, 4.000000, 4.000000, 4.000000, 4.000000, 4.000000
98.000000, 0.000000, 4180.000000, 4169.743652, 4202.051270, 4182.051270, 4201.025391, 4193.846191, 4200.000000, 4218.461426, 4239.487305, 4204.102539, 4212.820313, 4214.358887, 4169.743652, 4201.025391, 3198.000000, 8249.000000, 8070.000000, 0.000000, 0.000000, 0.000000, 16794.000000, 290.256409, 4.000000, 4.000000, 4.000000, 4.000000, 4.000000, 4.000000, 4.000000, 4.000000, 4.000000, 4.000000, 4.000000, 4.000000, 4.000000, 4.000000, 4.000000, 4.000000
99.000000, 0.000000, 4190.256348, 4181.538574, 4210.769043, 4201.025391, 4200.512695, 4216.922852, 4209.230469, 4227.692383, 4255.897461, 4216.410156, 4220.512695, 4226.153809, 4175.384277, 4207.692383, 1983.000000, 8239.000000, 8081.000000, 0.000000, 0.000000, 0.000000, 16794.000000, 297.948700, 4.000000, 4.000000, 4.000000, 4.000000, 4.000000, 4.000000, 4.000000, 4.000000, 4.000000, 4.000000, 4.000000, 4.000000, 4.000000, 4.000000, 4.000000, 4.000000
100.000000, 0.000000, 4183.589844, 4176.410156, 4219.487305, 4194.358887, 4204.102539, 4203.076660, 4213.846191, 4220.000000, 4244.102539, 4215.897461, 4218.461426, 4222.051270, 4168.717773, 4196.410156, 3493.000000, 8239.000000, 8081.000000, 0.000000, 0.000000, 0.000000, 16794.000000, 305.641022, 4.000000, 4.000000, 4.000000, 4.000000, 4.000000, 4.000000, 4.000000, 4.000000, 4.000000, 4.000000, 4.000000, 4.000000, 4.000000, 4.000000, 4.000000, 4.000000
101.000000, 0.000000, 4168.717773, 4164.615234, 4215.897461, 4179.487305, 4201.538574, 4196.922852, 4210.769043, 4213.846191, 4238.461426, 4206.666504, 4214.871582, 4214.871582, 4164.102539, 4193.333008, 2360.000000, 8239.000000, 8087.000000, 0.000000, 0.000000, 0.000000, 16794.000000, 313.846161, 4.000000, 4.000000, 4.000000, 4.000000, 4.000000, 4.000000, 4.000000, 4.000000, 4.000000, 4.000000, 4.000000, 4.000000, 4.000000, 4.000000, 4.000000, 4.000000
102.000000, 0.000000, 4177.948730, 4171.281738, 4210.256348, 4187.692383, 4207.692383, 4203.589844, 4213.333008, 4220.512695, 4250.769043, 4207.179199, 4213.333008, 4208.205078, 4165.127930, 4195.897461, 3198.000000, 8239.000000, 8087.000000, 0.000000, 0.000000, 0.000000, 16794.000000, 321.538452, 4.000000, 4.000000, 4.000000, 4.000000, 4.000000, 4.000000, 4.000000, 4.000000, 4.000000, 4.000000, 4.000000, 4.000000, 4.000000, 4.000000, 4.000000, 4.000000
103.000000, 0.000000, 4186.666504, 4182.051270, 4211.794922, 4195.897461, 4222.563965, 4200.512695, 4213.333008, 4216.922852, 4241.025391, 4210.769043, 4214.358887, 4214.871582, 4169.743652, 4198.974121, 1983.000000, 8234.000000, 8111.000000, 0.000000, 0.000000, 0.000000, 16794.000000, 329.230774, 4.000000, 4.000000, 4.000000, 4.000000, 4.000000, 4.000000, 4.000000, 4.000000, 4.000000, 4.000000, 4.000000, 4.000000, 4.000000, 4.000000, 4.000000, 4.000000
104.000000, 0.000000, 4181.025391, 4174.358887, 4213.846191, 4188.205078, 4224.102539, 4206.666504, 4211.281738, 4208.717773, 4226.666504, 4207.692383, 4220.000000, 4222.051270, 4174.358887, 4200.512695, 3493.000000, 8234.000000, 8111.000000, 0.000000, 0.000000, 0.000000, 16794.000000, 337.435883, 4.000000, 4.000000, 4.000000, 4.000000, 4.000000, 4.000000, 4.000000, 4.000000, 4.000000, 4.000000, 4.000000, 4.000000, 4.000000, 4.000000, 4.000000, 4.000000
105.000000, 0.000000, 4175.897461, 4165.127930, 4210.256348, 4184.615234, 4214.358887, 4205.127930, 4212.307617, 4212.307617, 4229.743652, 4204.102539, 4214.871582, 4214.358887, 4168.205078, 4192.307617, 2360.000000, 8232.000000, 8122.000000, 0.000000, 0.000000, 0.000000, 16794.000000, 345.128204, 4.000000, 4.000000, 4.000000, 4.000000, 4.000000, 4.000000, 4.000000, 4.000000, 4.000000, 4.000000, 4.000000, 4.000000, 4.000000, 4.000000, 4.000000, 4.000000
106.000000, 0.000000, 4164.615234, 4164.102539, 4202.563965, 4178.974121, 4206.153809, 4189.230469, 4205.127930, 4215.384277, 4232.307617, 4202.563965, 4203.076660, 4212.307617, 4159.487305, 4191.281738, 3198.000000, 8232.000000, 8122.000000, 0.000000, 0.000000, 0.000000, 16794.000000, 352.820496, 4.000000, 4.000000, 4.000000, 4.000000, 4.000000, 4.000000, 4.000000, 4.000000, 4.000000, 4.000000, 4.000000, 4.000000, 4.000000, 4.000000, 4.000000, 4.000000
107.000000, 0.000000, 4163.589844, 4161.538574, 4197.948730, 4175.384277, 4202.051270, 4191.281738, 4196.410156, 4210.256348, 4227.692383, 4206.153809, 4201.025391, 4210.256348, 4164.615234, 4192.307617, 1983.000000, 8227.000000, 8138.000000, 0.000000, 0.000000, 0.000000, 16794.000000, 361.025635, 4.000000, 4.000000, 4.000000, 4.000000, 4.000000, 4.000000, 4.000000, 4.000000, 4.000000, 4.000000, 4.000000, 4.000000, 4.000000, 4.000000, 4.000000, 4.000000
108.000000, 0.000000, 4172.307617, 4162.563965, 4207.692383, 4184.615234, 4201.025391, 4209.743652, 4205.127930, 4209.230469, 4229.230469, 4213.846191, 4207.179199, 4216.922852, 4172.307617, 4196.410156, 3493.000000, 8227.000000, 8138.000000, 0.000000, 0.000000, 0.000000, 16794.000000, 369.230774, 4.000000, 4.000000, 4.000000, 4.000000, 4.000000, 4.000000, 4.000000, 4.000000, 4.000000, 4.000000, 4.000000, 4.000000, 4.000000, 4.000000, 4.000000, 4.000000
109.000000, 0.000000, 4167.692383, 4158.461426, 4211.794922, 4182.051270, 4202.051270, 4209.743652, 4202.563965, 4209.230469, 4237.948730, 4206.666504, 4202.051270, 4218.461426, 4164.102539, 4197.948730, 2360.000000, 8226.000000, 8170.000000, 0.000000, 0.000000, 0.000000, 16794.000000, 376.923065, 4.000000, 4.000000, 4.000000, 4.000000, 4.000000, 4.000000, 4.000000, 4.000000, 4.000000, 4.000000, 4.000000, 4.000000, 4.000000, 4.000000, 4.000000, 4.000000
110.000000, 0.000000, 4164.102539, 4149.230469, 4201.025391, 4175.384277, 4203.589844, 4183.076660, 4184.615234, 4199.487305, 4232.820313, 4187.179199, 4188.717773, 4203.076660, 4154.871582, 4189.230469, 3198.000000, 8226.000000, 8170.000000, 0.000000, 0.000000, 0.000000, 16794.000000, 384.615387, 4.000000, 4.000000, 4.000000, 4.000000, 4.000000, 4.000000, 4.000000, 4.000000, 4.000000, 4.000000, 4.000000, 4.000000, 4.000000, 4.000000, 4.000000, 4.000000
111.000000, 0.000000, 4165.127930, 4153.333008, 4202.563965, 4181.025391, 4194.871582, 4174.871582, 4191.794922, 4193.333008, 4212.307617, 4182.051270, 4193.846191, 4204.102539, 4166.666504, 4197.436035, 1983.000000, 8225.000000, 8179.000000, 0.000000, 0.000000, 0.000000, 16794.000000, 392.820496, 4.000000, 4.000000, 4.000000, 4.000000, 4.000000, 4.000000, 4.000000, 4.000000, 4.000000, 4.000000, 4.000000, 4.000000, 4.000000, 4.000000, 4.000000, 4.000000
112.000000, 0.000000, 4168.717773, 4158.974121, 4212.820313, 4181.025391, 4190.769043, 4200.512695, 4208.205078, 4196.922852, 4213.846191, 4191.794922, 4205.127930, 4209.743652, 4177.436035, 4205.127930, 3493.000000, 8225.000000, 8179.000000, 0.000000, 0.000000, 0.000000, 16794.000000, 400.512817, 4.000000, 4.000000, 4.000000, 4.000000, 4.000000, 4.000000, 4.000000, 4.000000, 4.000000, 4.000000, 4.000000, 4.000000, 4.000000, 4.000000, 4.000000, 4.000000
113.000000, 0.000000, 4175.384277, 4160.512695, 4212.820313, 4180.000000, 4205.641113, 4214.871582, 4206.153809, 4198.974121, 4233.846191, 4204.102539, 4203.589844, 4210.256348, 4172.820313, 4205.127930, 2360.000000, 8232.000000, 8211.000000, 0.000000, 0.000000, 0.000000, 16794.000000, 408.205109, 4.000000, 4.000000, 4.000000, 4.000000, 4.000000, 4.000000, 4.000000, 4.000000, 4.000000, 4.000000, 4.000000, 4.000000, 4.000000, 4.000000, 4.000000, 4.000000
114.000000, 0.000000, 4184.615234, 4172.820313, 4214.358887, 4197.436035, 4216.922852, 4211.281738, 4210.256348, 4206.153809, 4223.589844, 4220.000000, 4209.743652, 4216.410156, 4181.025391, 4210.769043, 3198.000000, 8232.000000, 8211.000000, 0.000000, 0.000000, 0.000000, 16794.000000, 416.410248, 4.000000, 4.000000, 4.000000, 4.000000, 4.000000, 4.000000, 4.000000, 4.000000, 4.000000, 4.000000, 4.000000, 4.000000, 4.000000, 4.000000, 4.000000, 4.000000
115.000000, 0.000000, 4193.333008, 4180.000000, 4223.076660, 4203.076660, 4210.256348, 4209.743652, 4215.384277, 4211.281738, 4209.743652, 4220.000000, 4220.000000, 4220.512695, 4188.205078, 4206.666504, 1983.000000, 8228.000000, 8224.000000, 0.000000, 0.000000, 0.000000, 16794.000000, 424.102539, 4.000000, 4.000000, 4.000000, 4.000000, 4.000000, 4.000000, 4.000000, 4.000000, 4.000000, 4.000000, 4.000000, 4.000000, 4.000000, 4.000000, 4.000000, 4.000000
116.000000, 0.000000, 4180.000000, 4167.179199, 4217.948730, 4185.127930, 4206.153809, 4212.820313, 4202.563965, 4205.127930, 4230.256348, 4202.051270, 4209.230469, 4219.487305, 4176.922852, 4204.102539, 3493.000000, 8228.000000, 8224.000000, 0.000000, 0.000000, 0.000000, 16794.000000, 431.794861, 4.000000, 4.000000, 4.000000, 4.000000, 4.000000, 4.000000, 4.000000, 4.000000, 4.000000, 4.000000, 4.000000, 4.000000, 4.000000, 4.000000, 4.000000, 4.000000
117.000000, 0.000000, 4175.384277, 4165.127930, 4209.743652, 4181.538574, 4215.897461, 4213.846191, 4200.512695, 4206.666504, 4253.846191, 4193.846191, 4198.461426, 4208.717773, 4173.333008, 4201.538574, 2360.000000, 8223.000000, 8242.000000, 0.000000, 0.000000, 0.000000, 16794.000000, 440.000000, 4.000000, 4.000000, 4.000000, 4.000000, 4.000000, 4.000000, 4.000000, 4.000000, 4.000000, 4.000000, 4.000000, 4.000000, 4.000000, 4.000000, 4.000000, 4.000000
118.000000, 0.000000, 4189.230469, 4181.538574, 4216.410156, 4198.974121, 4214.871582, 4207.692383, 4208.205078, 4214.871582, 4249.743652, 4197.436035, 4203.076660, 4209.743652, 4182.051270, 4201.538574, 3198.000000, 8223.000000, 8242.000000, 0.000000, 0.000000, 0.000000, 16794.000000, 447.692291, 4.000000, 4.000000, 4.000000, 4.000000, 4.000000, 4.000000, 4.000000, 4.000000, 4.000000, 4.000000, 4.000000, 4.000000, 4.000000, 4.000000, 4.000000, 4.000000
119.000000, 0.000000, 4188.717773, 4181.538574, 4218.974121, 4203.589844, 4204.615234, 4195.384277, 4195.897461, 4207.692383, 4225.641113, 4206.666504, 4210.256348, 4216.922852, 4185.641113, 4205.641113, 1983.000000, 8222.000000, 8245.000000, 0.000000, 0.000000, 0.000000, 16794.000000, 455.897430, 4.000000, 4.000000, 4.000000, 4.000000, 4.000000, 4.000000, 4.000000, 4.000000, 4.000000, 4.000000, 4.000000, 4.000000, 4.000000, 4.000000, 4.000000, 4.000000
120.000000, 0.000000, 4183.076660, 4169.743652, 4215.384277, 4191.281738, 4204.102539, 4201.025391, 4187.692383, 4197.436035, 4217.948730, 4210.256348, 4215.384277, 4208.205078, 4183.589844, 4196.922852, 3493.000000, 8222.000000, 8245.000000, 0.000000, 0.000000, 0.000000, 16794.000000, 463.589722, 4.000000, 4.000000, 4.000000, 4.000000, 4.000000, 4.000000, 4.000000, 4.000000, 4.000000, 4.000000, 4.000000, 4.000000, 4.000000, 4.000000, 4.000000, 4.000000
121.000000, 0.000000, 4179.487305, 4171.794922, 4215.384277, 4189.743652, 4217.948730, 4218.461426, 4200.000000, 4204.102539, 4235.897461, 4206.666504, 4215.384277, 4208.717773, 4185.641113, 4196.922852, 2360.000000, 8221.000000, 8239.000000, 0.000000, 0.000000, 0.000000, 16794.000000, 471.282043, 4.000000, 4.000000, 4.000000, 4.000000, 4.000000, 4.000000, 4.000000, 4.000000, 4.000000, 4.000000, 4.000000, 4.000000, 4.000000, 4.000000, 4.000000, 4.000000
122.000000, 0.000000, 4178.461426, 4176.922852, 4209.743652, 4196.410156, 4217.948730, 4195.897461, 4197.436035, 4203.589844, 4219.487305, 4207.179199, 4204.615234, 4204.615234, 4182.051270, 4194.358887, 3198.000000, 8221.000000, 8239.000000, 0.000000, 0.000000, 0.000000, 16794.000000, 478.974335, 4.000000, 4.000000, 4.000000, 4.000000, 4.000000, 4.000000, 4.000000, 4.000000, 4.000000, 4.000000, 4.000000, 4.000000, 4.000000, 4.000000, 4.000000, 4.000000
123.000000, 0.000000, 4183.589844, 4178.461426, 4207.179199, 4199.487305, 4200.000000, 4184.102539, 4195.384277, 4195.897461, 4206.666504, 4203.589844, 4202.051270, 4202.563965, 4179.487305, 4191.794922, 1983.000000, 8215.000000, 8169.000000, 0.000000, 0.000000, 0.000000, 16794.000000, 487.179474, 4.000000, 4.000000, 4.000000, 4.000000, 4.000000, 4.000000, 4.000000, 4.000000, 4.000000, 4.000000, 4.000000, 4.000000, 4.000000, 4.000000, 4.000000, 4.000000
124.000000, 0.000000, 4185.641113, 4184.615234, 4211.281738, 4202.563965, 4206.153809, 4220.512695, 4207.692383, 4195.897461, 4248.205078, 4197.948730, 4212.820313, 4210.256348, 4187.692383, 4198.974121, 3493.000000, 8215.000000, 8169.000000, 0.000000, 0.000000, 0.000000, 16794.000000, 494.871796, 4.000000, 4.000000, 4.000000, 4.000000, 4.000000, 4.000000, 4.000000, 4.000000, 4.000000, 4.000000, 4.000000, 4.000000, 4.000000, 4.000000, 4.000000, 4.000000
125.000000, 0.000000, 4181.538574, 4182.051270, 4202.051270, 4196.410156, 4223.076660, 4206.153809, 4195.384277, 4179.487305, 4207.692383, 4200.000000, 4208.205078, 4201.025391, 4183.589844, 4187.179199, 2360.000000, 8220.000000, 8117.000000, 0.000000, 0.000000, 0.000000, 16794.000000, 503.076904, 4.000000, 4.000000, 4.000000, 4.000000, 4.000000, 4.000000, 4.000000, 4.000000, 4.000000, 4.000000, 4.000000, 4.000000, 4.000000, 4.000000, 4.000000, 4.000000
126.000000, 0.000000, 4166.153809, 4162.051270, 4192.820313, 4184.615234, 4215.384277, 4162.051270, 4181.538574, 4172.307617, 4127.179199, 4191.794922, 4195.897461, 4200.512695, 4164.615234, 4183.076660, 3198.000000, 8220.000000, 8117.000000, 0.000000, 0.000000, 0.000000, 16794.000000, 510.769226, 4.000000, 4.000000, 4.000000, 4.000000, 4.000000, 4.000000, 4.000000, 4.000000, 4.000000, 4.000000, 4.000000, 4.000000, 4.000000, 4.000000, 4.000000, 4.000000
127.000000, 0.000000, 4168.717773, 4164.615234, 4203.076660, 4192.820313, 4212.307617, 4189.230469, 4197.948730, 4196.410156, 4198.461426, 4181.538574, 4204.102539, 4210.256348, 4172.820313, 4194.358887, 55.000000, 8248.000000, 8079.000000, 0.000000, 0.000000, 0.000000, 16794.000000, 518.461548, 4.000000, 4.000000, 4.000000, 4.000000, 4.000000, 4.000000, 4.000000, 4.000000, 4.000000, 4.000000, 4.000000, 4.000000, 4.000000, 4.000000, 4.000000, 4.000000
0.000000, 0.000000, 4186.666504, 4197.948730, 4207.179199, 4205.127930, 4225.127930, 4230.256348, 4209.743652, 4205.127930, 4298.461426, 4201.025391, 4224.615234, 4211.794922, 4207.179199, 4197.948730, 3305.000000, 8248.000000, 8079.000000, 0.000000, 0.000000, 0.000000, 16794.000000, 526.666626, 4.000000, 4.000000, 4.000000, 4.000000, 4.000000, 4.000000, 4.000000, 4.000000, 4.000000, 4.000000, 4.000000, 4.000000, 4.000000, 4.000000, 4.000000, 4.000000
1.000000, 0.000000, 4183.589844, 4204.102539, 4197.436035, 4201.538574, 4225.127930, 4221.025391, 4200.000000, 4192.820313, 4267.692383, 4222.563965, 4230.769043, 4212.820313, 4215.897461, 4196.922852, 3538.000000, 8272.000000, 8089.000000, 0.000000, 0.000000, 0.000000, 16794.000000, 534.358948, 4.000000, 4.000000, 4.000000, 4.000000, 4.000000, 4.000000, 4.000000, 4.000000, 4.000000, 4.000000, 4.000000, 4.000000, 4.000000, 4.000000, 4.000000, 4.000000
2.000000, 0.000000, 4175.384277, 4178.461426, 4193.846191, 4200.000000, 4215.897461, 4207.692383, 4198.461426, 4192.820313, 4234.358887, 4219.487305, 4223.589844, 4210.769043, 4200.512695, 4186.153809, 2738.000000, 8272.000000, 8089.000000, 0.000000, 0.000000, 0.000000, 16794.000000, 542.564087, 4.000000, 4.000000, 4.000000, 4.000000, 4.000000, 4.000000, 4.000000, 4.000000, 4.000000, 4.000000, 4.000000, 4.000000, 4.000000, 4.000000, 4.000000, 4.000000
3.000000, 0.000000, 4171.794922, 4168.717773, 4191.794922, 4200.000000, 4218.461426, 4201.025391, 4206.153809, 4193.846191, 4253.846191, 4216.922852, 4216.410156, 4213.846191, 4197.948730, 4182.563965, 3555.000000, 8296.000000, 8092.000000, 0.000000, 0.000000, 0.000000, 16794.000000, 550.256409, 4.000000, 4.000000, 4.000000, 4.000000, 4.000000, 4.000000, 4.000000, 4.000000, 4.000000, 4.000000, 4.000000, 4.000000, 4.000000, 4.000000, 4.000000, 4.000000
4.000000, 0.000000, 4166.153809, 4167.179199, 4182.051270, 4192.820313, 4219.487305, 4188.205078, 4202.563965, 4181.025391, 4246.153809, 4212.307617, 4209.743652, 4210.256348, 4191.281738, 4184.615234, 3532.000000, 8296.000000, 8092.000000, 0.000000, 0.000000, 0.000000, 16794.000000, 557.948730, 4.000000, 4.000000, 4.000000, 4.000000, 4.000000, 4.000000, 4.000000, 4.000000, 4.000000, 4.000000, 4.000000, 4.000000, 4.000000, 4.000000, 4.000000, 4.000000
5.000000, 0.000000, 4162.563965, 4147.692383, 4181.025391, 4187.692383, 4217.436035, 4189.743652, 4198.974121, 4177.948730, 4231.281738, 4204.102539, 4203.076660, 4204.102539, 4175.897461, 4179.487305, 3535.000000, 8334.000000, 8059.000000, 0.000000, 0.000000, 0.000000, 16794.000000, 566.153809, 4.000000, 4.000000, 4.000000, 4.000000, 4.000000, 4.000000, 4.000000, 4.000000, 4.000000, 4.000000, 4.000000, 4.000000, 4.000000, 4.000000, 4.000000, 4.000000
6.000000, 0.000000, 4152.307617, 4127.692383, 4182.051270, 4183.589844, 4216.922852, 4198.974121, 4201.538574, 4181.025391, 4224.615234, 4199.487305, 4196.922852, 4205.641113, 4166.666504, 4181.025391, 3493.000000, 8334.000000, 8059.000000, 0.000000, 0.000000, 0.000000, 16794.000000, 573.846130, 4.000000, 4.000000, 4.000000, 4.000000, 4.000000, 4.000000, 4.000000, 4.000000, 4.000000, 4.000000, 4.000000, 4.000000, 4.000000, 4.000000, 4.000000, 4.000000
7.000000, 0.000000, 4145.127930, 4121.025391, 4176.410156, 4176.410156, 4219.487305, 4207.692383, 4203.076660, 4178.974121, 4229.743652, 4183.076660, 4187.179199, 4196.410156, 4156.410156, 4180.000000, 3199.000000, 8324.000000, 8031.000000, 0.000000, 0.000000, 0.000000, 16794.000000, 581.538452, 4.000000, 4.000000, 4.000000, 4.000000, 4.000000, 4.000000, 4.000000, 4.000000, 4.000000, 4.000000, 4.000000, 4.000000, 4.000000, 4.000000, 4.000000, 4.000000
8.000000, 0.000000, 4138.974121, 4113.333008, 4172.307617, 4172.307617, 4223.589844, 4220.512695, 4206.666504, 4185.641113, 4252.307617, 4173.846191, 4184.102539, 4195.897461, 4150.769043, 4182.563965, 3515.000000, 8324.000000, 8031.000000, 0.000000, 0.000000, 0.000000, 16794.000000, 589.743591, 4.000000, 4.000000, 4.000000, 4.000000, 4.000000, 4.000000, 4.000000, 4.000000, 4.000000, 4.000000, 4.000000, 4.000000, 4.000000, 4.000000, 4.000000, 4.000000
9.000000, 0.000000, 4126.153809, 4093.333252, 4164.615234, 4166.153809, 4215.897461, 4197.948730, 4214.358887, 4183.076660, 4233.846191, 4182.563965, 4185.127930, 4196.410156, 4149.743652, 4186.153809, 3542.000000, 8298.000000, 7962.000000, 0.000000, 0.000000, 0.000000, 16794.000000, 597.435913, 4.000000, 4.000000, 4.000000, 4.000000, 4.000000, 4.000000, 4.000000, 4.000000, 4.000000, 4.000000, 4.000000, 4.000000, 4.000000, 4.000000, 4.000000, 4.000000
10.000000, 0.000000, 4125.127930, 4085.640869, 4167.179199, 4165.127930, 4213.333008, 4163.589844, 4216.922852, 4179.487305, 4209.230469, 4187.692383, 4191.281738, 4198.461426, 4149.743652, 4186.666504, 3187.000000, 8298.000000, 7962.000000, 0.000000, 0.000000, 0.000000, 16794.000000, 605.128174, 4.000000, 4.000000, 4.000000, 4.000000, 4.000000, 4.000000, 4.000000, 4.000000, 4.000000, 4.000000, 4.000000, 4.000000, 4.000000, 4.000000, 4.000000, 4.000000
11.000000, 0.000000, 4143.076660, 4112.307617, 4191.281738, 4185.641113, 4224.102539, 4187.179199, 4210.769043, 4192.307617, 4241.025391, 4195.384277, 4213.333008, 4224.615234, 4163.076660, 4202.051270, 1983.000000, 8280.000000, 7920.000000, 0.000000, 0.000000, 0.000000, 16794.000000, 613.333313, 4.000000, 4.000000, 4.000000, 4.000000, 4.000000, 4.000000, 4.000000, 4.000000, 4.000000, 4.000000, 4.000000, 4.000000, 4.000000, 4.000000, 4.000000, 4.000000
12.000000, 0.000000, 4163.076660, 4136.410156, 4209.230469, 4206.666504, 4226.666504, 4230.769043, 4212.820313, 4194.871582, 4264.102539, 4203.589844, 4233.333008, 4234.358887, 4175.384277, 4203.589844, 3479.000000, 8280.000000, 7920.000000, 0.000000, 0.000000, 0.000000, 16794.000000, 621.025635, 4.000000, 4.000000, 4.000000, 4.000000, 4.000000, 4.000000, 4.000000, 4.000000, 4.000000, 4.000000, 4.000000, 4.000000, 4.000000, 4.000000, 4.000000, 4.000000
13.000000, 0.000000, 4156.410156, 4123.076660, 4200.512695, 4206.153809, 4229.230469, 4218.974121, 4213.333008, 4184.102539, 4232.820313, 4197.948730, 4232.820313, 4225.641113, 4169.743652, 4192.307617, 2350.000000, 8267.000000, 7844.000000, 0.000000, 0.000000, 0.000000, 16794.000000, 629.230774, 4.000000, 4.000000, 4.000000, 4.000000, 4.000000, 4.000000, 4.000000, 4.000000, 4.000000, 4.000000, 4.000000, 4.000000, 4.000000, 4.000000, 4.000000, 4.000000
14.000000, 0.000000, 4149.230469, 4118.974121, 4194.871582, 4202.563965, 4237.436035, 4197.948730, 4201.538574, 4190.256348, 4222.563965, 4202.051270, 4234.358887, 4226.666504, 4167.179199, 4196.410156, 3187.000000, 8267.000000, 7844.000000, 0.000000, 0.000000, 0.000000, 16794.000000, 636.923035, 4.000000, 4.000000, 4.000000, 4.000000, 4.000000, 4.000000, 4.000000, 4.000000, 4.000000, 4.000000, 4.000000, 4.000000, 4.000000, 4.000000, 4.000000, 4.000000
15.000000, 0.000000, 4158.974121, 4138.461426, 4198.974121, 4206.153809, 4235.897461, 4205.127930, 4194.871582, 4204.102539, 4246.153809, 4211.281738, 4240.000000, 4230.769043, 4171.794922, 4195.384277, 1983.000000, 8261.000000, 7824.000000, 0.000000, 0.000000, 0.000000, 16794.000000, 644.615356, 4.000000, 4.000000, 4.000000, 4.000000, 4.000000, 4.000000, 4.000000, 4.000000, 4.000000, 4.000000, 4.000000, 4.000000, 4.000000, 4.000000, 4.000000, 4.000000
16.000000, 0.000000, 4157.436035, 4135.384277, 4190.256348, 4201.538574, 4229.743652, 4204.615234, 4200.512695, 4204.615234, 4253.333008, 4197.948730, 4232.820313, 4231.281738, 4169.230469, 4193.333008, 0.000000, 8261.000000, 7824.000000, 0.000000, 0.000000, 0.000000, 16794.000000, 652.820496, 4.000000, 4.000000, 4.000000, 4.000000, 4.000000, 4.000000, 4.000000, 4.000000, 4.000000, 4.000000, 4.000000, 4.000000, 4.000000, 4.000000, 4.000000, 4.000000
17.000000, 0.000000, 4154.358887, 4118.461426, 4184.102539, 4193.846191, 4228.717773, 4203.076660, 4204.102539, 4208.717773, 4253.846191, 4198.461426, 4229.743652, 4224.615234, 4172.307617, 4193.333008, 0.000000, 8261.000000, 7812.000000, 0.000000, 0.000000, 0.000000, 16794.000000, 660.512817, 4.000000, 4.000000, 4.000000, 4.000000, 4.000000, 4.000000, 4.000000, 4.000000, 4.000000, 4.000000, 4.000000, 4.000000, 4.000000, 4.000000, 4.000000, 4.000000
18.000000, 0.000000, 4145.127930, 4093.845947, 4183.076660, 4190.769043, 4216.410156, 4196.410156, 4193.333008, 4208.205078, 4238.461426, 4218.461426, 4228.205078, 4221.025391, 4174.871582, 4191.281738, 0.000000, 8261.000000, 7812.000000, 0.000000, 0.000000, 0.000000, 16794.000000, 668.717957, 4.000000, 4.000000, 4.000000, 4.000000, 4.000000, 4.000000, 4.000000, 4.000000, 4.000000, 4.000000, 4.000000, 4.000000, 4.000000, 4.000000, 4.000000, 4.000000
19.000000, 0.000000, 4145.641113, 4074.871582, 4186.666504, 4191.281738, 4209.743652, 4184.102539, 4184.615234, 4198.974121, 4225.641113, 4218.974121, 4223.589844, 4222.563965, 4172.307617, 4194.358887, 0.000000, 8269.000000, 7788.000000, 0.000000, 0.000000, 0.000000, 16794.000000, 676.410217, 4.000000, 4.000000, 4.000000, 4.000000, 4.000000, 4.000000, 4.000000, 4.000000, 4.000000, 4.000000, 4.000000, 4.000000, 4.000000, 4.000000, 4.000000, 4.000000
20.000000, 0.000000, 4164.102539, 4098.974121, 4200.000000, 4199.487305, 4229.230469, 4199.487305, 4189.230469, 4204.615234, 4258.974121, 4214.358887, 4232.307617, 4226.153809, 4183.589844, 4193.846191, 0.000000, 8269.000000, 7788.000000, 0.000000, 0.000000, 0.000000, 16794.000000, 684.102539, 4.000000, 4.000000, 4.000000, 4.000000, 4.000000, 4.000000, 4.000000, 4.000000, 4.000000, 4.000000, 4.000000, 4.000000, 4.000000, 4.000000, 4.000000, 4.000000
21.000000, 0.000000, 4166.666504, 4126.153809, 4198.461426, 4204.615234, 4234.871582, 4215.897461, 4194.871582, 4212.820313, 4280.512695, 4215.897461, 4236.922852, 4233.846191, 4188.205078, 4196.922852, 0.000000, 8265.000000, 7797.000000, 0.000000, 0.000000, 0.000000, 16794.000000, 692.307678, 4.000000, 4.000000, 4.000000, 4.000000, 4.000000, 4.000000, 4.000000, 4.000000, 4.000000, 4.000000, 4.000000, 4.000000, 4.000000, 4.000000, 4.000000, 4.000000
22.000000, 0.000000, 4157.948730, 4104.102539, 4184.102539, 4196.410156, 4220.000000, 4200.512695, 4188.205078, 4197.436035, 4248.717773, 4209.230469, 4221.025391, 4221.538574, 4175.384277, 4191.281738, 0.000000, 8265.000000, 7797.000000, 0.000000, 0.000000, 0.000000, 16794.000000, 700.000000, 4.000000, 4.000000, 4.000000, 4.000000, 4.000000, 4.000000, 4.000000, 4.000000, 4.000000, 4.000000, 4.000000, 4.000000, 4.000000, 4.000000, 4.000000, 4.000000
23.000000, 0.000000, 4152.820313, 4076.410156, 4180.512695, 4185.641113, 4208.205078, 4189.230469, 4181.025391, 4182.051270, 4230.256348, 4204.102539, 4211.794922, 4210.256348, 4174.871582, 4184.102539, 0.000000, 8253.000000, 7860.000000, 0.000000, 0.000000, 0.000000, 16794.000000, 708.205139, 4.000000, 4.000000, 4.000000, 4.000000, 4.000000, 4.000000, 4.000000, 4.000000, 4.000000, 4.000000, 4.000000, 4.000000, 4.000000, 4.000000, 4.000000, 4.000000
24.000000, 0.000000, 4158.974121, 4082.563965, 4188.205078, 4185.127930, 4203.589844, 4197.948730, 4189.230469, 4185.641113, 4245.641113, 4211.794922, 4216.922852, 4217.436035, 4188.717773, 4195.384277, 0.000000, 8253.000000, 7860.000000, 0.000000, 0.000000, 0.000000, 16794.000000, 715.897400, 4.000000, 4.000000, 4.000000, 4.000000, 4.000000, 4.000000, 4.000000, 4.000000, 4.000000, 4.000000, 4.000000, 4.000000, 4.000000, 4.000000, 4.000000, 4.000000
25.000000, 0.000000, 4163.076660, 4084.102539, 4184.615234, 4188.205078, 4199.487305, 4190.256348, 4193.846191, 4187.179199, 4241.025391, 4213.333008, 4214.358887, 4213.846191, 4188.717773, 4193.846191, 0.000000, 8260.000000, 7890.000000, 0.000000, 0.000000, 0.000000, 16794.000000, 724.102539, 4.000000, 4.000000, 4.000000, 4.000000, 4.000000, 4.000000, 4.000000, 4.000000, 4.000000, 4.000000, 4.000000, 4.000000, 4.000000, 4.000000, 4.000000, 4.000000
26.000000, 0.000000, 4156.922852, 4066.666504, 4174.871582, 4182.563965, 4198.974121, 4171.794922, 4187.692383, 4180.512695, 4218.974121, 4203.589844, 4203.076660, 4210.769043, 4180.512695, 4188.205078, 0.000000, 8260.000000, 7890.000000, 0.000000, 0.000000, 0.000000, 16794.000000, 731.794861, 4.000000, 4.000000, 4.000000, 4.000000, 4.000000, 4.000000, 4.000000, 4.000000, 4.000000, 4.000000, 4.000000, 4.000000, 4.000000, 4.000000, 4.000000, 4.000000
27.000000, 0.000000, 4158.974121, 4063.076904, 4173.333008, 4172.307617, 4201.025391, 4178.461426, 4190.256348, 4185.641113, 4217.948730, 4198.974121, 4197.436035, 4208.205078, 4186.666504, 4188.205078, 0.000000, 8272.000000, 7926.000000, 0.000000, 0.000000, 0.000000, 16794.000000, 739.487183, 4.000000, 4.000000, 4.000000, 4.000000, 4.000000, 4.000000, 4.000000, 4.000000, 4.000000, 4.000000, 4.000000, 4.000000, 4.000000, 4.000000, 4.000000, 4.000000
28.000000, 0.000000, 4165.641113, 4072.307617, 4171.794922, 4174.358887, 4201.025391, 4197.948730, 4201.025391, 4197.948730, 4235.384277, 4199.487305, 4199.487305, 4206.153809, 4198.461426, 4189.230469, 0.000000, 8272.000000, 7926.000000, 0.000000, 0.000000, 0.000000, 16794.000000, 747.692261, 4.000000, 4.000000, 4.000000, 4.000000, 4.000000, 4.000000, 4.000000, 4.000000, 4.000000, 4.000000, 4.000000, 4.000000, 4.000000, 4.000000, 4.000000, 4.000000
29.000000, 0.000000, 4172.307617, 4070.256348, 4171.794922, 4180.000000, 4201.538574, 4205.127930, 4212.307617, 4201.538574, 4252.307617, 4197.436035, 4203.076660, 4206.153809, 4204.102539, 4196.410156, 0.000000, 8322.000000, 8046.000000, 0.000000, 0.000000, 0.000000, 16794.000000, 755.384583, 4.000000, 4.000000, 4.000000, 4.000000, 4.000000, 4.000000, 4.000000, 4.000000, 4.000000, 4.000000, 4.000000, 4.000000, 4.000000, 4.000000, 4.000000, 4.000000
30.000000, 0.000000, 4176.410156, 4058.461426, 4177.948730, 4176.410156, 4202.563965, 4208.717773, 4219.487305, 4200.000000, 4254.871582, 4203.076660, 4202.051270, 4197.948730, 4207.179199, 4190.769043, 0.000000, 8322.000000, 8046.000000, 0.000000, 0.000000, 0.000000, 16794.000000, 763.589722, 4.000000, 4.000000, 4.000000, 4.000000, 4.000000, 4.000000, 4.000000, 4.000000, 4.000000, 4.000000, 4.000000, 4.000000, 4.000000, 4.000000, 4.000000, 4.000000
31.000000, 0.000000, 4178.461426, 4059.487061, 4186.153809, 4176.410156, 4205.127930, 4209.743652, 4214.871582, 4196.410156, 4233.846191, 4213.333008, 4203.589844, 4208.205078, 4216.922852, 4192.307617, 0.000000, 8357.000000, 8104.000000, 0.000000, 0.000000, 0.000000, 16794.000000, 771.282043, 4.000000, 4.000000, 4.000000, 4.000000, 4.000000, 4.000000, 4.000000, 4.000000, 4.000000, 4.000000, 4.000000, 4.000000, 4.000000, 4.000000, 4.000000, 4.000000
32.000000, 0.000000, 4187.692383, 4059.487061, 4190.256348, 4182.563965, 4203.589844, 4185.127930, 4203.589844, 4191.794922, 4222.051270, 4217.436035, 4205.127930, 4215.384277, 4226.153809, 4196.410156, 0.000000, 8357.000000, 8104.000000, 0.000000, 0.000000, 0.000000, 16794.000000, 778.974365, 4.000000, 4.000000, 4.000000, 4.000000, 4.000000, 4.000000, 4.000000, 4.000000, 4.000000, 4.000000, 4.000000, 4.000000, 4.000000, 4.000000, 4.000000, 4.000000
33.000000, 0.000000, 4195.384277, 4052.307617, 4191.281738, 4186.666504, 4197.436035, 4185.127930, 4212.820313, 4193.846191, 4240.000000, 4228.205078, 4205.641113, 4212.307617, 4232.307617, 4192.820313, 0.000000, 8427.000000, 8142.000000, 0.000000, 0.000000, 0.000000, 16794.000000, 787.179443, 4.000000, 4.000000, 4.000000, 4.000000, 4.000000, 4.000000, 4.000000, 4.000000, 4.000000, 4.000000, 4.000000, 4.000000, 4.000000, 4.000000, 4.000000, 4.000000
34.000000, 0.000000, 4194.358887, 4043.076904, 4190.256348, 4181.538574, 4200.000000, 4205.127930, 4218.974121, 4194.358887, 4242.051270, 4233.333008, 4203.589844, 4216.922852, 4234.358887, 4197.948730, 0.000000, 8427.000000, 8142.000000, 0.000000, 0.000000, 0.000000, 16794.000000, 794.871765, 4.000000, 4.000000, 4.000000, 4.000000, 4.000000, 4.000000, 4.000000, 4.000000, 4.000000, 4.000000, 4.000000, 4.000000, 4.000000, 4.000000, 4.000000, 4.000000
35.000000, 0.000000, 4188.717773, 4034.358887, 4182.051270, 4172.307617, 4205.641113, 4185.127930, 4193.333008, 4178.974121, 4206.666504, 4212.307617, 4190.256348, 4207.692383, 4227.179199, 4189.743652, 0.000000, 8452.000000, 8132.000000, 0.000000, 0.000000, 0.000000, 16794.000000, 802.564087, 4.000000, 4.000000, 4.000000, 4.000000, 4.000000, 4.000000, 4.000000, 4.000000, 4.000000, 4.000000, 4.000000, 4.000000, 4.000000, 4.000000, 4.000000, 4.000000
36.000000, 0.000000, 4185.127930, 4038.974365, 4178.974121, 4167.692383, 4202.563965, 4178.974121, 4182.563965, 4163.589844, 4189.743652, 4199.487305, 4187.179199, 4203.589844, 4226.666504, 4190.256348, 0.000000, 8452.000000, 8132.000000, 0.000000, 0.000000, 0.000000, 16794.000000, 810.769226, 4.000000, 4.000000, 4.000000, 4.000000, 4.000000, 4.000000, 4.000000, 4.000000, 4.000000, 4.000000, 4.000000, 4.000000, 4.000000, 4.000000, 4.000000, 4.000000
37.000000, 0.000000, 4190.769043, 4042.563965, 4185.127930, 4170.256348, 4195.384277, 4216.922852, 4200.000000, 4165.641113, 4206.153809, 4203.076660, 4194.358887, 4207.179199, 4234.871582, 4201.538574, 0.000000, 8464.000000, 8088.000000, 0.000000, 0.000000, 0.000000, 16794.000000, 818.461548, 4.000000, 4.000000, 4.000000, 4.000000, 4.000000, 4.000000, 4.000000, 4.000000, 4.000000, 4.000000, 4.000000, 4.000000, 4.000000, 4.000000, 4.000000, 4.000000
38.000000, 0.000000, 4191.281738, 4035.384521, 4188.205078, 4176.922852, 4205.127930, 4226.666504, 4207.692383, 4173.333008, 4211.794922, 4198.974121, 4191.794922, 4207.692383, 4231.281738, 4196.922852, 0.000000, 8464.000000, 8088.000000, 0.000000, 0.000000, 0.000000, 16794.000000, 826.153809, 4.000000, 4.000000, 4.000000, 4.000000, 4.000000, 4.000000, 4.000000, 4.000000, 4.000000, 4.000000, 4.000000, 4.000000, 4.000000, 4.000000, 4.000000, 4.000000
39.000000, 0.000000, 4194.358887, 4046.153809, 4192.820313, 4184.615234, 4222.563965, 4204.102539, 4197.436035, 4172.307617, 4194.871582, 4195.897461, 4189.743652, 4214.358887, 4226.153809, 4198.974121, 0.000000, 8471.000000, 7916.000000, 0.000000, 0.000000, 0.000000, 16794.000000, 834.358948, 4.000000, 4.000000, 4.000000, 4.000000, 4.000000, 4.000000, 4.000000, 4.000000, 4.000000, 4.000000, 4.000000, 4.000000, 4.000000, 4.000000, 4.000000, 4.000000
40.000000, 0.000000, 4202.563965, 4062.051270, 4198.974121, 4187.179199, 4223.076660, 4194.358887, 4193.333008, 4169.743652, 4178.461426, 4201.025391, 4198.974121, 4211.281738, 4237.436035, 4199.487305, 0.000000, 8471.000000, 7916.000000, 0.000000, 0.000000, 0.000000, 16794.000000, 842.051270, 4.000000, 4.000000, 4.000000, 4.000000, 4.000000, 4.000000, 4.000000, 4.000000, 4.000000, 4.000000, 4.000000, 4.000000, 4.000000, 4.000000, 4.000000, 4.000000
41.000000, 0.000000, 4201.538574, 4064.102539, 4197.948730, 4187.179199, 4217.948730, 4203.076660, 4202.051270, 4185.127930, 4191.794922, 4209.230469, 4208.205078, 4215.384277, 4246.153809, 4199.487305, 0.000000, 8447.000000, 7843.000000, 0.000000, 0.000000, 0.000000, 16794.000000, 849.743591, 4.000000, 4.000000, 4.000000, 4.000000, 4.000000, 4.000000, 4.000000, 4.000000, 4.000000, 4.000000, 4.000000, 4.000000, 4.000000, 4.000000, 4.000000, 4.000000
42.000000, 0.000000, 4200.512695, 4074.871582, 4189.743652, 4186.153809, 4216.410156, 4209.230469, 4198.974121, 4195.897461, 4207.179199, 4215.384277, 4205.641113, 4216.410156, 4235.384277, 4197.948730, 0.000000, 8447.000000, 7843.000000, 0.000000, 0.000000, 0.000000, 16794.000000, 857.948669, 4.000000, 4.000000, 4.000000, 4.000000, 4.000000, 4.000000, 4.000000, 4.000000, 4.000000, 4.000000, 4.000000, 4.000000, 4.000000, 4.000000, 4.000000, 4.000000
43.000000, 0.000000, 4195.384277, 4089.743408, 4173.846191, 4175.384277, 4207.692383, 4200.512695, 4182.051270, 4186.153809, 4193.846191, 4217.436035, 4197.436035, 4203.589844, 4232.307617, 4191.794922, 0.000000, 8383.000000, 7818.000000, 0.000000, 0.000000, 0.000000, 16794.000000, 865.640991, 4.000000, 4.000000, 4.000000, 4.000000, 4.000000, 4.000000, 4.000000, 4.000000, 4.000000, 4.000000, 4.000000, 4.000000, 4.000000, 4.000000, 4.000000, 4.000000
44.000000, 0.000000, 4192.820313, 4087.179443, 4172.820313, 4164.615234, 4204.615234, 4198.974121, 4184.102539, 4192.307617, 4208.717773, 4225.641113, 4202.051270, 4207.179199, 4247.692383, 4200.512695, 0.000000, 8383.000000, 7818.000000, 0.000000, 0.000000, 0.000000, 16794.000000, 873.333313, 4.000000, 4.000000, 4.000000, 4.000000, 4.000000, 4.000000, 4.000000, 4.000000, 4.000000, 4.000000, 4.000000, 4.000000, 4.000000, 4.000000, 4.000000, 4.000000
45.000000, 0.000000, 4207.179199, 4097.948730, 4188.717773, 4169.743652, 4217.948730, 4215.384277, 4201.538574, 4209.743652, 4245.641113, 4236.922852, 4213.333008, 4211.794922, 4252.307617, 4200.512695, 0.000000, 8350.000000, 7824.000000, 0.000000, 0.000000, 0.000000, 16794.000000, 881.538452, 4.000000, 4.000000, 4.000000, 4.000000, 4.000000, 4.000000, 4.000000, 4.000000, 4.000000, 4.000000, 4.000000, 4.000000, 4.000000, 4.000000, 4.000000, 4.000000
46.000000, 0.000000, 4213.333008, 4110.256348, 4187.179199, 4175.384277, 4222.563965, 4215.384277, 4198.461426, 4199.487305, 4232.307617, 4223.589844, 4206.153809, 4208.205078, 4237.948730, 4192.820313, 0.000000, 8350.000000, 7824.000000, 0.000000, 0.000000, 0.000000, 16794.000000, 889.230774, 4.000000, 4.000000, 4.000000, 4.000000, 4.000000, 4.000000, 4.000000, 4.000000, 4.000000, 4.000000, 4.000000, 4.000000, 4.000000, 4.000000, 4.000000, 4.000000
47.000000, 0.000000, 4212.820313, 4101.025391, 4173.846191, 4171.794922, 4214.871582, 4195.897461, 4186.153809, 4177.436035, 4202.051270, 4203.076660, 4192.820313, 4205.641113, 4227.179199, 4193.846191, 0.000000, 8300.000000, 7823.000000, 0.000000, 0.000000, 0.000000, 16794.000000, 897.435852, 4.000000, 4.000000, 4.000000, 4.000000, 4.000000, 4.000000, 4.000000, 4.000000, 4.000000, 4.000000, 4.000000, 4.000000, 4.000000, 4.000000, 4.000000, 4.000000
48.000000, 0.000000, 4220.512695, 4102.563965, 4180.000000, 4176.410156, 4217.436035, 4194.358887, 4194.358887, 4178.461426, 4216.410156, 4216.410156, 4199.487305, 4209.230469, 4230.256348, 4193.846191, 0.000000, 8300.000000, 7823.000000, 0.000000, 0.000000, 0.000000, 16794.000000, 905.128174, 4.000000, 4.000000, 4.000000, 4.000000, 4.000000, 4.000000, 4.000000, 4.000000, 4.000000, 4.000000, 4.000000, 4.000000, 4.000000, 4.000000, 4.000000, 4.000000
49.000000, 0.000000, 4229.230469, 4103.076660, 4193.846191, 4182.563965, 4214.871582, 4211.794922, 4206.666504, 4190.769043, 4230.769043, 4236.410156, 4208.205078, 4218.974121, 4235.897461, 4199.487305, 0.000000, 8285.000000, 7840.000000, 0.000000, 0.000000, 0.000000, 16794.000000, 912.820496, 4.000000, 4.000000, 4.000000, 4.000000, 4.000000, 4.000000, 4.000000, 4.000000, 4.000000, 4.000000, 4.000000, 4.000000, 4.000000, 4.000000, 4.000000, 4.000000
50.000000, 0.000000, 4228.717773, 4087.692139, 4191.281738, 4175.897461, 4203.076660, 4222.051270, 4197.436035, 4187.179199, 4216.410156, 4227.179199, 4201.538574, 4209.743652, 4231.281738, 4194.358887, 0.000000, 8285.000000, 7840.000000, 0.000000, 0.000000, 0.000000, 16794.000000, 920.512817, 4.000000, 4.000000, 4.000000, 4.000000, 4.000000, 4.000000, 4.000000, 4.000000, 4.000000, 4.000000, 4.000000, 4.000000, 4.000000, 4.000000, 4.000000, 4.000000
51.000000, 0.000000, 4221.025391, 4084.102539, 4181.025391, 4168.717773, 4211.281738, 4211.794922, 4183.076660, 4180.512695, 4212.307617, 4212.307617, 4190.256348, 4202.563965, 4216.922852, 4184.615234, 0.000000, 8282.000000, 7878.000000, 0.000000, 0.000000, 0.000000, 16794.000000, 928.717896, 4.000000, 4.000000, 4.000000, 4.000000, 4.000000, 4.000000, 4.000000, 4.000000, 4.000000, 4.000000, 4.000000, 4.000000, 4.000000, 4.000000, 4.000000, 4.000000
52.000000, 0.000000, 4227.179199, 4091.281982, 4186.666504, 4170.256348, 4233.333008, 4189.230469, 4187.179199, 4190.256348, 4213.333008, 4214.358887, 4189.743652, 4209.743652, 4217.436035, 4191.794922, 0.000000, 8282.000000, 7878.000000, 0.000000, 0.000000, 0.000000, 16794.000000, 936.410217, 4.000000, 4.000000, 4.000000, 4.000000, 4.000000, 4.000000, 4.000000, 4.000000, 4.000000, 4.000000, 4.000000, 4.000000, 4.000000, 4.000000, 4.000000, 4.000000
53.000000, 0.000000, 4236.922852, 4088.717773, 4197.436035, 4175.384277, 4238.461426, 4198.974121, 4206.666504, 4212.307617, 4217.436035, 4221.025391, 4200.000000, 4214.871582, 4230.256348, 4192.820313, 0.000000, 8291.000000, 7924.000000, 0.000000, 0.000000, 0.000000, 16794.000000, 944.615356, 4.000000, 4.000000, 4.000000, 4.000000, 4.000000, 4.000000, 4.000000, 4.000000, 4.000000, 4.000000, 4.000000, 4.000000, 4.000000, 4.000000, 4.000000, 4.000000
54.000000, 0.000000, 4235.897461, 4085.128174, 4195.897461, 4178.461426, 4224.102539, 4234.871582, 4220.512695, 4225.127930, 4234.871582, 4223.589844, 4203.589844, 4224.615234, 4230.256348, 4192.820313, 0.000000, 8291.000000, 7924.000000, 0.000000, 0.000000, 0.000000, 16794.000000, 952.307678, 4.000000, 4.000000, 4.000000, 4.000000, 4.000000, 4.000000, 4.000000, 4.000000, 4.000000, 4.000000, 4.000000, 4.000000, 4.000000, 4.000000, 4.000000, 4.000000
55.000000, 0.000000, 4234.358887, 4084.615234, 4191.794922, 4176.410156, 4221.538574, 4234.358887, 4215.384277, 4215.384277, 4238.461426, 4233.333008, 4197.436035, 4224.615234, 4224.615234, 4191.281738, 0.000000, 8291.000000, 7950.000000, 0.000000, 0.000000, 0.000000, 16794.000000, 960.000000, 4.000000, 4.000000, 4.000000, 4.000000, 4.000000, 4.000000, 4.000000, 4.000000, 4.000000, 4.000000, 4.000000, 4.000000, 4.000000, 4.000000, 4.000000, 4.000000
56.000000, 0.000000, 4229.743652, 4071.794678, 4183.589844, 4168.717773, 4226.153809, 4202.563965, 4202.563965, 4206.153809, 4223.076660, 4235.384277, 4188.717773, 4219.487305, 4223.076660, 4188.205078, 0.000000, 8291.000000, 7950.000000, 0.000000, 0.000000, 0.000000, 16794.000000, 967.692261, 4.000000, 4.000000, 4.000000, 4.000000, 4.000000, 4.000000, 4.000000, 4.000000, 4.000000, 4.000000, 4.000000, 4.000000, 4.000000, 4.000000, 4.000000, 4.000000
57.000000, 0.000000, 4226.666504, 4065.640869, 4175.897461, 4165.641113, 4216.922852, 4192.820313, 4194.871582, 4208.717773, 4209.230469, 4220.512695, 4181.538574, 4216.922852, 4218.974121, 4193.846191, 0.000000, 8295.000000, 8013.000000, 0.000000, 0.000000, 0.000000, 16794.000000, 975.897400, 4.000000, 4.000000, 4.000000, 4.000000, 4.000000, 4.000000, 4.000000, 4.000000, 4.000000, 4.000000, 4.000000, 4.000000, 4.000000, 4.000000, 4.000000, 4.000000
58.000000, 0.000000, 4237.436035, 4082.051270, 4182.563965, 4171.794922, 4214.871582, 4210.256348, 4198.974121, 4211.281738, 4207.692383, 4217.948730, 4187.692383, 4214.358887, 4224.102539, 4191.794922, 0.000000, 8295.000000, 8013.000000, 0.000000, 0.000000, 0.000000, 16794.000000, 983.589722, 4.000000, 4.000000, 4.000000, 4.000000, 4.000000, 4.000000, 4.000000, 4.000000, 4.000000, 4.000000, 4.000000, 4.000000, 4.000000, 4.000000, 4.000000, 4.000000
59.000000, 0.000000, 4251.794922, 4097.948730, 4193.333008, 4177.436035, 4221.538574, 4224.102539, 4208.717773, 4217.948730, 4217.436035, 4233.846191, 4203.076660, 4226.666504, 4234.358887, 4198.461426, 0.000000, 8286.000000, 8030.000000, 0.000000, 0.000000, 0.000000, 16794.000000, 991.282043, 4.000000, 4.000000, 4.000000, 4.000000, 4.000000, 4.000000, 4.000000, 4.000000, 4.000000, 4.000000, 4.000000, 4.000000, 4.000000, 4.000000, 4.000000, 4.000000
60.000000, 0.000000, 4250.256348, 4095.384521, 4190.769043, 4173.846191, 4221.025391, 4232.820313, 4215.384277, 4221.538574, 4223.076660, 4234.358887, 4200.512695, 4228.717773, 4227.179199, 4200.512695, 0.000000, 8286.000000, 8030.000000, 0.000000, 0.000000, 0.000000, 16794.000000, 998.974304, 4.000000, 4.000000, 4.000000, 4.000000, 4.000000, 4.000000, 4.000000, 4.000000, 4.000000, 4.000000, 4.000000, 4.000000, 4.000000, 4.000000, 4.000000, 4.000000
61.000000, 0.000000, 4241.025391, 4084.615234, 4179.487305, 4165.127930, 4224.102539, 4228.205078, 4213.846191, 4202.563965, 4210.256348, 4215.897461, 4186.153809, 4220.000000, 4214.871582, 4191.281738, 0.000000, 8272.000000, 8044.000000, 0.000000, 0.000000, 0.000000, 16795.000000, 7.179487, 4.000000, 4.000000, 4.000000, 4.000000, 4.000000, 4.000000, 4.000000, 4.000000, 4.000000, 4.000000, 4.000000, 4.000000, 4.000000, 4.000000, 4.000000, 4.000000
62.000000, 0.000000, 4248.205078, 4091.281982, 4183.076660, 4166.666504, 4229.743652, 4214.871582, 4208.717773, 4186.666504, 4208.717773, 4210.256348, 4190.769043, 4227.179199, 4220.000000, 4197.436035, 0.000000, 8272.000000, 8044.000000, 0.000000, 0.000000, 0.000000, 16795.000000, 14.871795, 4.000000, 4.000000, 4.000000, 4.000000, 4.000000, 4.000000, 4.000000, 4.000000, 4.000000, 4.000000, 4.000000, 4.000000, 4.000000, 4.000000, 4.000000, 4.000000
63.000000, 0.000000, 4260.512695, 4103.076660, 4191.794922, 4174.358887, 4220.512695, 4220.512695, 4204.102539, 4201.025391, 4224.615234, 4220.000000, 4202.563965, 4232.307617, 4223.589844, 4197.948730, 0.000000, 8229.000000, 8073.000000, 0.000000, 0.000000, 0.000000, 16795.000000, 22.564102, 4.000000, 4.000000, 4.000000, 4.000000, 4.000000, 4.000000, 4.000000, 4.000000, 4.000000, 4.000000, 4.000000, 4.000000, 4.000000, 4.000000, 4.000000, 4.000000
64.000000, 0.000000, 4265.127930, 4093.333252, 4188.205078, 4169.230469, 4211.281738, 4222.563965, 4192.820313, 4206.666504, 4210.256348, 4214.871582, 4192.307617, 4231.794922, 4211.794922, 4195.384277, 3301.000000, 8229.000000, 8073.000000, 0.000000, 0.000000, 0.000000, 16795.000000, 30.769230, 4.000000, 4.000000, 4.000000, 4.000000, 4.000000, 4.000000, 4.000000, 4.000000, 4.000000, 4.000000, 4.000000, 4.000000, 4.000000, 4.000000, 4.000000, 4.000000
65.000000, 0.000000, 4274.871582, 4089.743408, 4187.179199, 4165.641113, 4220.512695, 4215.384277, 4188.205078, 4194.358887, 4192.820313, 4206.153809, 4184.102539, 4224.615234, 4210.256348, 4194.358887, 3534.000000, 8207.000000, 8077.000000, 0.000000, 0.000000, 0.000000, 16795.000000, 38.461536, 4.000000, 4.000000, 4.000000, 4.000000, 4.000000, 4.000000, 4.000000, 4.000000, 4.000000, 4.000000, 4.000000, 4.000000, 4.000000, 4.000000, 4.000000, 4.000000
66.000000, 0.000000, 4277.436035, 4105.641113, 4184.615234, 4168.205078, 4225.641113, 4222.563965, 4199.487305, 4197.436035, 4209.743652, 4212.307617, 4188.717773, 4217.948730, 4213.333008, 4190.256348, 2734.000000, 8207.000000, 8077.000000, 0.000000, 0.000000, 0.000000, 16795.000000, 46.153847, 4.000000, 4.000000, 4.000000, 4.000000, 4.000000, 4.000000, 4.000000, 4.000000, 4.000000, 4.000000, 4.000000, 4.000000, 4.000000, 4.000000, 4.000000, 4.000000
67.000000, 0.000000, 4264.102539, 4104.102539, 4171.794922, 4157.436035, 4217.948730, 4223.589844, 4204.615234, 4204.102539, 4214.358887, 4205.127930, 4180.000000, 4217.948730, 4203.589844, 4193.333008, 3560.000000, 8162.000000, 8111.000000, 0.000000, 0.000000, 0.000000, 16795.000000, 54.358974, 4.000000, 4.000000, 4.000000, 4.000000, 4.000000, 4.000000, 4.000000, 4.000000, 4.000000, 4.000000, 4.000000, 4.000000, 4.000000, 4.000000, 4.000000, 4.000000
68.000000, 0.000000, 4257.436035, 4091.794678, 4163.589844, 4148.205078, 4214.358887, 4217.436035, 4204.102539, 4198.461426, 4198.974121, 4194.871582, 4174.358887, 4213.333008, 4202.051270, 4189.743652, 3530.000000, 8162.000000, 8111.000000, 1.000000, 2.000000, 0.000000, 16795.000000, 62.051281, 4.000000, 4.000000, 4.000000, 4.000000, 4.000000, 4.000000, 4.000000, 4.000000, 4.000000, 4.000000, 4.000000, 4.000000, 4.000000, 4.000000, 4.000000, 4.000000
69.000000, 0.000000, 4268.205078, 4102.563965, 4177.436035, 4160.512695, 4225.127930, 4231.794922, 4214.358887, 4201.538574, 4196.922852, 4211.794922, 4186.153809, 4223.076660, 4217.436035, 4193.846191, 3522.000000, 8131.000000, 8125.000000, 0.000000, 0.000000, 0.000000, 16795.000000, 70.256409, 4.000000, 4.000000, 4.000000, 4.000000, 4.000000, 4.000000, 4.000000, 4.000000, 4.000000, 4.000000, 4.000000, 4.000000, 4.000000, 4.000000, 4.000000, 4.000000
70.000000, 0.000000, 4277.948730, 4116.922852, 4188.717773, 4167.692383, 4231.281738, 4230.769043, 4215.384277, 4202.563965, 4204.615234, 4221.538574, 4187.692383, 4227.179199, 4220.512695, 4198.974121, 3469.000000, 8131.000000, 8125.000000, 0.000000, 0.000000, 0.000000, 16795.000000, 77.948715, 4.000000, 4.000000, 4.000000, 4.000000, 4.000000, 4.000000, 4.000000, 4.000000, 4.000000, 4.000000, 4.000000, 4.000000, 4.000000, 4.000000, 4.000000, 4.000000
71.000000, 0.000000, 4274.871582, 4107.179199, 4179.487305, 4157.948730, 4212.820313, 4198.461426, 4200.000000, 4189.743652, 4200.000000, 4202.051270, 4177.436035, 4217.436035, 4209.743652, 4191.281738, 3207.000000, 8095.000000, 8153.000000, 0.000000, 0.000000, 0.000000, 16795.000000, 85.641022, 4.000000, 4.000000, 4.000000, 4.000000, 4.000000, 4.000000, 4.000000, 4.000000, 4.000000, 4.000000, 4.000000, 4.000000, 4.000000, 4.000000, 4.000000, 4.000000
72.000000, 0.000000, 4277.948730, 4102.051270, 4182.563965, 4155.897461, 4202.563965, 4208.717773, 4196.922852, 4188.205078, 4197.436035, 4194.871582, 4179.487305, 4222.563965, 4212.307617, 4197.436035, 3533.000000, 8095.000000, 8153.000000, 0.000000, 0.000000, 0.000000, 16795.000000, 93.333328, 4.000000, 4.000000, 4.000000, 4.000000, 4.000000, 4.000000, 4.000000, 4.000000, 4.000000, 4.000000, 4.000000, 4.000000, 4.000000, 4.000000, 4.000000, 4.000000
73.000000, 0.000000, 4282.051270, 4108.717773, 4188.205078, 4160.512695, 4218.461426, 4243.076660, 4201.025391, 4198.461426, 4208.717773, 4210.769043, 4187.179199, 4224.102539, 4219.487305, 4196.922852, 3524.000000, 8071.000000, 8178.000000, 0.000000, 0.000000, 0.000000, 16795.000000, 101.538460, 4.000000, 4.000000, 4.000000, 4.000000, 4.000000, 4.000000, 4.000000, 4.000000, 4.000000, 4.000000, 4.000000, 4.000000, 4.000000, 4.000000, 4.000000, 4.000000
74.000000, 0.000000, 4282.051270, 4108.717773, 4178.461426, 4154.871582, 4225.641113, 4229.230469, 4193.846191, 4199.487305, 4216.922852, 4209.230469, 4183.076660, 4219.487305, 4215.384277, 4193.846191, 3179.000000, 8071.000000, 8178.000000, 0.000000, 0.000000, 0.000000, 16795.000000, 109.230766, 4.000000, 4.000000, 4.000000, 4.000000, 4.000000, 4.000000, 4.000000, 4.000000, 4.000000, 4.000000, 4.000000, 4.000000, 4.000000, 4.000000, 4.000000, 4.000000
75.000000, 0.000000, 4288.205078, 4111.794922, 4176.410156, 4153.333008, 4221.538574, 4207.179199, 4190.769043, 4198.974121, 4216.922852, 4201.538574, 4183.076660, 4220.000000, 4214.358887, 4201.025391, 1972.000000, 8060.000000, 8201.000000, 0.000000, 0.000000, 0.000000, 16795.000000, 117.435898, 4.000000, 4.000000, 4.000000, 4.000000, 4.000000, 4.000000, 4.000000, 4.000000, 4.000000, 4.000000, 4.000000, 4.000000, 4.000000, 4.000000, 4.000000, 4.000000
76.000000, 0.000000, 4295.897461, 4121.025391, 4183.589844, 4165.641113, 4219.487305, 4218.461426, 4191.281738, 4203.076660, 4216.922852, 4213.846191, 4192.820313, 4225.641113, 4222.563965, 4198.974121, 3477.000000, 8060.000000, 8201.000000, 0.000000, 0.000000, 0.000000, 16795.000000, 125.128204, 4.000000, 4.000000, 4.000000, 4.000000, 4.000000, 4.000000, 4.000000, 4.000000, 4.000000, 4.000000, 4.000000, 4.000000, 4.000000, 4.000000, 4.000000, 4.000000
77.000000, 0.000000, 4298.461426, 4123.076660, 4188.717773, 4173.333008, 4213.846191, 4220.512695, 4187.692383, 4202.563965, 4214.358887, 4220.512695, 4195.897461, 4232.307617, 4224.102539, 4201.538574, 2348.000000, 8033.000000, 8194.000000, 0.000000, 0.000000, 0.000000, 16795.000000, 132.820511, 4.000000, 4.000000, 4.000000, 4.000000, 4.000000, 4.000000, 4.000000, 4.000000, 4.000000, 4.000000, 4.000000, 4.000000, 4.000000, 4.000000, 4.000000, 4.000000
78.000000, 0.000000, 4295.897461, 4122.563965, 4188.717773, 4172.307617, 4209.743652, 4197.948730, 4185.641113, 4200.000000, 4207.692383, 4203.589844, 4189.230469, 4221.025391, 4215.897461, 4199.487305, 3179.000000, 8033.000000, 8194.000000, 0.000000, 0.000000, 0.000000, 16795.000000, 141.025635, 4.000000, 4.000000, 4.000000, 4.000000, 4.000000, 4.000000, 4.000000, 4.000000, 4.000000, 4.000000, 4.000000, 4.000000, 4.000000, 4.000000, 4.000000, 4.000000
79.000000, 0.000000, 4297.948730, 4123.076660, 4187.692383, 4171.794922, 4215.384277, 4192.820313, 4182.051270, 4200.000000, 4210.256348, 4196.922852, 4188.205078, 4216.922852, 4216.922852, 4200.000000, 1972.000000, 8026.000000, 8220.000000, 0.000000, 0.000000, 0.000000, 16795.000000, 148.717941, 4.000000, 4.000000, 4.000000, 4.000000, 4.000000, 4.000000, 4.000000, 4.000000, 4.000000, 4.000000, 4.000000, 4.000000, 4.000000, 4.000000, 4.000000, 4.000000
80.000000, 0.000000, 4299.487305, 4126.153809, 4187.692383, 4174.871582, 4224.102539, 4211.281738, 4175.897461, 4206.153809, 4223.589844, 4216.410156, 4192.307617, 4219.487305, 4225.641113, 4204.615234, 3477.000000, 8026.000000, 8220.000000, 0.000000, 0.000000, 0.000000, 16795.000000, 156.410248, 4.000000, 4.000000, 4.000000, 4.000000, 4.000000, 4.000000, 4.000000, 4.000000, 4.000000, 4.000000, 4.000000, 4.000000, 4.000000, 4.000000, 4.000000, 4.000000
81.000000, 0.000000, 4295.384277, 4136.922852, 4183.589844, 4177.436035, 4227.179199, 4224.102539, 4181.025391, 4211.281738, 4221.538574, 4225.127930, 4190.256348, 4213.333008, 4222.051270, 4197.436035, 2348.000000, 8009.000000, 8314.000000, 0.000000, 0.000000, 0.000000, 16795.000000, 164.615387, 4.000000, 4.000000, 4.000000, 4.000000, 4.000000, 4.000000, 4.000000, 4.000000, 4.000000, 4.000000, 4.000000, 4.000000, 4.000000, 4.000000, 4.000000, 4.000000
82.000000, 0.000000, 4290.769043, 4143.589844, 4178.461426, 4172.820313, 4223.589844, 4213.846191, 4189.230469, 4198.461426, 4205.127930, 4212.307617, 4185.641113, 4217.436035, 4211.281738, 4197.948730, 3179.000000, 8009.000000, 8314.000000, 0.000000, 0.000000, 0.000000, 16795.000000, 172.307693, 4.000000, 4.000000, 4.000000, 4.000000, 4.000000, 4.000000, 4.000000, 4.000000, 4.000000, 4.000000, 4.000000, 4.000000, 4.000000, 4.000000, 4.000000, 4.000000
83.000000, 0.000000, 4286.666504, 4134.871582, 4174.871582, 4163.076660, 4216.410156, 4203.076660, 4180.000000, 4184.615234, 4202.051270, 4208.205078, 4182.051270, 4214.358887, 4206.666504, 4196.410156, 1972.000000, 8016.000000, 8348.000000, 0.000000, 0.000000, 0.000000, 16795.000000, 180.000000, 4.000000, 4.000000, 4.000000, 4.000000, 4.000000, 4.000000, 4.000000, 4.000000, 4.000000, 4.000000, 4.000000, 4.000000, 4.000000, 4.000000, 4.000000, 4.000000
84.000000, 0.000000, 4285.127930, 4122.563965, 4176.922852, 4154.358887, 4211.794922, 4198.461426, 4167.692383, 4184.102539, 4206.666504, 4205.127930, 4173.846191, 4212.820313, 4202.051270, 4193.333008, 3477.000000, 8016.000000, 8348.000000, 0.000000, 0.000000, 0.000000, 16795.000000, 187.692307, 4.000000, 4.000000, 4.000000, 4.000000, 4.000000, 4.000000, 4.000000, 4.000000, 4.000000, 4.000000, 4.000000, 4.000000, 4.000000, 4.000000, 4.000000, 4.000000
85.000000, 0.000000, 4284.615234, 4121.025391, 4183.589844, 4155.897461, 4214.358887, 4186.153809, 4173.333008, 4176.922852, 4194.358887, 4190.769043, 4170.256348, 4220.000000, 4201.025391, 4201.538574, 2348.000000, 8031.000000, 8378.000000, 0.000000, 0.000000, 0.000000, 16795.000000, 195.897430, 4.000000, 4.000000, 4.000000, 4.000000, 4.000000, 4.000000, 4.000000, 4.000000, 4.000000, 4.000000, 4.000000, 4.000000, 4.000000, 4.000000, 4.000000, 4.000000
86.000000, 0.000000, 4287.179199, 4131.281738, 4189.743652, 4166.153809, 4216.410156, 4189.743652, 4178.461426, 4168.717773, 4182.563965, 4190.769043, 4178.974121, 4220.512695, 4209.743652, 4202.563965, 3179.000000, 8031.000000, 8378.000000, 0.000000, 0.000000, 0.000000, 16795.000000, 203.589737, 4.000000, 4.000000, 4.000000, 4.000000, 4.000000, 4.000000, 4.000000, 4.000000, 4.000000, 4.000000, 4.000000, 4.000000, 4.000000, 4.000000, 4.000000, 4.000000
87.000000, 0.000000, 4289.743652, 4133.333008, 4191.281738, 4168.717773, 4215.897461, 4201.538574, 4168.205078, 4176.410156, 4185.127930, 4194.358887, 4184.102539, 4224.615234, 4211.281738, 4203.076660, 1972.000000, 8074.000000, 8408.000000, 0.000000, 0.000000, 0.000000, 16795.000000, 211.794861, 4.000000, 4.000000, 4.000000, 4.000000, 4.000000, 4.000000, 4.000000, 4.000000, 4.000000, 4.000000, 4.000000, 4.000000, 4.000000, 4.000000, 4.000000, 4.000000
88.000000, 0.000000, 4286.153809, 4124.615234, 4187.692383, 4162.563965, 4213.846191, 4191.281738, 4168.717773, 4183.076660, 4185.127930, 4184.615234, 4178.461426, 4221.538574, 4206.666504, 4197.436035, 3477.000000, 8074.000000, 8408.000000, 0.000000, 0.000000, 0.000000, 16795.000000, 219.487167, 4.000000, 4.000000, 4.000000, 4.000000, 4.000000, 4.000000, 4.000000, 4.000000, 4.000000, 4.000000, 4.000000, 4.000000, 4.000000, 4.000000, 4.000000, 4.000000
89.000000, 0.000000, 4291.794922, 4135.897461, 4193.333008, 4168.205078, 4213.333008, 4195.384277, 4183.076660, 4191.281738, 4193.333008, 4195.897461, 4180.512695, 4227.692383, 4212.307617, 4197.436035, 2348.000000, 8113.000000, 8434.000000, 0.000000, 0.000000, 0.000000, 16795.000000, 227.692307, 4.000000, 4.000000, 4.000000, 4.000000, 4.000000, 4.000000, 4.000000, 4.000000, 4.000000, 4.000000, 4.000000, 4.000000, 4.000000, 4.000000, 4.000000, 4.000000
90.000000, 0.000000, 4305.127930, 4156.410156, 4208.205078, 4181.025391, 4216.922852, 4224.102539, 4187.692383, 4211.794922, 4216.410156, 4213.333008, 4196.922852, 4246.666504, 4222.051270, 4211.794922, 3179.000000, 8113.000000, 8434.000000, 0.000000, 0.000000, 0.000000, 16795.000000, 235.384613, 4.000000, 4.000000, 4.000000, 4.000000, 4.000000, 4.000000, 4.000000, 4.000000, 4.000000, 4.000000, 4.000000, 4.000000, 4.000000, 4.000000, 4.000000, 4.000000
91.000000, 0.000000, 4304.615234, 4148.205078, 4209.743652, 4179.487305, 4222.563965, 4222.051270, 4179.487305, 4218.461426, 4226.666504, 4200.000000, 4203.076660, 4247.179199, 4217.948730, 4205.641113, 1972.000000, 8189.000000, 8454.000000, 0.000000, 0.000000, 0.000000, 16795.000000, 243.076920, 4.000000, 4.000000, 4.000000, 4.000000, 4.000000, 4.000000, 4.000000, 4.000000, 4.000000, 4.000000, 4.000000, 4.000000, 4.000000, 4.000000, 4.000000, 4.000000
92.000000, 0.000000, 4293.846191, 4132.307617, 4204.102539, 4169.743652, 4216.410156, 4195.384277, 4172.820313, 4207.692383, 4212.307617, 4188.717773, 4190.769043, 4242.051270, 4207.179199, 4197.948730, 3477.000000, 8189.000000, 8454.000000, 0.000000, 0.000000, 0.000000, 16795.000000, 251.282043, 4.000000, 4.000000, 4.000000, 4.000000, 4.000000, 4.000000, 4.000000, 4.000000, 4.000000, 4.000000, 4.000000, 4.000000, 4.000000, 4.000000, 4.000000, 4.000000
93.000000, 0.000000, 4284.102539, 4136.922852, 4204.615234, 4168.717773, 4201.538574, 4198.461426, 4169.230469, 4197.948730, 4200.512695, 4202.563965, 4174.871582, 4230.256348, 4197.948730, 4195.384277, 2348.000000, 8220.000000, 8456.000000, 0.000000, 0.000000, 0.000000, 16795.000000, 259.487183, 4.000000, 4.000000, 4.000000, 4.000000, 4.000000, 4.000000, 4.000000, 4.000000, 4.000000, 4.000000, 4.000000, 4.000000, 4.000000, 4.000000, 4.000000, 4.000000
94.000000, 0.000000, 4280.512695, 4141.538574, 4202.563965, 4170.769043, 4201.025391, 4210.256348, 4167.692383, 4190.769043, 4195.384277, 4198.461426, 4167.692383, 4222.563965, 4188.717773, 4193.333008, 3179.000000, 8220.000000, 8456.000000, 0.000000, 0.000000, 0.000000, 16795.000000, 267.179474, 4.000000, 4.000000, 4.000000, 4.000000, 4.000000, 4.000000, 4.000000, 4.000000, 4.000000, 4.000000, 4.000000, 4.000000, 4.000000, 4.000000, 4.000000, 4.000000
95.000000, 0.000000, 4280.512695, 4137.948730, 4196.410156, 4169.230469, 4206.666504, 4204.102539, 4170.769043, 4182.051270, 4184.102539, 4176.922852, 4167.692383, 4226.666504, 4186.666504, 4198.974121, 1972.000000, 8244.000000, 8461.000000, 0.000000, 0.000000, 0.000000, 16795.000000, 274.871796, 4.000000, 4.000000, 4.000000, 4.000000, 4.000000, 4.000000, 4.000000, 4.000000, 4.000000, 4.000000, 4.000000, 4.000000, 4.000000, 4.000000, 4.000000, 4.000000
96.000000, 0.000000, 4274.871582, 4138.461426, 4192.307617, 4169.743652, 4201.538574, 4212.820313, 4178.974121, 4184.102539, 4183.076660, 4178.974121, 4170.769043, 4220.512695, 4190.256348, 4193.846191, 3477.000000, 8244.000000, 8461.000000, 0.000000, 0.000000, 0.000000, 16795.000000, 283.076904, 4.000000, 4.000000, 4.000000, 4.000000, 4.000000, 4.000000, 4.000000, 4.000000, 4.000000, 4.000000, 4.000000, 4.000000, 4.000000, 4.000000, 4.000000, 4.000000
97.000000, 0.000000, 4269.230469, 4137.948730, 4190.256348, 4166.666504, 4198.461426, 4223.076660, 4185.127930, 4186.666504, 4187.692383, 4187.692383, 4166.666504, 4216.922852, 4187.179199, 4193.846191, 2348.000000, 8275.000000, 8465.000000, 0.000000, 0.000000, 0.000000, 16795.000000, 290.769226, 4.000000, 4.000000, 4.000000, 4.000000, 4.000000, 4.000000, 4.000000, 4.000000, 4.000000, 4.000000, 4.000000, 4.000000, 4.000000, 4.000000, 4.000000, 4.000000
98.000000, 0.000000, 4266.153809, 4135.384277, 4186.153809, 4160.000000, 4198.974121, 4205.641113, 4182.051270, 4184.615234, 4184.615234, 4182.563965, 4160.000000, 4212.820313, 4184.102539, 4197.436035, 3179.000000, 8275.000000, 8465.000000, 0.000000, 0.000000, 0.000000, 16795.000000, 298.974365, 4.000000, 4.000000, 4.000000, 4.000000, 4.000000, 4.000000, 4.000000, 4.000000, 4.000000, 4.000000, 4.000000, 4.000000, 4.000000, 4.000000, 4.000000, 4.000000
99.000000, 0.000000, 4269.743652, 4143.076660, 4191.794922, 4165.641113, 4190.256348, 4205.127930, 4183.589844, 4192.820313, 4190.256348, 4185.641113, 4171.794922, 4211.281738, 4192.307617, 4200.000000, 1972.000000, 8273.000000, 8452.000000, 0.000000, 0.000000, 0.000000, 16795.000000, 306.666656, 4.000000, 4.000000, 4.000000, 4.000000, 4.000000, 4.000000, 4.000000, 4.000000, 4.000000, 4.000000, 4.000000, 4.000000, 4.000000, 4.000000, 4.000000, 4.000000
100.000000, 0.000000, 4274.358887, 4154.871582, 4203.589844, 4174.871582, 4178.461426, 4230.256348, 4185.127930, 4196.922852, 4202.563965, 4194.871582, 4183.589844, 4221.538574, 4196.410156, 4207.179199, 3477.000000, 8273.000000, 8452.000000, 0.000000, 0.000000, 0.000000, 16795.000000, 314.358978, 4.000000, 4.000000, 4.000000, 4.000000, 4.000000, 4.000000, 4.000000, 4.000000, 4.000000, 4.000000, 4.000000, 4.000000, 4.000000, 4.000000, 4.000000, 4.000000
101.000000, 0.000000, 4270.256348, 4157.948730, 4196.410156, 4170.769043, 4188.205078, 4229.743652, 4173.846191, 4197.948730, 4206.666504, 4193.333008, 4175.384277, 4218.461426, 4187.692383, 4198.461426, 2348.000000, 8255.000000, 8435.000000, 0.000000, 0.000000, 0.000000, 16795.000000, 322.564087, 4.000000, 4.000000, 4.000000, 4.000000, 4.000000, 4.000000, 4.000000, 4.000000, 4.000000, 4.000000, 4.000000, 4.000000, 4.000000, 4.000000, 4.000000, 4.000000
