title:winkLeft10, recorded:16.05.18 20.24.00, timestamp started:2018-05-12T20:28:52.032863+02:00            , sampling:128, subject:Noé, labels:COUNTER INTERPOLATED AF3 F7 F3 FC5 T7 P7 O1 O2 P8 T8 FC6 F4 F8 AF4 RAW_CQ GYROX GYROY MARKER MARKER_HARDWARE SYNC TIME_STAMP_s TIME_STAMP_ms CQ_AF3 CQ_F7 CQ_F3 CQ_FC5 CQ_T7 CQ_P7 CQ_O1 CQ_O2 CQ_P8 CQ_T8 CQ_FC6 CQ_F4 CQ_F8 CQ_AF4 CQ_CMS CQ_DRL, chan:40, samples:7163, units:emotiv
118.000000, 0.000000, 4214.871582, 4081.538330, 4168.205078, 4149.743652, 4133.846191, 4200.512695, 4212.307617, 4216.410156, 4250.256348, 4189.743652, 4252.820313, 4205.641113, 4220.000000, 4201.538574, 3132.000000, 7728.000000, 8092.000000, 0.000000, 0.000000, 0.000000, 17628.000000, 663.076904, 4.000000, 4.000000, 4.000000, 4.000000, 4.000000, 4.000000, 4.000000, 4.000000, 4.000000, 4.000000, 4.000000, 4.000000, 4.000000, 4.000000, 4.000000, 4.000000
119.000000, 0.000000, 4209.230469, 4075.384521, 4155.897461, 4138.461426, 4123.076660, 4194.358887, 4214.358887, 4207.692383, 4234.871582, 4175.384277, 4245.127930, 4195.897461, 4209.743652, 4192.820313, 1669.000000, 7752.000000, 8097.000000, 0.000000, 0.000000, 0.000000, 17628.000000, 671.282043, 4.000000, 4.000000, 4.000000, 4.000000, 4.000000, 4.000000, 4.000000, 4.000000, 4.000000, 4.000000, 4.000000, 4.000000, 4.000000, 4.000000, 4.000000, 4.000000
120.000000, 0.000000, 4206.153809, 4071.281982, 4149.743652, 4134.871582, 4113.333008, 4193.333008, 4216.922852, 4206.666504, 4221.025391, 4181.025391, 4237.948730, 4193.333008, 4205.127930, 4197.436035, 3482.000000, 7752.000000, 8097.000000, 0.000000, 0.000000, 0.000000, 17628.000000, 678.974365, 4.000000, 4.000000, 4.000000, 4.000000, 4.000000, 4.000000, 4.000000, 4.000000, 4.000000, 4.000000, 4.000000, 4.000000, 4.000000, 4.000000, 4.000000, 4.000000
121.000000, 0.000000, 4207.179199, 4078.461426, 4151.794922, 4140.000000, 4114.358887, 4191.281738, 4214.871582, 4214.871582, 4228.205078, 4179.487305, 4232.820313, 4190.769043, 4209.743652, 4200.000000, 2498.000000, 7778.000000, 8098.000000, 0.000000, 0.000000, 0.000000, 17628.000000, 687.179443, 4.000000, 4.000000, 4.000000, 4.000000, 4.000000, 4.000000, 4.000000, 4.000000, 4.000000, 4.000000, 4.000000, 4.000000, 4.000000, 4.000000, 4.000000, 4.000000
122.000000, 0.000000, 4210.769043, 4087.179443, 4152.820313, 4144.615234, 4113.846191, 4183.589844, 4200.000000, 4217.436035, 4231.281738, 4168.205078, 4233.333008, 4196.410156, 4210.256348, 4201.025391, 3132.000000, 7778.000000, 8098.000000, 0.000000, 0.000000, 0.000000, 17628.000000, 694.871765, 4.000000, 4.000000, 4.000000, 4.000000, 4.000000, 4.000000, 4.000000, 4.000000, 4.000000, 4.000000, 4.000000, 4.000000, 4.000000, 4.000000, 4.000000, 4.000000
123.000000, 0.000000, 4217.436035, 4094.358887, 4155.897461, 4150.769043, 4122.563965, 4184.102539, 4193.333008, 4211.794922, 4218.974121, 4168.717773, 4235.897461, 4203.589844, 4210.256348, 4205.127930, 1669.000000, 7841.000000, 8101.000000, 0.000000, 0.000000, 0.000000, 17628.000000, 702.564087, 4.000000, 4.000000, 4.000000, 4.000000, 4.000000, 4.000000, 4.000000, 4.000000, 4.000000, 4.000000, 4.000000, 4.000000, 4.000000, 4.000000, 4.000000, 4.000000
124.000000, 0.000000, 4217.948730, 4094.358887, 4160.512695, 4153.333008, 4125.127930, 4189.230469, 4204.102539, 4211.794922, 4210.769043, 4165.641113, 4234.358887, 4201.025391, 4209.230469, 4196.922852, 3482.000000, 7841.000000, 8101.000000, 0.000000, 0.000000, 0.000000, 17628.000000, 710.769226, 4.000000, 4.000000, 4.000000, 4.000000, 4.000000, 4.000000, 4.000000, 4.000000, 4.000000, 4.000000, 4.000000, 4.000000, 4.000000, 4.000000, 4.000000, 4.000000
125.000000, 0.000000, 4210.769043, 4092.820313, 4156.922852, 4149.743652, 4110.256348, 4184.102539, 4210.256348, 4215.897461, 4213.846191, 4154.871582, 4224.615234, 4201.025391, 4205.127930, 4202.563965, 2498.000000, 7873.000000, 8106.000000, 0.000000, 0.000000, 0.000000, 17628.000000, 718.461548, 4.000000, 4.000000, 4.000000, 4.000000, 4.000000, 4.000000, 4.000000, 4.000000, 4.000000, 4.000000, 4.000000, 4.000000, 4.000000, 4.000000, 4.000000, 4.000000
126.000000, 0.000000, 4208.717773, 4103.076660, 4156.410156, 4151.794922, 4112.820313, 4179.487305, 4211.281738, 4215.897461, 4216.922852, 4151.794922, 4217.948730, 4196.410156, 4199.487305, 4201.025391, 3132.000000, 7873.000000, 8106.000000, 0.000000, 0.000000, 0.000000, 17628.000000, 726.153809, 4.000000, 4.000000, 4.000000, 4.000000, 4.000000, 4.000000, 4.000000, 4.000000, 4.000000, 4.000000, 4.000000, 4.000000, 4.000000, 4.000000, 4.000000, 4.000000
127.000000, 0.000000, 4213.846191, 4112.820313, 4164.102539, 4155.897461, 4136.410156, 4189.743652, 4219.487305, 4217.948730, 4214.871582, 4157.948730, 4223.589844, 4200.000000, 4202.563965, 4195.897461, 55.000000, 7937.000000, 8110.000000, 0.000000, 0.000000, 0.000000, 17628.000000, 734.358948, 4.000000, 4.000000, 4.000000, 4.000000, 4.000000, 4.000000, 4.000000, 4.000000, 4.000000, 4.000000, 4.000000, 4.000000, 4.000000, 4.000000, 4.000000, 4.000000
0.000000, 0.000000, 4215.897461, 4110.256348, 4169.743652, 4157.948730, 4141.025391, 4203.076660, 4220.000000, 4216.410156, 4216.410156, 4170.256348, 4229.743652, 4204.615234, 4214.358887, 4204.615234, 3499.000000, 7937.000000, 8110.000000, 0.000000, 0.000000, 0.000000, 17628.000000, 742.051270, 4.000000, 4.000000, 4.000000, 4.000000, 4.000000, 4.000000, 4.000000, 4.000000, 4.000000, 4.000000, 4.000000, 4.000000, 4.000000, 4.000000, 4.000000, 4.000000
1.000000, 0.000000, 4211.794922, 4113.333008, 4167.692383, 4159.487305, 4129.743652, 4205.127930, 4214.871582, 4202.563965, 4221.538574, 4171.794922, 4226.153809, 4194.358887, 4214.871582, 4198.974121, 3529.000000, 7969.000000, 8101.000000, 0.000000, 0.000000, 0.000000, 17628.000000, 750.256409, 4.000000, 4.000000, 4.000000, 4.000000, 4.000000, 4.000000, 4.000000, 4.000000, 4.000000, 4.000000, 4.000000, 4.000000, 4.000000, 4.000000, 4.000000, 4.000000
2.000000, 0.000000, 4209.230469, 4122.563965, 4167.179199, 4158.974121, 4135.384277, 4200.000000, 4209.743652, 4188.717773, 4216.410156, 4155.384277, 4221.538574, 4194.871582, 4206.666504, 4200.512695, 2745.000000, 7969.000000, 8101.000000, 0.000000, 0.000000, 0.000000, 17628.000000, 757.948669, 4.000000, 4.000000, 4.000000, 4.000000, 4.000000, 4.000000, 4.000000, 4.000000, 4.000000, 4.000000, 4.000000, 4.000000, 4.000000, 4.000000, 4.000000, 4.000000
3.000000, 0.000000, 4209.743652, 4123.076660, 4168.717773, 4160.512695, 4141.538574, 4195.897461, 4204.102539, 4190.256348, 4205.127930, 4150.769043, 4221.538574, 4195.384277, 4205.641113, 4202.051270, 3563.000000, 8021.000000, 8097.000000, 0.000000, 0.000000, 0.000000, 17628.000000, 766.153809, 4.000000, 4.000000, 4.000000, 4.000000, 4.000000, 4.000000, 4.000000, 4.000000, 4.000000, 4.000000, 4.000000, 4.000000, 4.000000, 4.000000, 4.000000, 4.000000
4.000000, 0.000000, 4209.743652, 4125.641113, 4170.256348, 4165.127930, 4131.281738, 4195.384277, 4206.666504, 4194.871582, 4203.076660, 4161.538574, 4223.076660, 4197.436035, 4212.307617, 4198.461426, 3546.000000, 8021.000000, 8097.000000, 0.000000, 0.000000, 0.000000, 17628.000000, 773.846130, 4.000000, 4.000000, 4.000000, 4.000000, 4.000000, 4.000000, 4.000000, 4.000000, 4.000000, 4.000000, 4.000000, 4.000000, 4.000000, 4.000000, 4.000000, 4.000000
5.000000, 0.000000, 4215.384277, 4137.436035, 4178.974121, 4171.794922, 4134.358887, 4198.461426, 4214.871582, 4201.025391, 4212.307617, 4163.076660, 4231.281738, 4205.127930, 4218.974121, 4206.153809, 3528.000000, 8035.000000, 8105.000000, 0.000000, 0.000000, 0.000000, 17628.000000, 782.051270, 4.000000, 4.000000, 4.000000, 4.000000, 4.000000, 4.000000, 4.000000, 4.000000, 4.000000, 4.000000, 4.000000, 4.000000, 4.000000, 4.000000, 4.000000, 4.000000
6.000000, 0.000000, 4225.641113, 4150.769043, 4189.230469, 4183.589844, 4153.846191, 4205.641113, 4219.487305, 4214.358887, 4223.589844, 4173.846191, 4240.512695, 4208.205078, 4223.076660, 4202.563965, 3446.000000, 8035.000000, 8105.000000, 0.000000, 0.000000, 0.000000, 17628.000000, 789.743591, 4.000000, 4.000000, 4.000000, 4.000000, 4.000000, 4.000000, 4.000000, 4.000000, 4.000000, 4.000000, 4.000000, 4.000000, 4.000000, 4.000000, 4.000000, 4.000000
7.000000, 0.000000, 4222.563965, 4153.846191, 4191.281738, 4186.666504, 4147.692383, 4206.153809, 4218.974121, 4218.974121, 4226.666504, 4188.717773, 4240.000000, 4212.820313, 4223.589844, 4202.563965, 3195.000000, 8039.000000, 8102.000000, 0.000000, 0.000000, 0.000000, 17628.000000, 797.948669, 4.000000, 4.000000, 4.000000, 4.000000, 4.000000, 4.000000, 4.000000, 4.000000, 4.000000, 4.000000, 4.000000, 4.000000, 4.000000, 4.000000, 4.000000, 4.000000
8.000000, 0.000000, 4209.743652, 4145.127930, 4179.487305, 4174.358887, 4125.127930, 4199.487305, 4220.512695, 4214.871582, 4219.487305, 4172.820313, 4231.281738, 4204.615234, 4214.358887, 4197.948730, 3535.000000, 8039.000000, 8102.000000, 0.000000, 0.000000, 0.000000, 17628.000000, 805.640991, 4.000000, 4.000000, 4.000000, 4.000000, 4.000000, 4.000000, 4.000000, 4.000000, 4.000000, 4.000000, 4.000000, 4.000000, 4.000000, 4.000000, 4.000000, 4.000000
9.000000, 0.000000, 4204.615234, 4142.051270, 4167.179199, 4169.743652, 4137.436035, 4197.948730, 4220.000000, 4217.436035, 4212.820313, 4154.871582, 4222.563965, 4200.000000, 4207.179199, 4194.358887, 3570.000000, 8036.000000, 8099.000000, 0.000000, 0.000000, 0.000000, 17628.000000, 813.846130, 4.000000, 4.000000, 4.000000, 4.000000, 4.000000, 4.000000, 4.000000, 4.000000, 4.000000, 4.000000, 4.000000, 4.000000, 4.000000, 4.000000, 4.000000, 4.000000
10.000000, 0.000000, 4206.153809, 4155.897461, 4173.333008, 4182.563965, 4164.615234, 4204.102539, 4214.358887, 4218.974121, 4215.897461, 4165.641113, 4227.179199, 4208.205078, 4214.358887, 4204.615234, 3139.000000, 8036.000000, 8099.000000, 0.000000, 0.000000, 0.000000, 17628.000000, 821.538452, 4.000000, 4.000000, 4.000000, 4.000000, 4.000000, 4.000000, 4.000000, 4.000000, 4.000000, 4.000000, 4.000000, 4.000000, 4.000000, 4.000000, 4.000000, 4.000000
11.000000, 0.000000, 4212.307617, 4171.794922, 4188.717773, 4194.358887, 4163.076660, 4209.743652, 4215.897461, 4217.948730, 4222.051270, 4179.487305, 4242.563965, 4211.281738, 4224.102539, 4202.563965, 1690.000000, 8036.000000, 8098.000000, 0.000000, 0.000000, 0.000000, 17628.000000, 829.743591, 4.000000, 4.000000, 4.000000, 4.000000, 4.000000, 4.000000, 4.000000, 4.000000, 4.000000, 4.000000, 4.000000, 4.000000, 4.000000, 4.000000, 4.000000, 4.000000
12.000000, 0.000000, 4220.512695, 4177.948730, 4190.769043, 4198.461426, 4150.769043, 4200.000000, 4214.358887, 4217.948730, 4214.871582, 4172.820313, 4244.102539, 4216.922852, 4222.563965, 4206.666504, 3485.000000, 8036.000000, 8098.000000, 0.000000, 0.000000, 0.000000, 17628.000000, 837.435852, 4.000000, 4.000000, 4.000000, 4.000000, 4.000000, 4.000000, 4.000000, 4.000000, 4.000000, 4.000000, 4.000000, 4.000000, 4.000000, 4.000000, 4.000000, 4.000000
13.000000, 0.000000, 4220.512695, 4182.051270, 4186.153809, 4200.512695, 4150.769043, 4187.692383, 4202.051270, 4208.717773, 4202.051270, 4161.025391, 4232.820313, 4213.333008, 4218.974121, 4206.666504, 2501.000000, 8017.000000, 8100.000000, 0.000000, 0.000000, 0.000000, 17628.000000, 845.640991, 4.000000, 4.000000, 4.000000, 4.000000, 4.000000, 4.000000, 4.000000, 4.000000, 4.000000, 4.000000, 4.000000, 4.000000, 4.000000, 4.000000, 4.000000, 4.000000
14.000000, 0.000000, 4222.051270, 4185.641113, 4194.871582, 4201.025391, 4155.384277, 4192.820313, 4197.436035, 4202.051270, 4198.974121, 4160.000000, 4236.410156, 4212.307617, 4222.563965, 4202.563965, 3139.000000, 8017.000000, 8100.000000, 0.000000, 0.000000, 0.000000, 17628.000000, 853.333313, 4.000000, 4.000000, 4.000000, 4.000000, 4.000000, 4.000000, 4.000000, 4.000000, 4.000000, 4.000000, 4.000000, 4.000000, 4.000000, 4.000000, 4.000000, 4.000000
15.000000, 0.000000, 4223.589844, 4188.205078, 4200.000000, 4202.563965, 4152.820313, 4200.512695, 4205.127930, 4212.307617, 4204.102539, 4166.153809, 4246.153809, 4218.461426, 4223.076660, 4209.230469, 1690.000000, 8007.000000, 8097.000000, 0.000000, 0.000000, 0.000000, 17628.000000, 861.025635, 4.000000, 4.000000, 4.000000, 4.000000, 4.000000, 4.000000, 4.000000, 4.000000, 4.000000, 4.000000, 4.000000, 4.000000, 4.000000, 4.000000, 4.000000, 4.000000
16.000000, 0.000000, 4214.358887, 4188.717773, 4193.333008, 4203.076660, 4134.871582, 4193.333008, 4203.589844, 4216.922852, 4206.666504, 4165.127930, 4237.436035, 4213.846191, 4213.846191, 4197.948730, 0.000000, 8007.000000, 8097.000000, 0.000000, 0.000000, 0.000000, 17628.000000, 869.230774, 4.000000, 4.000000, 4.000000, 4.000000, 4.000000, 4.000000, 4.000000, 4.000000, 4.000000, 4.000000, 4.000000, 4.000000, 4.000000, 4.000000, 4.000000, 4.000000
17.000000, 0.000000, 4211.281738, 4182.563965, 4192.307617, 4199.487305, 4125.641113, 4183.076660, 4195.897461, 4204.102539, 4197.948730, 4146.153809, 4226.666504, 4215.897461, 4210.769043, 4200.512695, 0.000000, 7996.000000, 8094.000000, 0.000000, 0.000000, 0.000000, 17628.000000, 876.923035, 4.000000, 4.000000, 4.000000, 4.000000, 4.000000, 4.000000, 4.000000, 4.000000, 4.000000, 4.000000, 4.000000, 4.000000, 4.000000, 4.000000, 4.000000, 4.000000
18.000000, 0.000000, 4217.436035, 4184.615234, 4198.461426, 4198.461426, 4143.076660, 4186.153809, 4198.974121, 4196.922852, 4187.179199, 4140.000000, 4229.743652, 4217.436035, 4217.948730, 4209.230469, 0.000000, 7996.000000, 8094.000000, 0.000000, 0.000000, 0.000000, 17628.000000, 884.615356, 4.000000, 4.000000, 4.000000, 4.000000, 4.000000, 4.000000, 4.000000, 4.000000, 4.000000, 4.000000, 4.000000, 4.000000, 4.000000, 4.000000, 4.000000, 4.000000
19.000000, 0.000000, 4219.487305, 4196.922852, 4202.051270, 4201.538574, 4158.461426, 4192.307617, 4205.127930, 4206.153809, 4191.281738, 4160.512695, 4237.948730, 4221.025391, 4222.563965, 4202.051270, 0.000000, 7993.000000, 8085.000000, 0.000000, 0.000000, 0.000000, 17628.000000, 892.307678, 4.000000, 4.000000, 4.000000, 4.000000, 4.000000, 4.000000, 4.000000, 4.000000, 4.000000, 4.000000, 4.000000, 4.000000, 4.000000, 4.000000, 4.000000, 4.000000
20.000000, 0.000000, 4217.436035, 4203.076660, 4201.538574, 4202.563965, 4149.743652, 4189.743652, 4204.615234, 4218.461426, 4205.127930, 4170.256348, 4244.615234, 4230.256348, 4221.025391, 4203.589844, 0.000000, 7993.000000, 8085.000000, 0.000000, 0.000000, 0.000000, 17628.000000, 900.512817, 4.000000, 4.000000, 4.000000, 4.000000, 4.000000, 4.000000, 4.000000, 4.000000, 4.000000, 4.000000, 4.000000, 4.000000, 4.000000, 4.000000, 4.000000, 4.000000
21.000000, 0.000000, 4220.000000, 4201.025391, 4202.563965, 4201.538574, 4142.563965, 4186.153809, 4203.589844, 4212.307617, 4205.641113, 4157.436035, 4240.512695, 4223.076660, 4216.922852, 4202.051270, 0.000000, 7991.000000, 8087.000000, 0.000000, 0.000000, 0.000000, 17628.000000, 908.717957, 4.000000, 4.000000, 4.000000, 4.000000, 4.000000, 4.000000, 4.000000, 4.000000, 4.000000, 4.000000, 4.000000, 4.000000, 4.000000, 4.000000, 4.000000, 4.000000
22.000000, 0.000000, 4220.000000, 4197.948730, 4200.512695, 4200.000000, 4147.179199, 4192.307617, 4211.281738, 4203.589844, 4193.846191, 4153.846191, 4230.256348, 4220.000000, 4215.384277, 4207.179199, 0.000000, 7991.000000, 8087.000000, 0.000000, 0.000000, 0.000000, 17628.000000, 916.410217, 4.000000, 4.000000, 4.000000, 4.000000, 4.000000, 4.000000, 4.000000, 4.000000, 4.000000, 4.000000, 4.000000, 4.000000, 4.000000, 4.000000, 4.000000, 4.000000
23.000000, 0.000000, 4208.717773, 4198.461426, 4198.461426, 4202.051270, 4154.871582, 4204.102539, 4216.922852, 4209.743652, 4198.461426, 4170.769043, 4237.436035, 4218.461426, 4220.000000, 4200.512695, 0.000000, 8004.000000, 8056.000000, 0.000000, 0.000000, 0.000000, 17628.000000, 924.102539, 4.000000, 4.000000, 4.000000, 4.000000, 4.000000, 4.000000, 4.000000, 4.000000, 4.000000, 4.000000, 4.000000, 4.000000, 4.000000, 4.000000, 4.000000, 4.000000
24.000000, 0.000000, 4215.897461, 4205.127930, 4203.076660, 4210.769043, 4163.076660, 4204.615234, 4209.230469, 4212.820313, 4213.333008, 4177.436035, 4248.717773, 4221.025391, 4223.076660, 4193.333008, 0.000000, 8004.000000, 8056.000000, 0.000000, 0.000000, 0.000000, 17628.000000, 931.794861, 4.000000, 4.000000, 4.000000, 4.000000, 4.000000, 4.000000, 4.000000, 4.000000, 4.000000, 4.000000, 4.000000, 4.000000, 4.000000, 4.000000, 4.000000, 4.000000
25.000000, 0.000000, 4222.051270, 4204.102539, 4202.563965, 4210.256348, 4160.512695, 4189.230469, 4200.512695, 4200.000000, 4207.179199, 4165.641113, 4236.410156, 4225.641113, 4216.922852, 4206.666504, 0.000000, 8018.000000, 8045.000000, 0.000000, 0.000000, 0.000000, 17628.000000, 940.000000, 4.000000, 4.000000, 4.000000, 4.000000, 4.000000, 4.000000, 4.000000, 4.000000, 4.000000, 4.000000, 4.000000, 4.000000, 4.000000, 4.000000, 4.000000, 4.000000
26.000000, 0.000000, 4211.281738, 4198.461426, 4197.948730, 4202.563965, 4164.102539, 4183.076660, 4202.051270, 4196.922852, 4200.000000, 4165.127930, 4226.666504, 4216.410156, 4214.358887, 4200.000000, 0.000000, 8018.000000, 8045.000000, 0.000000, 0.000000, 0.000000, 17628.000000, 947.692261, 4.000000, 4.000000, 4.000000, 4.000000, 4.000000, 4.000000, 4.000000, 4.000000, 4.000000, 4.000000, 4.000000, 4.000000, 4.000000, 4.000000, 4.000000, 4.000000
27.000000, 0.000000, 4218.461426, 4208.205078, 4203.076660, 4209.230469, 4186.666504, 4194.871582, 4197.948730, 4206.666504, 4207.692383, 4172.820313, 4241.025391, 4226.153809, 4228.205078, 4205.641113, 0.000000, 8037.000000, 8067.000000, 0.000000, 0.000000, 0.000000, 17628.000000, 955.897400, 4.000000, 4.000000, 4.000000, 4.000000, 4.000000, 4.000000, 4.000000, 4.000000, 4.000000, 4.000000, 4.000000, 4.000000, 4.000000, 4.000000, 4.000000, 4.000000
28.000000, 0.000000, 4224.615234, 4223.589844, 4208.205078, 4220.000000, 4199.487305, 4203.076660, 4193.846191, 4205.127930, 4203.589844, 4169.743652, 4247.692383, 4234.358887, 4232.820313, 4212.820313, 0.000000, 8037.000000, 8067.000000, 0.000000, 0.000000, 0.000000, 17628.000000, 963.589722, 4.000000, 4.000000, 4.000000, 4.000000, 4.000000, 4.000000, 4.000000, 4.000000, 4.000000, 4.000000, 4.000000, 4.000000, 4.000000, 4.000000, 4.000000, 4.000000
29.000000, 0.000000, 4217.948730, 4220.512695, 4201.538574, 4215.384277, 4188.717773, 4199.487305, 4206.153809, 4200.000000, 4192.820313, 4168.717773, 4229.743652, 4220.000000, 4217.948730, 4201.025391, 0.000000, 8097.000000, 8077.000000, 0.000000, 0.000000, 0.000000, 17628.000000, 971.794861, 4.000000, 4.000000, 4.000000, 4.000000, 4.000000, 4.000000, 4.000000, 4.000000, 4.000000, 4.000000, 4.000000, 4.000000, 4.000000, 4.000000, 4.000000, 4.000000
30.000000, 0.000000, 4217.948730, 4214.358887, 4198.974121, 4210.769043, 4183.589844, 4196.410156, 4210.256348, 4204.102539, 4196.410156, 4178.461426, 4224.615234, 4219.487305, 4215.897461, 4212.307617, 0.000000, 8097.000000, 8077.000000, 0.000000, 0.000000, 0.000000, 17628.000000, 979.487183, 4.000000, 4.000000, 4.000000, 4.000000, 4.000000, 4.000000, 4.000000, 4.000000, 4.000000, 4.000000, 4.000000, 4.000000, 4.000000, 4.000000, 4.000000, 4.000000
31.000000, 0.000000, 4218.974121, 4223.076660, 4202.563965, 4215.897461, 4187.179199, 4189.743652, 4190.769043, 4196.922852, 4193.333008, 4177.948730, 4234.358887, 4222.051270, 4221.538574, 4208.205078, 0.000000, 8126.000000, 8083.000000, 0.000000, 0.000000, 0.000000, 17628.000000, 987.692261, 4.000000, 4.000000, 4.000000, 4.000000, 4.000000, 4.000000, 4.000000, 4.000000, 4.000000, 4.000000, 4.000000, 4.000000, 4.000000, 4.000000, 4.000000, 4.000000
32.000000, 0.000000, 4216.410156, 4232.307617, 4198.461426, 4215.897461, 4185.127930, 4180.000000, 4177.436035, 4184.615234, 4181.025391, 4164.102539, 4226.666504, 4219.487305, 4215.897461, 4198.461426, 0.000000, 8126.000000, 8083.000000, 0.000000, 0.000000, 0.000000, 17628.000000, 995.384583, 4.000000, 4.000000, 4.000000, 4.000000, 4.000000, 4.000000, 4.000000, 4.000000, 4.000000, 4.000000, 4.000000, 4.000000, 4.000000, 4.000000, 4.000000, 4.000000
33.000000, 0.000000, 4212.307617, 4226.666504, 4189.230469, 4211.281738, 4187.692383, 4186.153809, 4192.820313, 4187.692383, 4182.563965, 4157.436035, 4215.384277, 4212.307617, 4211.794922, 4202.051270, 0.000000, 8174.000000, 8106.000000, 0.000000, 0.000000, 0.000000, 17629.000000, 3.076923, 4.000000, 4.000000, 4.000000, 4.000000, 4.000000, 4.000000, 4.000000, 4.000000, 4.000000, 4.000000, 4.000000, 4.000000, 4.000000, 4.000000, 4.000000, 4.000000
34.000000, 0.000000, 4205.641113, 4217.436035, 4183.589844, 4209.230469, 4180.000000, 4200.512695, 4212.820313, 4191.281738, 4184.102539, 4152.820313, 4211.281738, 4205.641113, 4208.717773, 4195.384277, 0.000000, 8174.000000, 8106.000000, 0.000000, 0.000000, 0.000000, 17629.000000, 10.769231, 4.000000, 4.000000, 4.000000, 4.000000, 4.000000, 4.000000, 4.000000, 4.000000, 4.000000, 4.000000, 4.000000, 4.000000, 4.000000, 4.000000, 4.000000, 4.000000
35.000000, 0.000000, 4207.179199, 4224.615234, 4191.794922, 4212.307617, 4168.717773, 4205.641113, 4209.230469, 4190.769043, 4184.615234, 4155.897461, 4211.281738, 4213.846191, 4209.743652, 4205.641113, 0.000000, 8198.000000, 8109.000000, 0.000000, 0.000000, 0.000000, 17629.000000, 18.974358, 4.000000, 4.000000, 4.000000, 4.000000, 4.000000, 4.000000, 4.000000, 4.000000, 4.000000, 4.000000, 4.000000, 4.000000, 4.000000, 4.000000, 4.000000, 4.000000
36.000000, 0.000000, 4215.897461, 4225.127930, 4208.717773, 4212.820313, 4180.000000, 4197.948730, 4198.974121, 4207.692383, 4208.205078, 4180.000000, 4227.179199, 4224.102539, 4226.153809, 4211.281738, 0.000000, 8198.000000, 8109.000000, 0.000000, 0.000000, 0.000000, 17629.000000, 26.666666, 4.000000, 4.000000, 4.000000, 4.000000, 4.000000, 4.000000, 4.000000, 4.000000, 4.000000, 4.000000, 4.000000, 4.000000, 4.000000, 4.000000, 4.000000, 4.000000
37.000000, 0.000000, 4219.487305, 4213.846191, 4214.871582, 4211.281738, 4191.281738, 4188.205078, 4201.025391, 4221.025391, 4221.538574, 4196.410156, 4242.563965, 4235.384277, 4234.358887, 4207.179199, 0.000000, 8259.000000, 8121.000000, 0.000000, 0.000000, 0.000000, 17629.000000, 34.358974, 4.000000, 4.000000, 4.000000, 4.000000, 4.000000, 4.000000, 4.000000, 4.000000, 4.000000, 4.000000, 4.000000, 4.000000, 4.000000, 4.000000, 4.000000, 4.000000
38.000000, 0.000000, 4222.563965, 4231.281738, 4212.820313, 4220.000000, 4187.692383, 4187.692383, 4200.000000, 4210.256348, 4205.127930, 4186.666504, 4237.948730, 4234.358887, 4231.281738, 4209.743652, 0.000000, 8259.000000, 8121.000000, 0.000000, 0.000000, 0.000000, 17629.000000, 42.051281, 4.000000, 4.000000, 4.000000, 4.000000, 4.000000, 4.000000, 4.000000, 4.000000, 4.000000, 4.000000, 4.000000, 4.000000, 4.000000, 4.000000, 4.000000, 4.000000
39.000000, 0.000000, 4238.461426, 4266.153809, 4214.358887, 4234.358887, 4186.153809, 4183.589844, 4187.692383, 4193.846191, 4185.127930, 4170.256348, 4231.794922, 4225.127930, 4233.846191, 4207.692383, 0.000000, 8290.000000, 8123.000000, 0.000000, 0.000000, 0.000000, 17629.000000, 50.256409, 4.000000, 4.000000, 4.000000, 4.000000, 4.000000, 4.000000, 4.000000, 4.000000, 4.000000, 4.000000, 4.000000, 4.000000, 4.000000, 4.000000, 4.000000, 4.000000
40.000000, 0.000000, 4253.333008, 4282.051270, 4219.487305, 4242.563965, 4187.692383, 4174.358887, 4182.563965, 4187.179199, 4173.846191, 4167.692383, 4235.897461, 4233.333008, 4233.333008, 4214.358887, 0.000000, 8290.000000, 8123.000000, 0.000000, 0.000000, 0.000000, 17629.000000, 57.948715, 4.000000, 4.000000, 4.000000, 4.000000, 4.000000, 4.000000, 4.000000, 4.000000, 4.000000, 4.000000, 4.000000, 4.000000, 4.000000, 4.000000, 4.000000, 4.000000
41.000000, 0.000000, 4261.538574, 4294.871582, 4226.666504, 4247.692383, 4187.692383, 4176.922852, 4185.641113, 4186.666504, 4168.717773, 4174.871582, 4234.871582, 4235.384277, 4229.743652, 4210.256348, 0.000000, 8319.000000, 8117.000000, 0.000000, 0.000000, 0.000000, 17629.000000, 65.641022, 4.000000, 4.000000, 4.000000, 4.000000, 4.000000, 4.000000, 4.000000, 4.000000, 4.000000, 4.000000, 4.000000, 4.000000, 4.000000, 4.000000, 4.000000, 4.000000
42.000000, 0.000000, 4273.333008, 4313.846191, 4231.794922, 4251.794922, 4190.769043, 4182.051270, 4182.563965, 4185.127930, 4167.179199, 4170.256348, 4228.717773, 4231.281738, 4226.666504, 4210.256348, 0.000000, 8319.000000, 8117.000000, 0.000000, 0.000000, 0.000000, 17629.000000, 73.333328, 4.000000, 4.000000, 4.000000, 4.000000, 4.000000, 4.000000, 4.000000, 4.000000, 4.000000, 4.000000, 4.000000, 4.000000, 4.000000, 4.000000, 4.000000, 4.000000
43.000000, 0.000000, 4280.000000, 4323.076660, 4230.256348, 4255.897461, 4188.205078, 4173.846191, 4182.051270, 4174.358887, 4166.153809, 4155.897461, 4227.179199, 4230.256348, 4222.563965, 4217.948730, 0.000000, 8382.000000, 8094.000000, 0.000000, 0.000000, 0.000000, 17629.000000, 81.538460, 4.000000, 4.000000, 4.000000, 4.000000, 4.000000, 4.000000, 4.000000, 4.000000, 4.000000, 4.000000, 4.000000, 4.000000, 4.000000, 4.000000, 4.000000, 4.000000
44.000000, 0.000000, 4289.743652, 4347.179199, 4231.794922, 4269.743652, 4186.666504, 4173.333008, 4181.025391, 4167.692383, 4167.692383, 4151.794922, 4229.743652, 4227.179199, 4224.615234, 4209.230469, 0.000000, 8382.000000, 8094.000000, 0.000000, 0.000000, 0.000000, 17629.000000, 89.230766, 4.000000, 4.000000, 4.000000, 4.000000, 4.000000, 4.000000, 4.000000, 4.000000, 4.000000, 4.000000, 4.000000, 4.000000, 4.000000, 4.000000, 4.000000, 4.000000
45.000000, 0.000000, 4304.102539, 4378.974121, 4238.974121, 4281.025391, 4198.461426, 4180.000000, 4172.307617, 4173.333008, 4171.281738, 4155.384277, 4223.589844, 4231.281738, 4221.538574, 4213.333008, 0.000000, 8409.000000, 8085.000000, 0.000000, 0.000000, 0.000000, 17629.000000, 96.923073, 4.000000, 4.000000, 4.000000, 4.000000, 4.000000, 4.000000, 4.000000, 4.000000, 4.000000, 4.000000, 4.000000, 4.000000, 4.000000, 4.000000, 4.000000, 4.000000
46.000000, 0.000000, 4305.127930, 4383.076660, 4234.358887, 4278.461426, 4204.102539, 4171.281738, 4167.692383, 4175.384277, 4169.743652, 4152.820313, 4206.666504, 4224.615234, 4206.666504, 4213.333008, 0.000000, 8409.000000, 8085.000000, 0.000000, 0.000000, 0.000000, 17629.000000, 104.615379, 4.000000, 4.000000, 4.000000, 4.000000, 4.000000, 4.000000, 4.000000, 4.000000, 4.000000, 4.000000, 4.000000, 4.000000, 4.000000, 4.000000, 4.000000, 4.000000
47.000000, 0.000000, 4308.205078, 4388.205078, 4230.256348, 4281.025391, 4189.743652, 4164.102539, 4170.256348, 4171.794922, 4161.025391, 4141.025391, 4200.000000, 4221.538574, 4202.563965, 4208.205078, 0.000000, 8478.000000, 8080.000000, 0.000000, 0.000000, 0.000000, 17629.000000, 112.820511, 4.000000, 4.000000, 4.000000, 4.000000, 4.000000, 4.000000, 4.000000, 4.000000, 4.000000, 4.000000, 4.000000, 4.000000, 4.000000, 4.000000, 4.000000, 4.000000
48.000000, 0.000000, 4318.461426, 4405.641113, 4241.025391, 4288.717773, 4177.436035, 4170.256348, 4168.717773, 4172.307617, 4153.333008, 4130.256348, 4205.127930, 4232.307617, 4207.692383, 4215.897461, 0.000000, 8478.000000, 8080.000000, 0.000000, 0.000000, 0.000000, 17629.000000, 120.512817, 4.000000, 4.000000, 4.000000, 4.000000, 4.000000, 4.000000, 4.000000, 4.000000, 4.000000, 4.000000, 4.000000, 4.000000, 4.000000, 4.000000, 4.000000, 4.000000
49.000000, 0.000000, 4323.589844, 4412.307617, 4250.256348, 4292.307617, 4187.692383, 4167.179199, 4165.641113, 4172.307617, 4151.794922, 4138.974121, 4205.127930, 4229.743652, 4206.153809, 4210.256348, 0.000000, 8505.000000, 8064.000000, 0.000000, 0.000000, 0.000000, 17629.000000, 128.205124, 4.000000, 4.000000, 4.000000, 4.000000, 4.000000, 4.000000, 4.000000, 4.000000, 4.000000, 4.000000, 4.000000, 4.000000, 4.000000, 4.000000, 4.000000, 4.000000
50.000000, 0.000000, 4322.563965, 4410.256348, 4247.179199, 4291.794922, 4201.538574, 4159.487305, 4168.205078, 4169.743652, 4155.384277, 4153.846191, 4203.076660, 4229.230469, 4205.641113, 4212.307617, 0.000000, 8505.000000, 8064.000000, 0.000000, 0.000000, 0.000000, 17629.000000, 135.897430, 4.000000, 4.000000, 4.000000, 4.000000, 4.000000, 4.000000, 4.000000, 4.000000, 4.000000, 4.000000, 4.000000, 4.000000, 4.000000, 4.000000, 4.000000, 4.000000
51.000000, 0.000000, 4317.436035, 4414.871582, 4244.615234, 4291.281738, 4199.487305, 4166.666504, 4170.256348, 4166.666504, 4154.871582, 4144.102539, 4200.000000, 4226.153809, 4200.000000, 4210.769043, 0.000000, 8531.000000, 8038.000000, 0.000000, 0.000000, 0.000000, 17629.000000, 144.102554, 4.000000, 4.000000, 4.000000, 4.000000, 4.000000, 4.000000, 4.000000, 4.000000, 4.000000, 4.000000, 4.000000, 4.000000, 4.000000, 4.000000, 4.000000, 4.000000
52.000000, 0.000000, 4312.307617, 4415.897461, 4247.692383, 4291.794922, 4188.205078, 4175.897461, 4169.743652, 4168.717773, 4155.384277, 4124.615234, 4190.769043, 4222.051270, 4185.641113, 4198.974121, 0.000000, 8531.000000, 8038.000000, 0.000000, 0.000000, 0.000000, 17629.000000, 151.794861, 4.000000, 4.000000, 4.000000, 4.000000, 4.000000, 4.000000, 4.000000, 4.000000, 4.000000, 4.000000, 4.000000, 4.000000, 4.000000, 4.000000, 4.000000, 4.000000
53.000000, 0.000000, 4307.692383, 4409.743652, 4248.717773, 4292.307617, 4183.076660, 4169.230469, 4167.692383, 4166.666504, 4151.794922, 4119.487305, 4182.051270, 4222.051270, 4179.487305, 4204.615234, 0.000000, 8570.000000, 8001.000000, 0.000000, 0.000000, 0.000000, 17629.000000, 159.487183, 4.000000, 4.000000, 4.000000, 4.000000, 4.000000, 4.000000, 4.000000, 4.000000, 4.000000, 4.000000, 4.000000, 4.000000, 4.000000, 4.000000, 4.000000, 4.000000
54.000000, 0.000000, 4305.641113, 4412.307617, 4245.127930, 4294.871582, 4198.461426, 4168.205078, 4170.256348, 4154.871582, 4143.076660, 4126.153809, 4182.563965, 4218.461426, 4182.563965, 4202.563965, 0.000000, 8570.000000, 8001.000000, 0.000000, 0.000000, 0.000000, 17629.000000, 167.692307, 4.000000, 4.000000, 4.000000, 4.000000, 4.000000, 4.000000, 4.000000, 4.000000, 4.000000, 4.000000, 4.000000, 4.000000, 4.000000, 4.000000, 4.000000, 4.000000
55.000000, 0.000000, 4303.076660, 4409.743652, 4238.974121, 4293.333008, 4206.666504, 4180.512695, 4174.358887, 4160.512695, 4146.666504, 4136.922852, 4184.615234, 4224.615234, 4181.025391, 4202.051270, 0.000000, 8581.000000, 7982.000000, 0.000000, 0.000000, 0.000000, 17629.000000, 175.384613, 4.000000, 4.000000, 4.000000, 4.000000, 4.000000, 4.000000, 4.000000, 4.000000, 4.000000, 4.000000, 4.000000, 4.000000, 4.000000, 4.000000, 4.000000, 4.000000
56.000000, 0.000000, 4293.333008, 4389.743652, 4233.846191, 4285.641113, 4190.769043, 4177.948730, 4173.333008, 4177.948730, 4158.974121, 4136.410156, 4178.974121, 4221.538574, 4176.410156, 4202.051270, 0.000000, 8581.000000, 7982.000000, 0.000000, 0.000000, 0.000000, 17629.000000, 183.076920, 4.000000, 4.000000, 4.000000, 4.000000, 4.000000, 4.000000, 4.000000, 4.000000, 4.000000, 4.000000, 4.000000, 4.000000, 4.000000, 4.000000, 4.000000, 4.000000
57.000000, 0.000000, 4280.512695, 4378.974121, 4229.743652, 4276.922852, 4194.358887, 4169.230469, 4168.205078, 4178.974121, 4160.000000, 4121.538574, 4168.717773, 4209.743652, 4166.666504, 4192.820313, 0.000000, 8588.000000, 7930.000000, 0.000000, 0.000000, 0.000000, 17629.000000, 190.769226, 4.000000, 4.000000, 4.000000, 4.000000, 4.000000, 4.000000, 4.000000, 4.000000, 4.000000, 4.000000, 4.000000, 4.000000, 4.000000, 4.000000, 4.000000, 4.000000
58.000000, 0.000000, 4273.846191, 4376.922852, 4228.717773, 4272.307617, 4215.897461, 4181.025391, 4168.717773, 4176.410156, 4152.307617, 4123.589844, 4164.615234, 4211.794922, 4164.615234, 4199.487305, 0.000000, 8588.000000, 7930.000000, 0.000000, 0.000000, 0.000000, 17629.000000, 198.974350, 4.000000, 4.000000, 4.000000, 4.000000, 4.000000, 4.000000, 4.000000, 4.000000, 4.000000, 4.000000, 4.000000, 4.000000, 4.000000, 4.000000, 4.000000, 4.000000
59.000000, 0.000000, 4270.256348, 4359.487305, 4229.743652, 4266.666504, 4209.743652, 4193.846191, 4175.384277, 4181.025391, 4156.410156, 4146.666504, 4173.333008, 4215.897461, 4178.974121, 4197.948730, 0.000000, 8587.000000, 7924.000000, 0.000000, 0.000000, 0.000000, 17629.000000, 206.666656, 4.000000, 4.000000, 4.000000, 4.000000, 4.000000, 4.000000, 4.000000, 4.000000, 4.000000, 4.000000, 4.000000, 4.000000, 4.000000, 4.000000, 4.000000, 4.000000
60.000000, 0.000000, 4261.538574, 4337.436035, 4224.102539, 4255.384277, 4194.358887, 4181.025391, 4174.358887, 4174.871582, 4158.974121, 4146.153809, 4172.820313, 4218.461426, 4176.922852, 4194.871582, 0.000000, 8587.000000, 7924.000000, 0.000000, 0.000000, 0.000000, 17629.000000, 214.358963, 4.000000, 4.000000, 4.000000, 4.000000, 4.000000, 4.000000, 4.000000, 4.000000, 4.000000, 4.000000, 4.000000, 4.000000, 4.000000, 4.000000, 4.000000, 4.000000
61.000000, 0.000000, 4249.743652, 4326.153809, 4215.384277, 4244.615234, 4197.436035, 4167.179199, 4168.205078, 4162.563965, 4148.717773, 4122.051270, 4156.410156, 4211.794922, 4157.948730, 4194.358887, 0.000000, 8574.000000, 7895.000000, 0.000000, 0.000000, 0.000000, 17629.000000, 222.564102, 4.000000, 4.000000, 4.000000, 4.000000, 4.000000, 4.000000, 4.000000, 4.000000, 4.000000, 4.000000, 4.000000, 4.000000, 4.000000, 4.000000, 4.000000, 4.000000
62.000000, 0.000000, 4242.563965, 4312.307617, 4213.333008, 4241.538574, 4202.051270, 4171.794922, 4168.717773, 4166.153809, 4145.127930, 4126.153809, 4154.871582, 4205.127930, 4161.025391, 4191.794922, 0.000000, 8574.000000, 7895.000000, 0.000000, 0.000000, 0.000000, 17629.000000, 230.256409, 4.000000, 4.000000, 4.000000, 4.000000, 4.000000, 4.000000, 4.000000, 4.000000, 4.000000, 4.000000, 4.000000, 4.000000, 4.000000, 4.000000, 4.000000, 4.000000
63.000000, 0.000000, 4245.641113, 4309.230469, 4217.436035, 4247.692383, 4201.538574, 4176.410156, 4173.333008, 4176.922852, 4156.410156, 4142.051270, 4165.641113, 4213.333008, 4174.871582, 4202.563965, 0.000000, 8566.000000, 7883.000000, 0.000000, 0.000000, 0.000000, 17629.000000, 237.948715, 4.000000, 4.000000, 4.000000, 4.000000, 4.000000, 4.000000, 4.000000, 4.000000, 4.000000, 4.000000, 4.000000, 4.000000, 4.000000, 4.000000, 4.000000, 4.000000
64.000000, 0.000000, 4246.153809, 4312.307617, 4216.922852, 4245.641113, 4194.358887, 4168.717773, 4170.256348, 4174.871582, 4161.538574, 4131.794922, 4159.487305, 4208.205078, 4167.692383, 4196.410156, 3498.000000, 8566.000000, 7883.000000, 0.000000, 0.000000, 0.000000, 17629.000000, 245.641022, 4.000000, 4.000000, 4.000000, 4.000000, 4.000000, 4.000000, 4.000000, 4.000000, 4.000000, 4.000000, 4.000000, 4.000000, 4.000000, 4.000000, 4.000000, 4.000000
65.000000, 0.000000, 4241.538574, 4296.922852, 4215.384277, 4235.897461, 4185.641113, 4161.025391, 4165.641113, 4167.179199, 4153.333008, 4123.589844, 4147.179199, 4205.127930, 4167.692383, 4194.871582, 3533.000000, 8554.000000, 7882.000000, 0.000000, 0.000000, 0.000000, 17629.000000, 253.846146, 4.000000, 4.000000, 4.000000, 4.000000, 4.000000, 4.000000, 4.000000, 4.000000, 4.000000, 4.000000, 4.000000, 4.000000, 4.000000, 4.000000, 4.000000, 4.000000
66.000000, 0.000000, 4245.641113, 4295.384277, 4221.025391, 4240.512695, 4197.948730, 4170.256348, 4169.230469, 4173.846191, 4154.358887, 4152.820313, 4158.974121, 4216.410156, 4189.230469, 4205.127930, 2746.000000, 8554.000000, 7882.000000, 0.000000, 0.000000, 0.000000, 17629.000000, 261.538452, 4.000000, 4.000000, 4.000000, 4.000000, 4.000000, 4.000000, 4.000000, 4.000000, 4.000000, 4.000000, 4.000000, 4.000000, 4.000000, 4.000000, 4.000000, 4.000000
67.000000, 0.000000, 4245.127930, 4306.666504, 4219.487305, 4242.563965, 4216.410156, 4158.974121, 4170.769043, 4181.538574, 4158.461426, 4164.615234, 4163.076660, 4215.897461, 4186.153809, 4194.358887, 3545.000000, 8532.000000, 7898.000000, 0.000000, 0.000000, 0.000000, 17629.000000, 269.230774, 4.000000, 4.000000, 4.000000, 4.000000, 4.000000, 4.000000, 4.000000, 4.000000, 4.000000, 4.000000, 4.000000, 4.000000, 4.000000, 4.000000, 4.000000, 4.000000
68.000000, 0.000000, 4227.179199, 4278.974121, 4203.589844, 4224.102539, 4208.205078, 4132.307617, 4167.692383, 4177.436035, 4148.205078, 4127.179199, 4138.461426, 4204.102539, 4165.127930, 4191.281738, 3537.000000, 8532.000000, 7898.000000, 0.000000, 0.000000, 0.000000, 17629.000000, 277.435883, 4.000000, 4.000000, 4.000000, 4.000000, 4.000000, 4.000000, 4.000000, 4.000000, 4.000000, 4.000000, 4.000000, 4.000000, 4.000000, 4.000000, 4.000000, 4.000000
69.000000, 0.000000, 4216.922852, 4248.717773, 4196.410156, 4207.692383, 4197.948730, 4160.512695, 4180.512695, 4181.538574, 4148.205078, 4121.538574, 4137.948730, 4196.922852, 4172.307617, 4194.871582, 3533.000000, 8525.000000, 7910.000000, 0.000000, 0.000000, 0.000000, 17629.000000, 285.128204, 4.000000, 4.000000, 4.000000, 4.000000, 4.000000, 4.000000, 4.000000, 4.000000, 4.000000, 4.000000, 4.000000, 4.000000, 4.000000, 4.000000, 4.000000, 4.000000
70.000000, 0.000000, 4228.717773, 4271.281738, 4204.102539, 4215.897461, 4210.769043, 4205.127930, 4202.563965, 4192.820313, 4165.127930, 4155.384277, 4156.410156, 4209.230469, 4187.692383, 4198.461426, 3452.000000, 8525.000000, 7910.000000, 0.000000, 0.000000, 0.000000, 17629.000000, 292.820496, 4.000000, 4.000000, 4.000000, 4.000000, 4.000000, 4.000000, 4.000000, 4.000000, 4.000000, 4.000000, 4.000000, 4.000000, 4.000000, 4.000000, 4.000000, 4.000000
71.000000, 0.000000, 4228.205078, 4284.615234, 4202.051270, 4226.153809, 4206.666504, 4180.000000, 4192.307617, 4186.666504, 4162.563965, 4153.333008, 4145.641113, 4205.641113, 4181.538574, 4198.461426, 3197.000000, 8516.000000, 7945.000000, 0.000000, 0.000000, 0.000000, 17629.000000, 300.512817, 4.000000, 4.000000, 4.000000, 4.000000, 4.000000, 4.000000, 4.000000, 4.000000, 4.000000, 4.000000, 4.000000, 4.000000, 4.000000, 4.000000, 4.000000, 4.000000
72.000000, 0.000000, 4209.743652, 4251.281738, 4192.307617, 4214.871582, 4189.230469, 4145.641113, 4168.205078, 4178.461426, 4152.820313, 4139.487305, 4133.846191, 4187.179199, 4184.102539, 4190.256348, 3535.000000, 8516.000000, 7945.000000, 0.000000, 0.000000, 0.000000, 17629.000000, 308.717926, 4.000000, 4.000000, 4.000000, 4.000000, 4.000000, 4.000000, 4.000000, 4.000000, 4.000000, 4.000000, 4.000000, 4.000000, 4.000000, 4.000000, 4.000000, 4.000000
73.000000, 0.000000, 4211.281738, 4245.641113, 4198.974121, 4198.461426, 4201.538574, 4168.205078, 4184.102539, 4189.743652, 4164.102539, 4161.025391, 4156.410156, 4203.076660, 4201.025391, 4204.102539, 3533.000000, 8509.000000, 7981.000000, 0.000000, 0.000000, 0.000000, 17629.000000, 316.410248, 4.000000, 4.000000, 4.000000, 4.000000, 4.000000, 4.000000, 4.000000, 4.000000, 4.000000, 4.000000, 4.000000, 4.000000, 4.000000, 4.000000, 4.000000, 4.000000
74.000000, 0.000000, 4222.563965, 4271.794922, 4209.743652, 4200.000000, 4223.589844, 4199.487305, 4208.205078, 4199.487305, 4175.897461, 4172.820313, 4165.127930, 4213.333008, 4193.333008, 4206.153809, 3133.000000, 8509.000000, 7981.000000, 0.000000, 0.000000, 0.000000, 17629.000000, 324.102570, 4.000000, 4.000000, 4.000000, 4.000000, 4.000000, 4.000000, 4.000000, 4.000000, 4.000000, 4.000000, 4.000000, 4.000000, 4.000000, 4.000000, 4.000000, 4.000000
75.000000, 0.000000, 4217.436035, 4268.717773, 4204.615234, 4207.179199, 4216.922852, 4203.076660, 4203.076660, 4194.358887, 4171.794922, 4164.615234, 4142.563965, 4200.512695, 4175.384277, 4192.307617, 1683.000000, 8498.000000, 8019.000000, 0.000000, 0.000000, 0.000000, 17629.000000, 332.307678, 4.000000, 4.000000, 4.000000, 4.000000, 4.000000, 4.000000, 4.000000, 4.000000, 4.000000, 4.000000, 4.000000, 4.000000, 4.000000, 4.000000, 4.000000, 4.000000
76.000000, 0.000000, 4211.794922, 4262.051270, 4199.487305, 4202.563965, 4208.717773, 4197.436035, 4199.487305, 4189.230469, 4170.769043, 4176.922852, 4134.871582, 4196.922852, 4188.205078, 4198.974121, 3487.000000, 8498.000000, 8019.000000, 0.000000, 0.000000, 0.000000, 17629.000000, 340.000000, 4.000000, 4.000000, 4.000000, 4.000000, 4.000000, 4.000000, 4.000000, 4.000000, 4.000000, 4.000000, 4.000000, 4.000000, 4.000000, 4.000000, 4.000000, 4.000000
77.000000, 0.000000, 4215.384277, 4285.641113, 4197.436035, 4197.948730, 4226.153809, 4198.974121, 4203.076660, 4190.769043, 4173.846191, 4188.717773, 4140.512695, 4196.922852, 4201.538574, 4200.000000, 2502.000000, 8478.000000, 8080.000000, 0.000000, 0.000000, 0.000000, 17629.000000, 348.205109, 4.000000, 4.000000, 4.000000, 4.000000, 4.000000, 4.000000, 4.000000, 4.000000, 4.000000, 4.000000, 4.000000, 4.000000, 4.000000, 4.000000, 4.000000, 4.000000
78.000000, 0.000000, 4212.820313, 4293.846191, 4194.358887, 4197.948730, 4236.410156, 4197.948730, 4190.256348, 4183.076660, 4165.641113, 4178.461426, 4135.897461, 4196.410156, 4198.974121, 4200.000000, 3133.000000, 8478.000000, 8080.000000, 0.000000, 0.000000, 0.000000, 17629.000000, 355.897430, 4.000000, 4.000000, 4.000000, 4.000000, 4.000000, 4.000000, 4.000000, 4.000000, 4.000000, 4.000000, 4.000000, 4.000000, 4.000000, 4.000000, 4.000000, 4.000000
79.000000, 0.000000, 4204.615234, 4291.281738, 4191.794922, 4202.563965, 4224.102539, 4188.205078, 4178.461426, 4172.307617, 4160.000000, 4182.563965, 4134.358887, 4189.230469, 4210.256348, 4196.922852, 1683.000000, 8470.000000, 8095.000000, 0.000000, 0.000000, 0.000000, 17629.000000, 364.102570, 4.000000, 4.000000, 4.000000, 4.000000, 4.000000, 4.000000, 4.000000, 4.000000, 4.000000, 4.000000, 4.000000, 4.000000, 4.000000, 4.000000, 4.000000, 4.000000
80.000000, 0.000000, 4203.589844, 4302.563965, 4190.256348, 4210.769043, 4220.000000, 4189.743652, 4184.615234, 4185.127930, 4172.307617, 4206.666504, 4147.692383, 4187.179199, 4231.281738, 4196.922852, 3487.000000, 8470.000000, 8095.000000, 0.000000, 0.000000, 0.000000, 17629.000000, 371.794861, 4.000000, 4.000000, 4.000000, 4.000000, 4.000000, 4.000000, 4.000000, 4.000000, 4.000000, 4.000000, 4.000000, 4.000000, 4.000000, 4.000000, 4.000000, 4.000000
81.000000, 0.000000, 4203.076660, 4310.769043, 4190.769043, 4210.769043, 4242.051270, 4203.589844, 4187.692383, 4200.512695, 4187.179199, 4219.487305, 4156.922852, 4192.307617, 4237.436035, 4206.153809, 2502.000000, 8457.000000, 8105.000000, 0.000000, 0.000000, 0.000000, 17629.000000, 380.000000, 4.000000, 4.000000, 4.000000, 4.000000, 4.000000, 4.000000, 4.000000, 4.000000, 4.000000, 4.000000, 4.000000, 4.000000, 4.000000, 4.000000, 4.000000, 4.000000
82.000000, 0.000000, 4204.102539, 4330.769043, 4196.410156, 4222.563965, 4259.487305, 4208.205078, 4183.076660, 4193.333008, 4188.205078, 4213.333008, 4153.333008, 4189.230469, 4230.256348, 4198.974121, 3133.000000, 8457.000000, 8105.000000, 0.000000, 0.000000, 0.000000, 17629.000000, 387.692291, 4.000000, 4.000000, 4.000000, 4.000000, 4.000000, 4.000000, 4.000000, 4.000000, 4.000000, 4.000000, 4.000000, 4.000000, 4.000000, 4.000000, 4.000000, 4.000000
83.000000, 0.000000, 4208.205078, 4343.076660, 4196.922852, 4235.384277, 4248.717773, 4198.974121, 4184.615234, 4187.692383, 4179.487305, 4204.615234, 4154.871582, 4191.794922, 4233.846191, 4200.000000, 1683.000000, 8445.000000, 8123.000000, 0.000000, 0.000000, 0.000000, 17629.000000, 395.897430, 4.000000, 4.000000, 4.000000, 4.000000, 4.000000, 4.000000, 4.000000, 4.000000, 4.000000, 4.000000, 4.000000, 4.000000, 4.000000, 4.000000, 4.000000, 4.000000
84.000000, 0.000000, 4202.051270, 4331.281738, 4188.205078, 4223.076660, 4243.076660, 4193.846191, 4190.256348, 4198.974121, 4180.000000, 4214.871582, 4161.538574, 4192.307617, 4244.102539, 4201.025391, 3487.000000, 8445.000000, 8123.000000, 0.000000, 0.000000, 0.000000, 17629.000000, 404.102539, 4.000000, 4.000000, 4.000000, 4.000000, 4.000000, 4.000000, 4.000000, 4.000000, 4.000000, 4.000000, 4.000000, 4.000000, 4.000000, 4.000000, 4.000000, 4.000000
85.000000, 0.000000, 4203.076660, 4334.871582, 4192.307617, 4215.384277, 4256.922852, 4202.051270, 4195.897461, 4207.692383, 4193.846191, 4234.871582, 4163.076660, 4195.384277, 4244.615234, 4197.948730, 2502.000000, 8433.000000, 8164.000000, 0.000000, 0.000000, 0.000000, 17629.000000, 411.794861, 4.000000, 4.000000, 4.000000, 4.000000, 4.000000, 4.000000, 4.000000, 4.000000, 4.000000, 4.000000, 4.000000, 4.000000, 4.000000, 4.000000, 4.000000, 4.000000
86.000000, 0.000000, 4203.076660, 4337.436035, 4196.922852, 4221.538574, 4260.000000, 4207.179199, 4200.512695, 4201.538574, 4197.948730, 4233.333008, 4151.281738, 4197.436035, 4232.820313, 4202.563965, 3133.000000, 8433.000000, 8164.000000, 0.000000, 0.000000, 0.000000, 17629.000000, 420.000000, 4.000000, 4.000000, 4.000000, 4.000000, 4.000000, 4.000000, 4.000000, 4.000000, 4.000000, 4.000000, 4.000000, 4.000000, 4.000000, 4.000000, 4.000000, 4.000000
87.000000, 0.000000, 4193.846191, 4327.692383, 4187.179199, 4219.487305, 4255.897461, 4203.589844, 4198.974121, 4198.974121, 4190.256348, 4222.051270, 4143.589844, 4188.205078, 4228.717773, 4192.820313, 1683.000000, 8431.000000, 8165.000000, 0.000000, 0.000000, 0.000000, 17629.000000, 427.692291, 4.000000, 4.000000, 4.000000, 4.000000, 4.000000, 4.000000, 4.000000, 4.000000, 4.000000, 4.000000, 4.000000, 4.000000, 4.000000, 4.000000, 4.000000, 4.000000
88.000000, 0.000000, 4195.897461, 4334.358887, 4190.769043, 4214.358887, 4264.615234, 4208.717773, 4202.051270, 4204.615234, 4191.281738, 4228.205078, 4153.846191, 4197.436035, 4238.974121, 4196.922852, 3487.000000, 8431.000000, 8165.000000, 0.000000, 0.000000, 0.000000, 17629.000000, 435.897430, 4.000000, 4.000000, 4.000000, 4.000000, 4.000000, 4.000000, 4.000000, 4.000000, 4.000000, 4.000000, 4.000000, 4.000000, 4.000000, 4.000000, 4.000000, 4.000000
89.000000, 0.000000, 4196.410156, 4345.641113, 4201.025391, 4219.487305, 4269.230469, 4215.384277, 4214.358887, 4204.615234, 4194.871582, 4237.948730, 4161.025391, 4204.615234, 4241.025391, 4201.025391, 2502.000000, 8433.000000, 8155.000000, 0.000000, 0.000000, 0.000000, 17629.000000, 443.589722, 4.000000, 4.000000, 4.000000, 4.000000, 4.000000, 4.000000, 4.000000, 4.000000, 4.000000, 4.000000, 4.000000, 4.000000, 4.000000, 4.000000, 4.000000, 4.000000
90.000000, 0.000000, 4184.615234, 4334.358887, 4192.307617, 4219.487305, 4263.589844, 4209.743652, 4214.358887, 4198.461426, 4188.205078, 4232.307617, 4152.820313, 4197.436035, 4233.846191, 4193.333008, 3133.000000, 8433.000000, 8155.000000, 0.000000, 0.000000, 0.000000, 17629.000000, 451.794861, 4.000000, 4.000000, 4.000000, 4.000000, 4.000000, 4.000000, 4.000000, 4.000000, 4.000000, 4.000000, 4.000000, 4.000000, 4.000000, 4.000000, 4.000000, 4.000000
91.000000, 0.000000, 4179.487305, 4326.666504, 4189.743652, 4216.922852, 4260.000000, 4207.692383, 4204.102539, 4197.436035, 4177.948730, 4222.051270, 4150.256348, 4200.512695, 4233.333008, 4200.000000, 1683.000000, 8434.000000, 8147.000000, 0.000000, 0.000000, 0.000000, 17629.000000, 459.487183, 4.000000, 4.000000, 4.000000, 4.000000, 4.000000, 4.000000, 4.000000, 4.000000, 4.000000, 4.000000, 4.000000, 4.000000, 4.000000, 4.000000, 4.000000, 4.000000
92.000000, 0.000000, 4182.563965, 4327.179199, 4197.948730, 4218.461426, 4256.922852, 4207.179199, 4201.538574, 4194.871582, 4172.307617, 4217.436035, 4157.948730, 4201.025391, 4237.436035, 4193.846191, 3487.000000, 8434.000000, 8147.000000, 0.000000, 0.000000, 0.000000, 17629.000000, 467.692291, 4.000000, 4.000000, 4.000000, 4.000000, 4.000000, 4.000000, 4.000000, 4.000000, 4.000000, 4.000000, 4.000000, 4.000000, 4.000000, 4.000000, 4.000000, 4.000000
93.000000, 0.000000, 4177.436035, 4319.487305, 4192.820313, 4212.820313, 4253.846191, 4194.871582, 4202.051270, 4188.717773, 4173.333008, 4220.512695, 4154.871582, 4203.076660, 4233.333008, 4193.333008, 2502.000000, 8439.000000, 8143.000000, 0.000000, 0.000000, 0.000000, 17629.000000, 475.384613, 4.000000, 4.000000, 4.000000, 4.000000, 4.000000, 4.000000, 4.000000, 4.000000, 4.000000, 4.000000, 4.000000, 4.000000, 4.000000, 4.000000, 4.000000, 4.000000
94.000000, 0.000000, 4164.615234, 4312.820313, 4187.179199, 4212.307617, 4255.897461, 4188.205078, 4200.000000, 4189.230469, 4181.538574, 4228.205078, 4151.281738, 4202.563965, 4228.717773, 4197.948730, 3133.000000, 8439.000000, 8143.000000, 0.000000, 0.000000, 0.000000, 17629.000000, 483.076904, 4.000000, 4.000000, 4.000000, 4.000000, 4.000000, 4.000000, 4.000000, 4.000000, 4.000000, 4.000000, 4.000000, 4.000000, 4.000000, 4.000000, 4.000000, 4.000000
95.000000, 0.000000, 4160.512695, 4311.794922, 4188.717773, 4217.948730, 4250.256348, 4196.410156, 4200.512695, 4192.307617, 4182.563965, 4230.769043, 4156.922852, 4196.410156, 4235.384277, 4191.281738, 1683.000000, 8450.000000, 8140.000000, 0.000000, 0.000000, 0.000000, 17629.000000, 491.282043, 4.000000, 4.000000, 4.000000, 4.000000, 4.000000, 4.000000, 4.000000, 4.000000, 4.000000, 4.000000, 4.000000, 4.000000, 4.000000, 4.000000, 4.000000, 4.000000
96.000000, 0.000000, 4161.538574, 4303.589844, 4187.179199, 4212.307617, 4251.794922, 4210.769043, 4211.281738, 4203.076660, 4191.281738, 4236.410156, 4158.974121, 4205.127930, 4237.436035, 4199.487305, 3487.000000, 8450.000000, 8140.000000, 0.000000, 0.000000, 0.000000, 17629.000000, 499.487152, 4.000000, 4.000000, 4.000000, 4.000000, 4.000000, 4.000000, 4.000000, 4.000000, 4.000000, 4.000000, 4.000000, 4.000000, 4.000000, 4.000000, 4.000000, 4.000000
97.000000, 0.000000, 4153.846191, 4282.563965, 4189.743652, 4205.641113, 4264.102539, 4217.948730, 4227.179199, 4221.025391, 4215.897461, 4250.256348, 4157.948730, 4208.205078, 4232.820313, 4197.948730, 2502.000000, 8452.000000, 8131.000000, 0.000000, 0.000000, 0.000000, 17629.000000, 507.179474, 4.000000, 4.000000, 4.000000, 4.000000, 4.000000, 4.000000, 4.000000, 4.000000, 4.000000, 4.000000, 4.000000, 4.000000, 4.000000, 4.000000, 4.000000, 4.000000
98.000000, 0.000000, 4154.871582, 4283.076660, 4191.281738, 4215.384277, 4254.871582, 4214.358887, 4225.127930, 4220.512695, 4214.871582, 4252.307617, 4166.666504, 4208.205078, 4236.922852, 4197.948730, 3133.000000, 8452.000000, 8131.000000, 0.000000, 0.000000, 0.000000, 17629.000000, 514.871765, 4.000000, 4.000000, 4.000000, 4.000000, 4.000000, 4.000000, 4.000000, 4.000000, 4.000000, 4.000000, 4.000000, 4.000000, 4.000000, 4.000000, 4.000000, 4.000000
99.000000, 0.000000, 4164.102539, 4308.717773, 4189.743652, 4221.025391, 4243.589844, 4214.871582, 4211.281738, 4209.743652, 4197.948730, 4246.666504, 4165.641113, 4208.205078, 4243.589844, 4205.641113, 1683.000000, 8461.000000, 8122.000000, 0.000000, 0.000000, 0.000000, 17629.000000, 523.076904, 4.000000, 4.000000, 4.000000, 4.000000, 4.000000, 4.000000, 4.000000, 4.000000, 4.000000, 4.000000, 4.000000, 4.000000, 4.000000, 4.000000, 4.000000, 4.000000
100.000000, 0.000000, 4166.153809, 4306.666504, 4197.436035, 4215.384277, 4260.000000, 4215.897461, 4215.384277, 4214.358887, 4208.717773, 4255.897461, 4162.051270, 4209.743652, 4242.051270, 4201.538574, 3487.000000, 8461.000000, 8122.000000, 0.000000, 0.000000, 0.000000, 17629.000000, 530.769226, 4.000000, 4.000000, 4.000000, 4.000000, 4.000000, 4.000000, 4.000000, 4.000000, 4.000000, 4.000000, 4.000000, 4.000000, 4.000000, 4.000000, 4.000000, 4.000000
101.000000, 0.000000, 4162.563965, 4293.333008, 4195.897461, 4220.000000, 4268.205078, 4208.205078, 4216.410156, 4214.871582, 4218.461426, 4261.025391, 4176.922852, 4214.871582, 4244.102539, 4203.589844, 2502.000000, 8480.000000, 8115.000000, 0.000000, 0.000000, 0.000000, 17629.000000, 538.974365, 4.000000, 4.000000, 4.000000, 4.000000, 4.000000, 4.000000, 4.000000, 4.000000, 4.000000, 4.000000, 4.000000, 4.000000, 4.000000, 4.000000, 4.000000, 4.000000
102.000000, 0.000000, 4156.922852, 4300.512695, 4180.512695, 4226.153809, 4249.230469, 4200.000000, 4199.487305, 4199.487305, 4204.102539, 4247.692383, 4178.974121, 4205.127930, 4247.692383, 4197.436035, 3133.000000, 8480.000000, 8115.000000, 0.000000, 0.000000, 0.000000, 17629.000000, 546.666626, 4.000000, 4.000000, 4.000000, 4.000000, 4.000000, 4.000000, 4.000000, 4.000000, 4.000000, 4.000000, 4.000000, 4.000000, 4.000000, 4.000000, 4.000000, 4.000000
103.000000, 0.000000, 4156.410156, 4295.897461, 4182.563965, 4222.563965, 4238.974121, 4198.974121, 4201.025391, 4197.948730, 4196.922852, 4241.538574, 4165.127930, 4205.641113, 4246.666504, 4200.000000, 1683.000000, 8489.000000, 8110.000000, 0.000000, 0.000000, 0.000000, 17629.000000, 554.358948, 4.000000, 4.000000, 4.000000, 4.000000, 4.000000, 4.000000, 4.000000, 4.000000, 4.000000, 4.000000, 4.000000, 4.000000, 4.000000, 4.000000, 4.000000, 4.000000
104.000000, 0.000000, 4153.846191, 4278.461426, 4194.871582, 4221.025391, 4245.641113, 4198.974121, 4212.307617, 4201.538574, 4199.487305, 4247.179199, 4171.281738, 4209.743652, 4247.179199, 4206.153809, 3487.000000, 8489.000000, 8110.000000, 0.000000, 0.000000, 0.000000, 17629.000000, 562.051270, 4.000000, 4.000000, 4.000000, 4.000000, 4.000000, 4.000000, 4.000000, 4.000000, 4.000000, 4.000000, 4.000000, 4.000000, 4.000000, 4.000000, 4.000000, 4.000000
105.000000, 0.000000, 4152.307617, 4276.410156, 4193.846191, 4218.461426, 4248.205078, 4195.897461, 4205.127930, 4201.538574, 4205.127930, 4253.333008, 4191.281738, 4204.102539, 4246.153809, 4195.384277, 2502.000000, 8507.000000, 8120.000000, 0.000000, 0.000000, 0.000000, 17629.000000, 570.256409, 4.000000, 4.000000, 4.000000, 4.000000, 4.000000, 4.000000, 4.000000, 4.000000, 4.000000, 4.000000, 4.000000, 4.000000, 4.000000, 4.000000, 4.000000, 4.000000
106.000000, 0.000000, 4156.922852, 4282.563965, 4196.410156, 4218.461426, 4244.102539, 4198.461426, 4199.487305, 4209.230469, 4209.743652, 4254.871582, 4187.692383, 4216.410156, 4246.666504, 4202.563965, 3133.000000, 8507.000000, 8120.000000, 0.000000, 0.000000, 0.000000, 17629.000000, 577.948730, 4.000000, 4.000000, 4.000000, 4.000000, 4.000000, 4.000000, 4.000000, 4.000000, 4.000000, 4.000000, 4.000000, 4.000000, 4.000000, 4.000000, 4.000000, 4.000000
107.000000, 0.000000, 4156.410156, 4279.487305, 4198.461426, 4223.589844, 4240.000000, 4203.076660, 4207.179199, 4206.666504, 4198.974121, 4246.666504, 4172.820313, 4218.461426, 4250.769043, 4202.563965, 1683.000000, 8524.000000, 8121.000000, 0.000000, 0.000000, 0.000000, 17629.000000, 585.640991, 4.000000, 4.000000, 4.000000, 4.000000, 4.000000, 4.000000, 4.000000, 4.000000, 4.000000, 4.000000, 4.000000, 4.000000, 4.000000, 4.000000, 4.000000, 4.000000
108.000000, 0.000000, 4149.743652, 4256.410156, 4189.230469, 4213.333008, 4233.846191, 4195.897461, 4204.615234, 4189.743652, 4187.692383, 4228.717773, 4172.820313, 4208.205078, 4247.179199, 4190.256348, 3487.000000, 8524.000000, 8121.000000, 0.000000, 0.000000, 0.000000, 17629.000000, 593.846130, 4.000000, 4.000000, 4.000000, 4.000000, 4.000000, 4.000000, 4.000000, 4.000000, 4.000000, 4.000000, 4.000000, 4.000000, 4.000000, 4.000000, 4.000000, 4.000000
109.000000, 0.000000, 4142.051270, 4239.487305, 4187.179199, 4202.051270, 4227.179199, 4186.153809, 4198.461426, 4188.205078, 4192.307617, 4226.666504, 4175.897461, 4208.205078, 4246.666504, 4198.974121, 2502.000000, 8551.000000, 8104.000000, 0.000000, 0.000000, 0.000000, 17629.000000, 601.538452, 4.000000, 4.000000, 4.000000, 4.000000, 4.000000, 4.000000, 4.000000, 4.000000, 4.000000, 4.000000, 4.000000, 4.000000, 4.000000, 4.000000, 4.000000, 4.000000
110.000000, 0.000000, 4149.230469, 4256.922852, 4201.025391, 4216.410156, 4233.333008, 4194.871582, 4207.692383, 4203.589844, 4204.615234, 4242.563965, 4179.487305, 4218.461426, 4263.589844, 4206.153809, 3133.000000, 8551.000000, 8104.000000, 0.000000, 0.000000, 0.000000, 17629.000000, 609.230774, 4.000000, 4.000000, 4.000000, 4.000000, 4.000000, 4.000000, 4.000000, 4.000000, 4.000000, 4.000000, 4.000000, 4.000000, 4.000000, 4.000000, 4.000000, 4.000000
111.000000, 0.000000, 4159.487305, 4264.102539, 4206.666504, 4221.538574, 4234.871582, 4204.615234, 4211.281738, 4207.692383, 4209.230469, 4249.743652, 4182.563965, 4228.205078, 4275.897461, 4208.717773, 1683.000000, 8621.000000, 8090.000000, 0.000000, 0.000000, 0.000000, 17629.000000, 616.923035, 4.000000, 4.000000, 4.000000, 4.000000, 4.000000, 4.000000, 4.000000, 4.000000, 4.000000, 4.000000, 4.000000, 4.000000, 4.000000, 4.000000, 4.000000, 4.000000
112.000000, 0.000000, 4149.743652, 4240.000000, 4196.410156, 4205.127930, 4220.000000, 4197.436035, 4201.538574, 4198.974121, 4202.563965, 4247.692383, 4189.230469, 4220.000000, 4275.384277, 4202.563965, 3487.000000, 8621.000000, 8090.000000, 0.000000, 0.000000, 0.000000, 17629.000000, 625.128174, 4.000000, 4.000000, 4.000000, 4.000000, 4.000000, 4.000000, 4.000000, 4.000000, 4.000000, 4.000000, 4.000000, 4.000000, 4.000000, 4.000000, 4.000000, 4.000000
113.000000, 0.000000, 4147.692383, 4235.384277, 4197.436035, 4204.615234, 4216.410156, 4192.820313, 4202.051270, 4198.461426, 4194.871582, 4242.051270, 4195.384277, 4220.000000, 4274.358887, 4201.025391, 2502.000000, 8651.000000, 8088.000000, 0.000000, 0.000000, 0.000000, 17629.000000, 632.820496, 4.000000, 4.000000, 4.000000, 4.000000, 4.000000, 4.000000, 4.000000, 4.000000, 4.000000, 4.000000, 4.000000, 4.000000, 4.000000, 4.000000, 4.000000, 4.000000
114.000000, 0.000000, 4156.922852, 4248.717773, 4205.641113, 4219.487305, 4221.538574, 4201.538574, 4209.230469, 4206.666504, 4197.948730, 4236.922852, 4194.871582, 4228.205078, 4280.000000, 4208.205078, 3133.000000, 8651.000000, 8088.000000, 0.000000, 0.000000, 0.000000, 17629.000000, 641.025635, 4.000000, 4.000000, 4.000000, 4.000000, 4.000000, 4.000000, 4.000000, 4.000000, 4.000000, 4.000000, 4.000000, 4.000000, 4.000000, 4.000000, 4.000000, 4.000000
115.000000, 0.000000, 4152.820313, 4244.102539, 4196.922852, 4218.461426, 4218.461426, 4202.563965, 4195.897461, 4201.025391, 4196.410156, 4228.205078, 4187.179199, 4214.358887, 4276.922852, 4195.897461, 1683.000000, 8708.000000, 8074.000000, 0.000000, 0.000000, 0.000000, 17629.000000, 648.717957, 4.000000, 4.000000, 4.000000, 4.000000, 4.000000, 4.000000, 4.000000, 4.000000, 4.000000, 4.000000, 4.000000, 4.000000, 4.000000, 4.000000, 4.000000, 4.000000
116.000000, 0.000000, 4140.000000, 4230.769043, 4178.461426, 4208.205078, 4219.487305, 4196.410156, 4182.051270, 4184.102539, 4182.051270, 4218.461426, 4170.256348, 4202.051270, 4269.743652, 4193.846191, 3487.000000, 8708.000000, 8074.000000, 0.000000, 0.000000, 0.000000, 17629.000000, 656.923035, 4.000000, 4.000000, 4.000000, 4.000000, 4.000000, 4.000000, 4.000000, 4.000000, 4.000000, 4.000000, 4.000000, 4.000000, 4.000000, 4.000000, 4.000000, 4.000000
117.000000, 0.000000, 4133.846191, 4224.615234, 4175.897461, 4204.102539, 4225.127930, 4201.538574, 4196.922852, 4182.563965, 4183.589844, 4226.153809, 4168.205078, 4201.025391, 4282.051270, 4196.922852, 2502.000000, 8732.000000, 8066.000000, 0.000000, 0.000000, 0.000000, 17629.000000, 664.615356, 4.000000, 4.000000, 4.000000, 4.000000, 4.000000, 4.000000, 4.000000, 4.000000, 4.000000, 4.000000, 4.000000, 4.000000, 4.000000, 4.000000, 4.000000, 4.000000
118.000000, 0.000000, 4140.512695, 4219.487305, 4182.563965, 4203.589844, 4222.563965, 4202.051270, 4205.127930, 4190.769043, 4196.922852, 4234.871582, 4182.563965, 4206.153809, 4296.410156, 4199.487305, 3133.000000, 8732.000000, 8066.000000, 0.000000, 0.000000, 0.000000, 17629.000000, 672.307678, 4.000000, 4.000000, 4.000000, 4.000000, 4.000000, 4.000000, 4.000000, 4.000000, 4.000000, 4.000000, 4.000000, 4.000000, 4.000000, 4.000000, 4.000000, 4.000000
119.000000, 0.000000, 4143.076660, 4216.410156, 4180.512695, 4202.563965, 4219.487305, 4189.743652, 4190.769043, 4188.717773, 4192.820313, 4228.717773, 4188.717773, 4207.692383, 4294.358887, 4206.666504, 1683.000000, 8769.000000, 8077.000000, 0.000000, 0.000000, 0.000000, 17629.000000, 680.512817, 4.000000, 4.000000, 4.000000, 4.000000, 4.000000, 4.000000, 4.000000, 4.000000, 4.000000, 4.000000, 4.000000, 4.000000, 4.000000, 4.000000, 4.000000, 4.000000
120.000000, 0.000000, 4141.538574, 4218.461426, 4180.512695, 4202.051270, 4218.461426, 4188.717773, 4185.127930, 4194.358887, 4191.281738, 4228.717773, 4185.641113, 4199.487305, 4299.487305, 4194.871582, 3487.000000, 8769.000000, 8077.000000, 0.000000, 0.000000, 0.000000, 17629.000000, 688.205139, 4.000000, 4.000000, 4.000000, 4.000000, 4.000000, 4.000000, 4.000000, 4.000000, 4.000000, 4.000000, 4.000000, 4.000000, 4.000000, 4.000000, 4.000000, 4.000000
121.000000, 0.000000, 4148.205078, 4216.922852, 4187.692383, 4203.589844, 4209.230469, 4199.487305, 4202.563965, 4205.127930, 4202.051270, 4238.974121, 4189.743652, 4207.692383, 4309.743652, 4198.461426, 2502.000000, 8777.000000, 8086.000000, 0.000000, 0.000000, 0.000000, 17629.000000, 695.897400, 4.000000, 4.000000, 4.000000, 4.000000, 4.000000, 4.000000, 4.000000, 4.000000, 4.000000, 4.000000, 4.000000, 4.000000, 4.000000, 4.000000, 4.000000, 4.000000
122.000000, 0.000000, 4148.205078, 4206.666504, 4187.692383, 4202.051270, 4204.102539, 4205.127930, 4211.794922, 4194.871582, 4195.897461, 4240.512695, 4191.794922, 4211.794922, 4304.615234, 4202.051270, 3133.000000, 8777.000000, 8086.000000, 0.000000, 0.000000, 0.000000, 17629.000000, 703.589722, 4.000000, 4.000000, 4.000000, 4.000000, 4.000000, 4.000000, 4.000000, 4.000000, 4.000000, 4.000000, 4.000000, 4.000000, 4.000000, 4.000000, 4.000000, 4.000000
123.000000, 0.000000, 4144.102539, 4200.000000, 4183.589844, 4197.436035, 4203.076660, 4193.846191, 4200.000000, 4178.461426, 4177.948730, 4232.307617, 4185.641113, 4202.051270, 4300.000000, 4194.871582, 1683.000000, 8790.000000, 8092.000000, 0.000000, 0.000000, 0.000000, 17629.000000, 711.794861, 4.000000, 4.000000, 4.000000, 4.000000, 4.000000, 4.000000, 4.000000, 4.000000, 4.000000, 4.000000, 4.000000, 4.000000, 4.000000, 4.000000, 4.000000, 4.000000
124.000000, 0.000000, 4145.641113, 4204.615234, 4186.153809, 4203.076660, 4208.205078, 4183.589844, 4192.307617, 4183.589844, 4186.153809, 4224.615234, 4192.307617, 4207.179199, 4311.281738, 4204.102539, 3487.000000, 8790.000000, 8092.000000, 0.000000, 0.000000, 0.000000, 17629.000000, 719.487183, 4.000000, 4.000000, 4.000000, 4.000000, 4.000000, 4.000000, 4.000000, 4.000000, 4.000000, 4.000000, 4.000000, 4.000000, 4.000000, 4.000000, 4.000000, 4.000000
125.000000, 0.000000, 4150.256348, 4207.692383, 4187.692383, 4211.794922, 4222.051270, 4192.307617, 4197.948730, 4188.717773, 4202.563965, 4240.512695, 4208.205078, 4210.769043, 4317.436035, 4202.051270, 2502.000000, 8809.000000, 8097.000000, 0.000000, 0.000000, 0.000000, 17629.000000, 727.692261, 4.000000, 4.000000, 4.000000, 4.000000, 4.000000, 4.000000, 4.000000, 4.000000, 4.000000, 4.000000, 4.000000, 4.000000, 4.000000, 4.000000, 4.000000, 4.000000
126.000000, 0.000000, 4153.333008, 4202.051270, 4187.692383, 4211.794922, 4224.102539, 4203.076660, 4198.974121, 4188.717773, 4195.897461, 4253.846191, 4210.769043, 4212.820313, 4312.820313, 4199.487305, 3133.000000, 8809.000000, 8097.000000, 0.000000, 0.000000, 0.000000, 17629.000000, 735.384583, 4.000000, 4.000000, 4.000000, 4.000000, 4.000000, 4.000000, 4.000000, 4.000000, 4.000000, 4.000000, 4.000000, 4.000000, 4.000000, 4.000000, 4.000000, 4.000000
127.000000, 0.000000, 4154.358887, 4198.974121, 4190.256348, 4211.281738, 4219.487305, 4203.076660, 4198.461426, 4202.563965, 4195.384277, 4239.487305, 4204.102539, 4214.358887, 4311.281738, 4201.538574, 55.000000, 8819.000000, 8098.000000, 0.000000, 0.000000, 0.000000, 17629.000000, 743.589722, 4.000000, 4.000000, 4.000000, 4.000000, 4.000000, 4.000000, 4.000000, 4.000000, 4.000000, 4.000000, 4.000000, 4.000000, 4.000000, 4.000000, 4.000000, 4.000000
0.000000, 0.000000, 4158.461426, 4195.384277, 4190.256348, 4207.692383, 4218.974121, 4201.025391, 4208.717773, 4211.794922, 4207.692383, 4244.615234, 4207.179199, 4216.922852, 4316.922852, 4200.000000, 3505.000000, 8819.000000, 8098.000000, 0.000000, 0.000000, 0.000000, 17629.000000, 751.282043, 4.000000, 4.000000, 4.000000, 4.000000, 4.000000, 4.000000, 4.000000, 4.000000, 4.000000, 4.000000, 4.000000, 4.000000, 4.000000, 4.000000, 4.000000, 4.000000
1.000000, 0.000000, 4155.897461, 4185.127930, 4187.692383, 4196.410156, 4213.846191, 4194.871582, 4211.281738, 4198.974121, 4205.641113, 4273.846191, 4218.461426, 4220.512695, 4321.538574, 4204.102539, 3534.000000, 8829.000000, 8098.000000, 0.000000, 0.000000, 0.000000, 17629.000000, 758.974365, 4.000000, 4.000000, 4.000000, 4.000000, 4.000000, 4.000000, 4.000000, 4.000000, 4.000000, 4.000000, 4.000000, 4.000000, 4.000000, 4.000000, 4.000000, 4.000000
2.000000, 0.000000, 4148.717773, 4180.512695, 4185.127930, 4196.922852, 4212.307617, 4189.743652, 4210.256348, 4195.384277, 4200.000000, 4273.846191, 4217.948730, 4212.820313, 4315.384277, 4196.410156, 2757.000000, 8829.000000, 8098.000000, 0.000000, 0.000000, 0.000000, 17629.000000, 766.666626, 4.000000, 4.000000, 4.000000, 4.000000, 4.000000, 4.000000, 4.000000, 4.000000, 4.000000, 4.000000, 4.000000, 4.000000, 4.000000, 4.000000, 4.000000, 4.000000
3.000000, 0.000000, 4153.846191, 4185.127930, 4187.692383, 4209.743652, 4209.230469, 4197.436035, 4215.897461, 4208.717773, 4205.127930, 4254.358887, 4209.743652, 4215.384277, 4310.256348, 4198.974121, 3559.000000, 8824.000000, 8101.000000, 0.000000, 0.000000, 0.000000, 17629.000000, 774.871765, 4.000000, 4.000000, 4.000000, 4.000000, 4.000000, 4.000000, 4.000000, 4.000000, 4.000000, 4.000000, 4.000000, 4.000000, 4.000000, 4.000000, 4.000000, 4.000000
4.000000, 0.000000, 4160.512695, 4185.641113, 4193.333008, 4209.743652, 4201.538574, 4201.025391, 4211.794922, 4208.717773, 4202.563965, 4257.948730, 4209.230469, 4220.512695, 4316.922852, 4206.153809, 3528.000000, 8824.000000, 8101.000000, 0.000000, 0.000000, 0.000000, 17629.000000, 782.564087, 4.000000, 4.000000, 4.000000, 4.000000, 4.000000, 4.000000, 4.000000, 4.000000, 4.000000, 4.000000, 4.000000, 4.000000, 4.000000, 4.000000, 4.000000, 4.000000
5.000000, 0.000000, 4155.384277, 4178.461426, 4191.794922, 4201.025391, 4206.153809, 4203.589844, 4207.179199, 4196.922852, 4192.307617, 4268.717773, 4206.666504, 4216.922852, 4311.794922, 4197.436035, 3705.000000, 8811.000000, 8105.000000, 0.000000, 0.000000, 0.000000, 17629.000000, 790.769226, 4.000000, 4.000000, 4.000000, 4.000000, 4.000000, 4.000000, 4.000000, 4.000000, 4.000000, 4.000000, 4.000000, 4.000000, 4.000000, 4.000000, 4.000000, 4.000000
6.000000, 0.000000, 4147.179199, 4163.076660, 4185.641113, 4197.948730, 4216.410156, 4218.461426, 4214.358887, 4189.743652, 4184.102539, 4263.076660, 4193.846191, 4214.871582, 4292.307617, 4198.461426, 3458.000000, 8811.000000, 8105.000000, 0.000000, 0.000000, 0.000000, 17629.000000, 798.461548, 4.000000, 4.000000, 4.000000, 4.000000, 4.000000, 4.000000, 4.000000, 4.000000, 4.000000, 4.000000, 4.000000, 4.000000, 4.000000, 4.000000, 4.000000, 4.000000
7.000000, 0.000000, 4149.743652, 4158.974121, 4188.717773, 4200.000000, 4221.025391, 4222.563965, 4222.563965, 4195.384277, 4192.307617, 4274.871582, 4194.358887, 4209.230469, 4297.436035, 4198.461426, 3192.000000, 8759.000000, 8119.000000, 0.000000, 0.000000, 0.000000, 17629.000000, 806.666626, 4.000000, 4.000000, 4.000000, 4.000000, 4.000000, 4.000000, 4.000000, 4.000000, 4.000000, 4.000000, 4.000000, 4.000000, 4.000000, 4.000000, 4.000000, 4.000000
8.000000, 0.000000, 4161.025391, 4168.205078, 4198.461426, 4201.025391, 4224.102539, 4215.384277, 4227.692383, 4216.410156, 4214.358887, 4308.717773, 4207.692383, 4218.461426, 4313.333008, 4203.589844, 3531.000000, 8759.000000, 8119.000000, 0.000000, 0.000000, 0.000000, 17629.000000, 814.358948, 4.000000, 4.000000, 4.000000, 4.000000, 4.000000, 4.000000, 4.000000, 4.000000, 4.000000, 4.000000, 4.000000, 4.000000, 4.000000, 4.000000, 4.000000, 4.000000
9.000000, 0.000000, 4158.461426, 4163.589844, 4200.000000, 4196.410156, 4217.948730, 4215.897461, 4227.179199, 4217.436035, 4214.358887, 4321.538574, 4210.256348, 4224.615234, 4303.589844, 4205.127930, 3520.000000, 8722.000000, 8125.000000, 0.000000, 0.000000, 0.000000, 17629.000000, 822.564087, 4.000000, 4.000000, 4.000000, 4.000000, 4.000000, 4.000000, 4.000000, 4.000000, 4.000000, 4.000000, 4.000000, 4.000000, 4.000000, 4.000000, 4.000000, 4.000000
10.000000, 0.000000, 4155.897461, 4158.974121, 4196.922852, 4194.871582, 4210.256348, 4207.179199, 4213.333008, 4191.794922, 4192.307617, 4306.666504, 4203.076660, 4212.820313, 4300.000000, 4195.384277, 3127.000000, 8722.000000, 8125.000000, 0.000000, 0.000000, 0.000000, 17629.000000, 830.256409, 4.000000, 4.000000, 4.000000, 4.000000, 4.000000, 4.000000, 4.000000, 4.000000, 4.000000, 4.000000, 4.000000, 4.000000, 4.000000, 4.000000, 4.000000, 4.000000
11.000000, 0.000000, 4167.179199, 4171.281738, 4200.000000, 4203.076660, 4216.410156, 4186.666504, 4202.051270, 4188.205078, 4189.230469, 4307.179199, 4198.974121, 4215.897461, 4315.897461, 4206.153809, 1687.000000, 8643.000000, 8141.000000, 0.000000, 0.000000, 0.000000, 17629.000000, 838.461548, 4.000000, 4.000000, 4.000000, 4.000000, 4.000000, 4.000000, 4.000000, 4.000000, 4.000000, 4.000000, 4.000000, 4.000000, 4.000000, 4.000000, 4.000000, 4.000000
12.000000, 0.000000, 4169.743652, 4172.820313, 4201.025391, 4206.153809, 4212.307617, 4188.717773, 4203.076660, 4207.692383, 4205.641113, 4324.102539, 4205.641113, 4218.974121, 4306.153809, 4204.102539, 3482.000000, 8643.000000, 8141.000000, 0.000000, 0.000000, 0.000000, 17629.000000, 846.153809, 4.000000, 4.000000, 4.000000, 4.000000, 4.000000, 4.000000, 4.000000, 4.000000, 4.000000, 4.000000, 4.000000, 4.000000, 4.000000, 4.000000, 4.000000, 4.000000
13.000000, 0.000000, 4165.127930, 4163.076660, 4200.000000, 4200.512695, 4196.922852, 4203.076660, 4202.563965, 4211.794922, 4205.127930, 4325.641113, 4213.333008, 4217.436035, 4290.769043, 4195.897461, 2503.000000, 8600.000000, 8132.000000, 0.000000, 0.000000, 0.000000, 17629.000000, 853.846130, 4.000000, 4.000000, 4.000000, 4.000000, 4.000000, 4.000000, 4.000000, 4.000000, 4.000000, 4.000000, 4.000000, 4.000000, 4.000000, 4.000000, 4.000000, 4.000000
14.000000, 0.000000, 4169.743652, 4166.666504, 4206.153809, 4203.076660, 4203.076660, 4196.410156, 4198.974121, 4208.205078, 4197.436035, 4322.051270, 4213.846191, 4223.589844, 4302.563965, 4205.127930, 3127.000000, 8600.000000, 8132.000000, 0.000000, 0.000000, 0.000000, 17629.000000, 861.538452, 4.000000, 4.000000, 4.000000, 4.000000, 4.000000, 4.000000, 4.000000, 4.000000, 4.000000, 4.000000, 4.000000, 4.000000, 4.000000, 4.000000, 4.000000, 4.000000
15.000000, 0.000000, 4177.436035, 4173.333008, 4215.384277, 4211.281738, 4209.743652, 4183.076660, 4197.436035, 4209.743652, 4205.127930, 4325.641113, 4217.436035, 4223.589844, 4311.794922, 4204.615234, 1687.000000, 8492.000000, 8119.000000, 0.000000, 0.000000, 0.000000, 17629.000000, 869.743591, 4.000000, 4.000000, 4.000000, 4.000000, 4.000000, 4.000000, 4.000000, 4.000000, 4.000000, 4.000000, 4.000000, 4.000000, 4.000000, 4.000000, 4.000000, 4.000000
16.000000, 0.000000, 4186.153809, 4170.769043, 4218.974121, 4211.794922, 4207.179199, 4193.846191, 4206.666504, 4209.743652, 4210.256348, 4326.666504, 4222.563965, 4227.179199, 4301.538574, 4206.153809, 0.000000, 8492.000000, 8119.000000, 0.000000, 0.000000, 0.000000, 17629.000000, 877.948669, 4.000000, 4.000000, 4.000000, 4.000000, 4.000000, 4.000000, 4.000000, 4.000000, 4.000000, 4.000000, 4.000000, 4.000000, 4.000000, 4.000000, 4.000000, 4.000000
17.000000, 0.000000, 4189.230469, 4171.281738, 4218.974121, 4207.692383, 4214.358887, 4207.692383, 4215.897461, 4211.794922, 4206.153809, 4327.692383, 4222.051270, 4230.769043, 4296.410156, 4204.615234, 0.000000, 8460.000000, 8110.000000, 0.000000, 0.000000, 0.000000, 17629.000000, 885.640991, 4.000000, 4.000000, 4.000000, 4.000000, 4.000000, 4.000000, 4.000000, 4.000000, 4.000000, 4.000000, 4.000000, 4.000000, 4.000000, 4.000000, 4.000000, 4.000000
18.000000, 0.000000, 4186.153809, 4168.717773, 4215.384277, 4202.563965, 4218.974121, 4194.871582, 4206.153809, 4208.717773, 4205.127930, 4321.025391, 4215.897461, 4232.820313, 4296.410156, 4202.563965, 0.000000, 8460.000000, 8110.000000, 0.000000, 0.000000, 0.000000, 17629.000000, 893.333313, 4.000000, 4.000000, 4.000000, 4.000000, 4.000000, 4.000000, 4.000000, 4.000000, 4.000000, 4.000000, 4.000000, 4.000000, 4.000000, 4.000000, 4.000000, 4.000000
19.000000, 0.000000, 4189.230469, 4164.615234, 4215.384277, 4203.589844, 4213.333008, 4186.153809, 4194.358887, 4201.025391, 4215.384277, 4308.717773, 4217.436035, 4232.820313, 4295.384277, 4210.256348, 0.000000, 8419.000000, 8103.000000, 0.000000, 0.000000, 0.000000, 17629.000000, 901.538452, 4.000000, 4.000000, 4.000000, 4.000000, 4.000000, 4.000000, 4.000000, 4.000000, 4.000000, 4.000000, 4.000000, 4.000000, 4.000000, 4.000000, 4.000000, 4.000000
20.000000, 0.000000, 4201.025391, 4172.820313, 4223.076660, 4214.871582, 4215.384277, 4202.563965, 4205.127930, 4201.538574, 4218.974121, 4311.794922, 4229.743652, 4230.769043, 4293.333008, 4205.641113, 0.000000, 8419.000000, 8103.000000, 0.000000, 0.000000, 0.000000, 17629.000000, 909.230774, 4.000000, 4.000000, 4.000000, 4.000000, 4.000000, 4.000000, 4.000000, 4.000000, 4.000000, 4.000000, 4.000000, 4.000000, 4.000000, 4.000000, 4.000000, 4.000000
21.000000, 0.000000, 4204.102539, 4173.333008, 4226.666504, 4214.358887, 4220.512695, 4207.179199, 4220.512695, 4204.615234, 4210.769043, 4322.051270, 4230.256348, 4237.436035, 4284.615234, 4205.127930, 0.000000, 8340.000000, 8089.000000, 0.000000, 0.000000, 0.000000, 17629.000000, 917.435852, 4.000000, 4.000000, 4.000000, 4.000000, 4.000000, 4.000000, 4.000000, 4.000000, 4.000000, 4.000000, 4.000000, 4.000000, 4.000000, 4.000000, 4.000000, 4.000000
22.000000, 0.000000, 4191.794922, 4156.922852, 4214.358887, 4198.974121, 4202.051270, 4189.743652, 4217.948730, 4211.281738, 4210.256348, 4316.410156, 4214.358887, 4229.743652, 4269.743652, 4202.051270, 0.000000, 8340.000000, 8089.000000, 0.000000, 0.000000, 0.000000, 17629.000000, 925.128174, 4.000000, 4.000000, 4.000000, 4.000000, 4.000000, 4.000000, 4.000000, 4.000000, 4.000000, 4.000000, 4.000000, 4.000000, 4.000000, 4.000000, 4.000000, 4.000000
23.000000, 0.000000, 4186.666504, 4148.205078, 4200.512695, 4194.871582, 4180.512695, 4189.230469, 4215.384277, 4222.051270, 4218.974121, 4309.743652, 4209.230469, 4220.512695, 4260.000000, 4196.922852, 0.000000, 8314.000000, 8092.000000, 0.000000, 0.000000, 0.000000, 17629.000000, 933.333313, 4.000000, 4.000000, 4.000000, 4.000000, 4.000000, 4.000000, 4.000000, 4.000000, 4.000000, 4.000000, 4.000000, 4.000000, 4.000000, 4.000000, 4.000000, 4.000000
24.000000, 0.000000, 4189.743652, 4149.743652, 4197.436035, 4198.461426, 4191.281738, 4203.589844, 4218.974121, 4227.692383, 4224.615234, 4316.922852, 4215.384277, 4228.205078, 4262.051270, 4202.563965, 0.000000, 8314.000000, 8092.000000, 0.000000, 0.000000, 0.000000, 17629.000000, 941.025635, 4.000000, 4.000000, 4.000000, 4.000000, 4.000000, 4.000000, 4.000000, 4.000000, 4.000000, 4.000000, 4.000000, 4.000000, 4.000000, 4.000000, 4.000000, 4.000000
25.000000, 0.000000, 4188.717773, 4147.692383, 4198.974121, 4194.358887, 4211.794922, 4207.179199, 4218.974121, 4228.717773, 4226.153809, 4318.461426, 4211.794922, 4224.102539, 4263.076660, 4195.897461, 0.000000, 8282.000000, 8110.000000, 0.000000, 0.000000, 0.000000, 17629.000000, 948.717896, 4.000000, 4.000000, 4.000000, 4.000000, 4.000000, 4.000000, 4.000000, 4.000000, 4.000000, 4.000000, 4.000000, 4.000000, 4.000000, 4.000000, 4.000000, 4.000000
26.000000, 0.000000, 4184.615234, 4135.384277, 4195.897461, 4185.641113, 4202.563965, 4198.461426, 4216.922852, 4226.153809, 4218.974121, 4306.666504, 4199.487305, 4219.487305, 4252.820313, 4197.436035, 0.000000, 8282.000000, 8110.000000, 0.000000, 0.000000, 0.000000, 17629.000000, 956.923035, 4.000000, 4.000000, 4.000000, 4.000000, 4.000000, 4.000000, 4.000000, 4.000000, 4.000000, 4.000000, 4.000000, 4.000000, 4.000000, 4.000000, 4.000000, 4.000000
27.000000, 0.000000, 4173.846191, 4115.897461, 4187.179199, 4174.358887, 4184.615234, 4181.538574, 4216.410156, 4213.333008, 4205.641113, 4288.205078, 4186.666504, 4215.384277, 4241.025391, 4197.436035, 0.000000, 8271.000000, 8122.000000, 0.000000, 0.000000, 0.000000, 17629.000000, 964.615356, 4.000000, 4.000000, 4.000000, 4.000000, 4.000000, 4.000000, 4.000000, 4.000000, 4.000000, 4.000000, 4.000000, 4.000000, 4.000000, 4.000000, 4.000000, 4.000000
28.000000, 0.000000, 4170.769043, 4109.743652, 4183.076660, 4168.205078, 4183.076660, 4175.897461, 4213.846191, 4205.127930, 4204.615234, 4277.948730, 4178.461426, 4209.743652, 4237.948730, 4191.281738, 0.000000, 8271.000000, 8122.000000, 0.000000, 0.000000, 0.000000, 17629.000000, 972.307678, 4.000000, 4.000000, 4.000000, 4.000000, 4.000000, 4.000000, 4.000000, 4.000000, 4.000000, 4.000000, 4.000000, 4.000000, 4.000000, 4.000000, 4.000000, 4.000000
29.000000, 0.000000, 4181.025391, 4119.487305, 4186.153809, 4170.769043, 4185.127930, 4182.051270, 4213.846191, 4208.717773, 4209.230469, 4283.589844, 4180.000000, 4212.307617, 4244.615234, 4202.563965, 0.000000, 8258.000000, 8132.000000, 0.000000, 0.000000, 0.000000, 17629.000000, 980.512817, 4.000000, 4.000000, 4.000000, 4.000000, 4.000000, 4.000000, 4.000000, 4.000000, 4.000000, 4.000000, 4.000000, 4.000000, 4.000000, 4.000000, 4.000000, 4.000000
30.000000, 0.000000, 4185.127930, 4124.615234, 4184.615234, 4174.871582, 4188.717773, 4187.179199, 4212.820313, 4209.230469, 4208.205078, 4284.615234, 4181.538574, 4209.230469, 4246.153809, 4201.025391, 0.000000, 8258.000000, 8132.000000, 0.000000, 0.000000, 0.000000, 17629.000000, 988.205078, 4.000000, 4.000000, 4.000000, 4.000000, 4.000000, 4.000000, 4.000000, 4.000000, 4.000000, 4.000000, 4.000000, 4.000000, 4.000000, 4.000000, 4.000000, 4.000000
31.000000, 0.000000, 4183.076660, 4121.025391, 4181.538574, 4176.410156, 4189.743652, 4193.846191, 4205.127930, 4203.589844, 4203.589844, 4279.487305, 4173.333008, 4209.230469, 4237.948730, 4194.871582, 0.000000, 8234.000000, 8159.000000, 0.000000, 0.000000, 0.000000, 17629.000000, 995.897400, 4.000000, 4.000000, 4.000000, 4.000000, 4.000000, 4.000000, 4.000000, 4.000000, 4.000000, 4.000000, 4.000000, 4.000000, 4.000000, 4.000000, 4.000000, 4.000000
32.000000, 0.000000, 4183.589844, 4120.000000, 4190.256348, 4182.051270, 4179.487305, 4197.948730, 4204.615234, 4201.025391, 4197.436035, 4278.461426, 4166.666504, 4207.692383, 4231.794922, 4197.948730, 0.000000, 8234.000000, 8159.000000, 0.000000, 0.000000, 0.000000, 17630.000000, 3.589744, 4.000000, 4.000000, 4.000000, 4.000000, 4.000000, 4.000000, 4.000000, 4.000000, 4.000000, 4.000000, 4.000000, 4.000000, 4.000000, 4.000000, 4.000000, 4.000000
33.000000, 0.000000, 4187.179199, 4122.563965, 4206.153809, 4189.743652, 4183.589844, 4195.897461, 4214.358887, 4205.127930, 4199.487305, 4268.717773, 4169.743652, 4207.692383, 4229.230469, 4196.922852, 0.000000, 8227.000000, 8178.000000, 0.000000, 0.000000, 0.000000, 17630.000000, 11.794871, 4.000000, 4.000000, 4.000000, 4.000000, 4.000000, 4.000000, 4.000000, 4.000000, 4.000000, 4.000000, 4.000000, 4.000000, 4.000000, 4.000000, 4.000000, 4.000000
34.000000, 0.000000, 4187.179199, 4117.948730, 4203.589844, 4183.589844, 4194.358887, 4192.307617, 4214.871582, 4203.076660, 4195.384277, 4257.436035, 4167.179199, 4211.281738, 4221.538574, 4200.000000, 0.000000, 8227.000000, 8178.000000, 0.000000, 0.000000, 0.000000, 17630.000000, 19.487179, 4.000000, 4.000000, 4.000000, 4.000000, 4.000000, 4.000000, 4.000000, 4.000000, 4.000000, 4.000000, 4.000000, 4.000000, 4.000000, 4.000000, 4.000000, 4.000000
35.000000, 0.000000, 4177.436035, 4106.153809, 4178.974121, 4164.102539, 4177.436035, 4187.692383, 4210.256348, 4196.410156, 4186.153809, 4264.102539, 4154.871582, 4197.948730, 4214.358887, 4195.384277, 0.000000, 8203.000000, 8221.000000, 0.000000, 0.000000, 0.000000, 17630.000000, 27.179487, 4.000000, 4.000000, 4.000000, 4.000000, 4.000000, 4.000000, 4.000000, 4.000000, 4.000000, 4.000000, 4.000000, 4.000000, 4.000000, 4.000000, 4.000000, 4.000000
36.000000, 0.000000, 4172.820313, 4098.461426, 4167.179199, 4156.410156, 4161.538574, 4181.538574, 4211.794922, 4201.538574, 4192.307617, 4265.641113, 4148.205078, 4193.846191, 4212.820313, 4194.358887, 0.000000, 8203.000000, 8221.000000, 0.000000, 0.000000, 0.000000, 17630.000000, 34.871796, 4.000000, 4.000000, 4.000000, 4.000000, 4.000000, 4.000000, 4.000000, 4.000000, 4.000000, 4.000000, 4.000000, 4.000000, 4.000000, 4.000000, 4.000000, 4.000000
37.000000, 0.000000, 4174.871582, 4102.563965, 4178.974121, 4165.127930, 4177.436035, 4184.615234, 4206.153809, 4207.179199, 4198.974121, 4253.846191, 4153.846191, 4199.487305, 4212.820313, 4200.000000, 0.000000, 8188.000000, 8235.000000, 0.000000, 0.000000, 0.000000, 17630.000000, 43.076923, 4.000000, 4.000000, 4.000000, 4.000000, 4.000000, 4.000000, 4.000000, 4.000000, 4.000000, 4.000000, 4.000000, 4.000000, 4.000000, 4.000000, 4.000000, 4.000000
38.000000, 0.000000, 4180.512695, 4110.769043, 4187.179199, 4170.256348, 4195.897461, 4188.717773, 4197.948730, 4202.563965, 4190.769043, 4250.769043, 4157.436035, 4197.436035, 4212.820313, 4197.436035, 0.000000, 8188.000000, 8235.000000, 0.000000, 0.000000, 0.000000, 17630.000000, 50.769230, 4.000000, 4.000000, 4.000000, 4.000000, 4.000000, 4.000000, 4.000000, 4.000000, 4.000000, 4.000000, 4.000000, 4.000000, 4.000000, 4.000000, 4.000000, 4.000000
39.000000, 0.000000, 4186.153809, 4109.743652, 4183.589844, 4165.641113, 4182.563965, 4182.051270, 4199.487305, 4196.922852, 4185.127930, 4246.153809, 4151.281738, 4198.974121, 4208.717773, 4201.538574, 0.000000, 8178.000000, 8253.000000, 0.000000, 0.000000, 0.000000, 17630.000000, 58.974358, 4.000000, 4.000000, 4.000000, 4.000000, 4.000000, 4.000000, 4.000000, 4.000000, 4.000000, 4.000000, 4.000000, 4.000000, 4.000000, 4.000000, 4.000000, 4.000000
40.000000, 0.000000, 4185.127930, 4113.846191, 4182.051270, 4169.743652, 4168.205078, 4184.615234, 4200.512695, 4200.000000, 4195.384277, 4244.102539, 4154.358887, 4200.000000, 4210.256348, 4200.512695, 0.000000, 8178.000000, 8253.000000, 0.000000, 0.000000, 0.000000, 17630.000000, 66.666664, 4.000000, 4.000000, 4.000000, 4.000000, 4.000000, 4.000000, 4.000000, 4.000000, 4.000000, 4.000000, 4.000000, 4.000000, 4.000000, 4.000000, 4.000000, 4.000000
41.000000, 0.000000, 4185.127930, 4118.974121, 4185.641113, 4175.897461, 4182.563965, 4195.384277, 4203.589844, 4200.000000, 4195.897461, 4253.846191, 4166.666504, 4206.153809, 4212.820313, 4198.974121, 0.000000, 8165.000000, 8248.000000, 0.000000, 0.000000, 0.000000, 17630.000000, 74.871796, 4.000000, 4.000000, 4.000000, 4.000000, 4.000000, 4.000000, 4.000000, 4.000000, 4.000000, 4.000000, 4.000000, 4.000000, 4.000000, 4.000000, 4.000000, 4.000000
42.000000, 0.000000, 4182.563965, 4111.281738, 4184.615234, 4172.307617, 4195.384277, 4196.410156, 4200.000000, 4188.205078, 4186.666504, 4253.333008, 4168.205078, 4207.179199, 4204.102539, 4202.563965, 0.000000, 8165.000000, 8248.000000, 0.000000, 0.000000, 0.000000, 17630.000000, 82.564102, 4.000000, 4.000000, 4.000000, 4.000000, 4.000000, 4.000000, 4.000000, 4.000000, 4.000000, 4.000000, 4.000000, 4.000000, 4.000000, 4.000000, 4.000000, 4.000000
43.000000, 0.000000, 4183.076660, 4111.794922, 4182.051270, 4171.281738, 4191.794922, 4183.076660, 4182.563965, 4182.051270, 4188.717773, 4247.692383, 4166.153809, 4201.025391, 4204.102539, 4197.436035, 0.000000, 8163.000000, 8238.000000, 0.000000, 0.000000, 0.000000, 17630.000000, 90.256409, 4.000000, 4.000000, 4.000000, 4.000000, 4.000000, 4.000000, 4.000000, 4.000000, 4.000000, 4.000000, 4.000000, 4.000000, 4.000000, 4.000000, 4.000000, 4.000000
44.000000, 0.000000, 4191.281738, 4121.025391, 4184.102539, 4171.794922, 4179.487305, 4168.717773, 4172.307617, 4191.281738, 4194.871582, 4248.205078, 4171.794922, 4205.641113, 4210.256348, 4203.076660, 0.000000, 8163.000000, 8238.000000, 0.000000, 0.000000, 0.000000, 17630.000000, 98.461533, 4.000000, 4.000000, 4.000000, 4.000000, 4.000000, 4.000000, 4.000000, 4.000000, 4.000000, 4.000000, 4.000000, 4.000000, 4.000000, 4.000000, 4.000000, 4.000000
45.000000, 0.000000, 4192.820313, 4123.589844, 4189.230469, 4171.794922, 4176.410156, 4168.717773, 4182.563965, 4200.000000, 4202.051270, 4252.307617, 4178.461426, 4208.717773, 4206.666504, 4203.589844, 0.000000, 8166.000000, 8234.000000, 0.000000, 0.000000, 0.000000, 17630.000000, 106.153847, 4.000000, 4.000000, 4.000000, 4.000000, 4.000000, 4.000000, 4.000000, 4.000000, 4.000000, 4.000000, 4.000000, 4.000000, 4.000000, 4.000000, 4.000000, 4.000000
46.000000, 0.000000, 4197.436035, 4125.127930, 4196.410156, 4177.948730, 4177.948730, 4178.974121, 4193.846191, 4206.666504, 4212.820313, 4261.538574, 4183.589844, 4214.358887, 4206.666504, 4201.025391, 0.000000, 8166.000000, 8234.000000, 0.000000, 0.000000, 0.000000, 17630.000000, 113.846153, 4.000000, 4.000000, 4.000000, 4.000000, 4.000000, 4.000000, 4.000000, 4.000000, 4.000000, 4.000000, 4.000000, 4.000000, 4.000000, 4.000000, 4.000000, 4.000000
47.000000, 0.000000, 4204.615234, 4129.743652, 4202.051270, 4183.076660, 4175.897461, 4185.127930, 4200.512695, 4216.922852, 4216.922852, 4264.102539, 4188.205078, 4221.538574, 4207.179199, 4206.153809, 0.000000, 8163.000000, 8223.000000, 0.000000, 0.000000, 0.000000, 17630.000000, 122.051277, 4.000000, 4.000000, 4.000000, 4.000000, 4.000000, 4.000000, 4.000000, 4.000000, 4.000000, 4.000000, 4.000000, 4.000000, 4.000000, 4.000000, 4.000000, 4.000000
48.000000, 0.000000, 4201.025391, 4125.127930, 4201.025391, 4181.538574, 4178.974121, 4184.102539, 4208.205078, 4214.871582, 4211.794922, 4254.358887, 4181.538574, 4214.358887, 4190.769043, 4196.922852, 0.000000, 8163.000000, 8223.000000, 0.000000, 0.000000, 0.000000, 17630.000000, 129.743591, 4.000000, 4.000000, 4.000000, 4.000000, 4.000000, 4.000000, 4.000000, 4.000000, 4.000000, 4.000000, 4.000000, 4.000000, 4.000000, 4.000000, 4.000000, 4.000000
49.000000, 0.000000, 4195.897461, 4117.948730, 4198.461426, 4178.974121, 4182.051270, 4180.000000, 4204.615234, 4207.179199, 4208.205078, 4245.127930, 4169.230469, 4215.897461, 4178.974121, 4197.948730, 0.000000, 8174.000000, 8182.000000, 0.000000, 0.000000, 0.000000, 17630.000000, 137.435898, 4.000000, 4.000000, 4.000000, 4.000000, 4.000000, 4.000000, 4.000000, 4.000000, 4.000000, 4.000000, 4.000000, 4.000000, 4.000000, 4.000000, 4.000000, 4.000000
50.000000, 0.000000, 4196.922852, 4120.000000, 4200.000000, 4178.974121, 4187.692383, 4178.974121, 4193.846191, 4211.794922, 4211.281738, 4247.179199, 4169.230469, 4216.410156, 4183.589844, 4199.487305, 0.000000, 8174.000000, 8182.000000, 0.000000, 0.000000, 0.000000, 17630.000000, 145.128204, 4.000000, 4.000000, 4.000000, 4.000000, 4.000000, 4.000000, 4.000000, 4.000000, 4.000000, 4.000000, 4.000000, 4.000000, 4.000000, 4.000000, 4.000000, 4.000000
51.000000, 0.000000, 4201.538574, 4125.641113, 4198.974121, 4180.512695, 4193.846191, 4182.563965, 4196.410156, 4219.487305, 4213.846191, 4251.794922, 4174.358887, 4211.794922, 4184.102539, 4197.436035, 0.000000, 8185.000000, 8166.000000, 0.000000, 0.000000, 0.000000, 17630.000000, 153.333328, 4.000000, 4.000000, 4.000000, 4.000000, 4.000000, 4.000000, 4.000000, 4.000000, 4.000000, 4.000000, 4.000000, 4.000000, 4.000000, 4.000000, 4.000000, 4.000000
52.000000, 0.000000, 4203.076660, 4130.256348, 4193.846191, 4186.666504, 4194.358887, 4191.281738, 4205.127930, 4216.410156, 4216.922852, 4251.281738, 4172.307617, 4211.794922, 4182.051270, 4205.127930, 0.000000, 8185.000000, 8166.000000, 0.000000, 0.000000, 0.000000, 17630.000000, 161.025635, 4.000000, 4.000000, 4.000000, 4.000000, 4.000000, 4.000000, 4.000000, 4.000000, 4.000000, 4.000000, 4.000000, 4.000000, 4.000000, 4.000000, 4.000000, 4.000000
53.000000, 0.000000, 4200.000000, 4131.794922, 4187.179199, 4189.743652, 4194.871582, 4196.410156, 4202.563965, 4209.230469, 4216.410156, 4243.589844, 4170.256348, 4205.641113, 4177.436035, 4196.922852, 0.000000, 8197.000000, 8144.000000, 0.000000, 0.000000, 0.000000, 17630.000000, 168.717941, 4.000000, 4.000000, 4.000000, 4.000000, 4.000000, 4.000000, 4.000000, 4.000000, 4.000000, 4.000000, 4.000000, 4.000000, 4.000000, 4.000000, 4.000000, 4.000000
54.000000, 0.000000, 4200.000000, 4132.820313, 4186.666504, 4184.102539, 4196.410156, 4194.871582, 4196.410156, 4208.205078, 4213.333008, 4231.794922, 4172.307617, 4209.743652, 4170.256348, 4198.974121, 0.000000, 8197.000000, 8144.000000, 0.000000, 0.000000, 0.000000, 17630.000000, 176.410248, 4.000000, 4.000000, 4.000000, 4.000000, 4.000000, 4.000000, 4.000000, 4.000000, 4.000000, 4.000000, 4.000000, 4.000000, 4.000000, 4.000000, 4.000000, 4.000000
55.000000, 0.000000, 4200.000000, 4132.307617, 4192.307617, 4183.076660, 4196.922852, 4188.717773, 4203.076660, 4213.846191, 4208.205078, 4227.692383, 4171.281738, 4214.358887, 4169.230469, 4204.615234, 0.000000, 8215.000000, 8120.000000, 1.000000, 2.000000, 0.000000, 17630.000000, 184.615387, 4.000000, 4.000000, 4.000000, 4.000000, 4.000000, 4.000000, 4.000000, 4.000000, 4.000000, 4.000000, 4.000000, 4.000000, 4.000000, 4.000000, 4.000000, 4.000000
56.000000, 0.000000, 4203.076660, 4136.922852, 4200.000000, 4190.256348, 4195.384277, 4188.717773, 4201.538574, 4214.871582, 4201.025391, 4235.897461, 4172.307617, 4213.846191, 4175.897461, 4198.974121, 0.000000, 8215.000000, 8120.000000, 0.000000, 0.000000, 0.000000, 17630.000000, 192.307693, 4.000000, 4.000000, 4.000000, 4.000000, 4.000000, 4.000000, 4.000000, 4.000000, 4.000000, 4.000000, 4.000000, 4.000000, 4.000000, 4.000000, 4.000000, 4.000000
57.000000, 0.000000, 4207.692383, 4148.205078, 4208.205078, 4197.948730, 4193.333008, 4200.512695, 4201.538574, 4212.820313, 4207.692383, 4247.692383, 4178.974121, 4220.512695, 4180.512695, 4203.076660, 0.000000, 8220.000000, 8122.000000, 0.000000, 0.000000, 0.000000, 17630.000000, 200.000000, 4.000000, 4.000000, 4.000000, 4.000000, 4.000000, 4.000000, 4.000000, 4.000000, 4.000000, 4.000000, 4.000000, 4.000000, 4.000000, 4.000000, 4.000000, 4.000000
58.000000, 0.000000, 4203.589844, 4148.205078, 4204.615234, 4193.333008, 4189.743652, 4198.974121, 4214.358887, 4220.512695, 4224.102539, 4241.538574, 4177.436035, 4216.410156, 4174.358887, 4199.487305, 0.000000, 8220.000000, 8122.000000, 0.000000, 0.000000, 0.000000, 17630.000000, 207.692307, 4.000000, 4.000000, 4.000000, 4.000000, 4.000000, 4.000000, 4.000000, 4.000000, 4.000000, 4.000000, 4.000000, 4.000000, 4.000000, 4.000000, 4.000000, 4.000000
59.000000, 0.000000, 4198.461426, 4134.871582, 4190.769043, 4182.051270, 4186.666504, 4176.410156, 4209.230469, 4222.051270, 4212.820313, 4226.153809, 4166.666504, 4210.256348, 4167.179199, 4197.436035, 0.000000, 8227.000000, 8112.000000, 0.000000, 0.000000, 0.000000, 17630.000000, 215.897430, 4.000000, 4.000000, 4.000000, 4.000000, 4.000000, 4.000000, 4.000000, 4.000000, 4.000000, 4.000000, 4.000000, 4.000000, 4.000000, 4.000000, 4.000000, 4.000000
60.000000, 0.000000, 4197.436035, 4132.307617, 4190.256348, 4183.076660, 4188.717773, 4175.384277, 4196.922852, 4208.205078, 4193.846191, 4231.281738, 4163.076660, 4210.256348, 4170.769043, 4199.487305, 0.000000, 8227.000000, 8112.000000, 0.000000, 0.000000, 0.000000, 17630.000000, 223.589737, 4.000000, 4.000000, 4.000000, 4.000000, 4.000000, 4.000000, 4.000000, 4.000000, 4.000000, 4.000000, 4.000000, 4.000000, 4.000000, 4.000000, 4.000000, 4.000000
61.000000, 0.000000, 4201.538574, 4139.487305, 4202.563965, 4186.666504, 4194.358887, 4195.384277, 4206.153809, 4209.230469, 4205.127930, 4241.538574, 4168.717773, 4217.948730, 4173.846191, 4197.948730, 0.000000, 8226.000000, 8102.000000, 0.000000, 0.000000, 0.000000, 17630.000000, 231.282043, 4.000000, 4.000000, 4.000000, 4.000000, 4.000000, 4.000000, 4.000000, 4.000000, 4.000000, 4.000000, 4.000000, 4.000000, 4.000000, 4.000000, 4.000000, 4.000000
62.000000, 0.000000, 4203.076660, 4134.871582, 4205.127930, 4183.076660, 4194.871582, 4195.384277, 4217.948730, 4217.436035, 4216.410156, 4229.230469, 4168.205078, 4222.563965, 4169.743652, 4202.051270, 0.000000, 8226.000000, 8102.000000, 0.000000, 0.000000, 0.000000, 17630.000000, 239.487167, 4.000000, 4.000000, 4.000000, 4.000000, 4.000000, 4.000000, 4.000000, 4.000000, 4.000000, 4.000000, 4.000000, 4.000000, 4.000000, 4.000000, 4.000000, 4.000000
63.000000, 0.000000, 4198.461426, 4130.769043, 4196.410156, 4181.538574, 4189.743652, 4183.589844, 4214.358887, 4210.769043, 4210.769043, 4213.846191, 4160.512695, 4209.743652, 4168.205078, 4195.897461, 0.000000, 8225.000000, 8101.000000, 0.000000, 0.000000, 0.000000, 17630.000000, 247.179474, 4.000000, 4.000000, 4.000000, 4.000000, 4.000000, 4.000000, 4.000000, 4.000000, 4.000000, 4.000000, 4.000000, 4.000000, 4.000000, 4.000000, 4.000000, 4.000000
64.000000, 0.000000, 4198.974121, 4131.794922, 4198.974121, 4184.102539, 4182.563965, 4182.563965, 4207.692383, 4208.205078, 4210.769043, 4214.871582, 4154.871582, 4207.179199, 4164.615234, 4196.410156, 3505.000000, 8225.000000, 8101.000000, 0.000000, 0.000000, 0.000000, 17630.000000, 254.871796, 4.000000, 4.000000, 4.000000, 4.000000, 4.000000, 4.000000, 4.000000, 4.000000, 4.000000, 4.000000, 4.000000, 4.000000, 4.000000, 4.000000, 4.000000, 4.000000
65.000000, 0.000000, 4200.512695, 4132.307617, 4203.076660, 4183.076660, 4183.076660, 4185.127930, 4200.512695, 4215.384277, 4210.769043, 4216.922852, 4149.230469, 4208.205078, 4155.384277, 4199.487305, 3536.000000, 8219.000000, 8081.000000, 0.000000, 0.000000, 0.000000, 17630.000000, 263.076904, 4.000000, 4.000000, 4.000000, 4.000000, 4.000000, 4.000000, 4.000000, 4.000000, 4.000000, 4.000000, 4.000000, 4.000000, 4.000000, 4.000000, 4.000000, 4.000000
66.000000, 0.000000, 4194.871582, 4130.256348, 4192.820313, 4176.922852, 4182.051270, 4183.589844, 4189.743652, 4203.076660, 4197.948730, 4205.641113, 4140.512695, 4196.922852, 4150.769043, 4190.769043, 2750.000000, 8219.000000, 8081.000000, 0.000000, 0.000000, 0.000000, 17630.000000, 270.769226, 4.000000, 4.000000, 4.000000, 4.000000, 4.000000, 4.000000, 4.000000, 4.000000, 4.000000, 4.000000, 4.000000, 4.000000, 4.000000, 4.000000, 4.000000, 4.000000
67.000000, 0.000000, 4185.641113, 4123.589844, 4181.538574, 4168.717773, 4174.871582, 4181.538574, 4183.589844, 4175.897461, 4177.948730, 4184.102539, 4132.307617, 4190.256348, 4149.743652, 4195.384277, 3558.000000, 8209.000000, 8062.000000, 0.000000, 0.000000, 0.000000, 17630.000000, 278.974365, 4.000000, 4.000000, 4.000000, 4.000000, 4.000000, 4.000000, 4.000000, 4.000000, 4.000000, 4.000000, 4.000000, 4.000000, 4.000000, 4.000000, 4.000000, 4.000000
68.000000, 0.000000, 4185.127930, 4122.563965, 4181.538574, 4168.717773, 4181.025391, 4183.076660, 4187.179199, 4169.743652, 4167.692383, 4176.410156, 4134.358887, 4190.769043, 4151.794922, 4198.974121, 3528.000000, 8209.000000, 8062.000000, 0.000000, 0.000000, 0.000000, 17630.000000, 286.666656, 4.000000, 4.000000, 4.000000, 4.000000, 4.000000, 4.000000, 4.000000, 4.000000, 4.000000, 4.000000, 4.000000, 4.000000, 4.000000, 4.000000, 4.000000, 4.000000
69.000000, 0.000000, 4200.000000, 4131.794922, 4188.717773, 4178.974121, 4196.410156, 4188.205078, 4197.436035, 4184.102539, 4177.436035, 4196.410156, 4145.641113, 4205.641113, 4160.512695, 4201.538574, 3574.000000, 8201.000000, 8045.000000, 0.000000, 0.000000, 0.000000, 17630.000000, 294.358978, 4.000000, 4.000000, 4.000000, 4.000000, 4.000000, 4.000000, 4.000000, 4.000000, 4.000000, 4.000000, 4.000000, 4.000000, 4.000000, 4.000000, 4.000000, 4.000000
70.000000, 0.000000, 4206.666504, 4140.000000, 4195.384277, 4188.717773, 4199.487305, 4192.307617, 4202.563965, 4195.897461, 4194.358887, 4214.871582, 4151.794922, 4213.333008, 4168.717773, 4205.641113, 3459.000000, 8201.000000, 8045.000000, 0.000000, 0.000000, 0.000000, 17630.000000, 302.051270, 4.000000, 4.000000, 4.000000, 4.000000, 4.000000, 4.000000, 4.000000, 4.000000, 4.000000, 4.000000, 4.000000, 4.000000, 4.000000, 4.000000, 4.000000, 4.000000
71.000000, 0.000000, 4202.563965, 4145.127930, 4197.436035, 4188.717773, 4195.384277, 4191.794922, 4200.512695, 4201.538574, 4200.000000, 4207.692383, 4150.769043, 4207.179199, 4168.717773, 4200.000000, 2976.000000, 8186.000000, 8041.000000, 0.000000, 0.000000, 0.000000, 17630.000000, 310.256409, 4.000000, 4.000000, 4.000000, 4.000000, 4.000000, 4.000000, 4.000000, 4.000000, 4.000000, 4.000000, 4.000000, 4.000000, 4.000000, 4.000000, 4.000000, 4.000000
72.000000, 0.000000, 4205.641113, 4146.666504, 4199.487305, 4185.641113, 4197.948730, 4189.743652, 4201.538574, 4198.974121, 4192.820313, 4196.922852, 4151.281738, 4210.256348, 4164.102539, 4203.076660, 3540.000000, 8186.000000, 8041.000000, 0.000000, 0.000000, 0.000000, 17630.000000, 317.948700, 4.000000, 4.000000, 4.000000, 4.000000, 4.000000, 4.000000, 4.000000, 4.000000, 4.000000, 4.000000, 4.000000, 4.000000, 4.000000, 4.000000, 4.000000, 4.000000
73.000000, 0.000000, 4206.153809, 4145.641113, 4198.974121, 4186.666504, 4193.846191, 4185.641113, 4197.436035, 4188.205078, 4190.769043, 4202.051270, 4152.820313, 4207.179199, 4164.615234, 4200.512695, 3323.000000, 8165.000000, 8025.000000, 0.000000, 0.000000, 0.000000, 17630.000000, 326.153839, 4.000000, 4.000000, 4.000000, 4.000000, 4.000000, 4.000000, 4.000000, 4.000000, 4.000000, 4.000000, 4.000000, 4.000000, 4.000000, 4.000000, 4.000000, 4.000000
74.000000, 0.000000, 4201.538574, 4141.025391, 4192.820313, 4186.666504, 4185.127930, 4181.538574, 4189.743652, 4184.615234, 4194.871582, 4200.512695, 4151.281738, 4204.102539, 4168.205078, 4199.487305, 3133.000000, 8165.000000, 8025.000000, 0.000000, 0.000000, 0.000000, 17630.000000, 333.846161, 4.000000, 4.000000, 4.000000, 4.000000, 4.000000, 4.000000, 4.000000, 4.000000, 4.000000, 4.000000, 4.000000, 4.000000, 4.000000, 4.000000, 4.000000, 4.000000
75.000000, 0.000000, 4197.948730, 4139.487305, 4190.256348, 4184.615234, 4186.153809, 4180.512695, 4190.769043, 4196.410156, 4197.948730, 4197.436035, 4152.307617, 4208.205078, 4168.717773, 4205.127930, 1686.000000, 8151.000000, 8015.000000, 0.000000, 0.000000, 0.000000, 17630.000000, 341.538452, 4.000000, 4.000000, 4.000000, 4.000000, 4.000000, 4.000000, 4.000000, 4.000000, 4.000000, 4.000000, 4.000000, 4.000000, 4.000000, 4.000000, 4.000000, 4.000000
76.000000, 0.000000, 4197.948730, 4143.076660, 4194.358887, 4186.153809, 4186.666504, 4182.563965, 4199.487305, 4195.897461, 4194.871582, 4210.256348, 4155.897461, 4207.692383, 4168.205078, 4197.948730, 3309.000000, 8151.000000, 8015.000000, 0.000000, 0.000000, 0.000000, 17630.000000, 349.743591, 4.000000, 4.000000, 4.000000, 4.000000, 4.000000, 4.000000, 4.000000, 4.000000, 4.000000, 4.000000, 4.000000, 4.000000, 4.000000, 4.000000, 4.000000, 4.000000
77.000000, 0.000000, 4201.538574, 4148.717773, 4193.846191, 4186.666504, 4192.307617, 4182.051270, 4201.025391, 4183.589844, 4192.307617, 4217.436035, 4160.512695, 4209.230469, 4169.743652, 4203.076660, 2498.000000, 8138.000000, 8002.000000, 0.000000, 0.000000, 0.000000, 17630.000000, 357.948700, 4.000000, 4.000000, 4.000000, 4.000000, 4.000000, 4.000000, 4.000000, 4.000000, 4.000000, 4.000000, 4.000000, 4.000000, 4.000000, 4.000000, 4.000000, 4.000000
78.000000, 0.000000, 4200.512695, 4155.384277, 4191.281738, 4187.179199, 4198.461426, 4173.846191, 4188.205078, 4186.153809, 4197.948730, 4214.871582, 4168.205078, 4208.205078, 4172.307617, 4202.563965, 3133.000000, 8138.000000, 8002.000000, 0.000000, 0.000000, 0.000000, 17630.000000, 365.641022, 4.000000, 4.000000, 4.000000, 4.000000, 4.000000, 4.000000, 4.000000, 4.000000, 4.000000, 4.000000, 4.000000, 4.000000, 4.000000, 4.000000, 4.000000, 4.000000
79.000000, 0.000000, 4200.512695, 4154.871582, 4198.461426, 4190.769043, 4187.179199, 4172.307617, 4182.051270, 4202.563965, 4200.000000, 4220.512695, 4170.256348, 4214.871582, 4170.256348, 4195.897461, 1686.000000, 8117.000000, 7989.000000, 0.000000, 0.000000, 0.000000, 17630.000000, 373.333313, 4.000000, 4.000000, 4.000000, 4.000000, 4.000000, 4.000000, 4.000000, 4.000000, 4.000000, 4.000000, 4.000000, 4.000000, 4.000000, 4.000000, 4.000000, 4.000000
80.000000, 0.000000, 4202.051270, 4148.717773, 4202.563965, 4189.743652, 4177.948730, 4177.948730, 4192.820313, 4204.102539, 4198.461426, 4215.384277, 4166.666504, 4220.512695, 4167.692383, 4202.563965, 3309.000000, 8117.000000, 7989.000000, 0.000000, 0.000000, 0.000000, 17630.000000, 381.025635, 4.000000, 4.000000, 4.000000, 4.000000, 4.000000, 4.000000, 4.000000, 4.000000, 4.000000, 4.000000, 4.000000, 4.000000, 4.000000, 4.000000, 4.000000, 4.000000
81.000000, 0.000000, 4197.948730, 4146.153809, 4197.436035, 4184.102539, 4188.717773, 4178.974121, 4201.025391, 4198.461426, 4203.076660, 4201.538574, 4167.692383, 4216.922852, 4168.205078, 4199.487305, 2498.000000, 8110.000000, 7985.000000, 0.000000, 0.000000, 0.000000, 17630.000000, 389.230774, 4.000000, 4.000000, 4.000000, 4.000000, 4.000000, 4.000000, 4.000000, 4.000000, 4.000000, 4.000000, 4.000000, 4.000000, 4.000000, 4.000000, 4.000000, 4.000000
82.000000, 0.000000, 4198.461426, 4151.281738, 4201.538574, 4186.153809, 4199.487305, 4182.051270, 4200.000000, 4208.717773, 4211.281738, 4207.692383, 4170.256348, 4224.615234, 4171.281738, 4202.051270, 3133.000000, 8110.000000, 7985.000000, 0.000000, 0.000000, 0.000000, 17630.000000, 396.923065, 4.000000, 4.000000, 4.000000, 4.000000, 4.000000, 4.000000, 4.000000, 4.000000, 4.000000, 4.000000, 4.000000, 4.000000, 4.000000, 4.000000, 4.000000, 4.000000
83.000000, 0.000000, 4201.538574, 4157.436035, 4209.743652, 4190.769043, 4200.512695, 4189.230469, 4201.025391, 4218.461426, 4216.922852, 4226.666504, 4170.769043, 4225.127930, 4170.769043, 4203.589844, 1686.000000, 8091.000000, 7981.000000, 0.000000, 0.000000, 0.000000, 17630.000000, 404.615387, 4.000000, 4.000000, 4.000000, 4.000000, 4.000000, 4.000000, 4.000000, 4.000000, 4.000000, 4.000000, 4.000000, 4.000000, 4.000000, 4.000000, 4.000000, 4.000000
84.000000, 0.000000, 4198.974121, 4157.436035, 4210.256348, 4190.256348, 4203.589844, 4195.384277, 4203.589844, 4220.512695, 4218.461426, 4227.692383, 4169.230469, 4218.974121, 4168.205078, 4198.974121, 3309.000000, 8091.000000, 7981.000000, 0.000000, 0.000000, 0.000000, 17630.000000, 412.820496, 4.000000, 4.000000, 4.000000, 4.000000, 4.000000, 4.000000, 4.000000, 4.000000, 4.000000, 4.000000, 4.000000, 4.000000, 4.000000, 4.000000, 4.000000, 4.000000
85.000000, 0.000000, 4193.333008, 4156.922852, 4205.641113, 4187.692383, 4195.897461, 4192.307617, 4202.563965, 4215.897461, 4215.384277, 4217.948730, 4165.641113, 4219.487305, 4170.769043, 4205.127930, 2498.000000, 8086.000000, 7976.000000, 0.000000, 0.000000, 0.000000, 17630.000000, 421.025635, 4.000000, 4.000000, 4.000000, 4.000000, 4.000000, 4.000000, 4.000000, 4.000000, 4.000000, 4.000000, 4.000000, 4.000000, 4.000000, 4.000000, 4.000000, 4.000000
86.000000, 0.000000, 4190.256348, 4156.410156, 4200.000000, 4187.179199, 4184.615234, 4184.615234, 4199.487305, 4204.615234, 4209.743652, 4218.974121, 4168.205078, 4214.358887, 4170.769043, 4200.512695, 3133.000000, 8086.000000, 7976.000000, 0.000000, 0.000000, 0.000000, 17630.000000, 428.717926, 4.000000, 4.000000, 4.000000, 4.000000, 4.000000, 4.000000, 4.000000, 4.000000, 4.000000, 4.000000, 4.000000, 4.000000, 4.000000, 4.000000, 4.000000, 4.000000
87.000000, 0.000000, 4191.281738, 4152.307617, 4195.897461, 4184.615234, 4188.205078, 4183.076660, 4202.563965, 4204.615234, 4207.179199, 4214.871582, 4168.205078, 4216.410156, 4165.127930, 4200.000000, 1686.000000, 8082.000000, 7986.000000, 0.000000, 0.000000, 0.000000, 17630.000000, 436.410248, 4.000000, 4.000000, 4.000000, 4.000000, 4.000000, 4.000000, 4.000000, 4.000000, 4.000000, 4.000000, 4.000000, 4.000000, 4.000000, 4.000000, 4.000000, 4.000000
88.000000, 0.000000, 4188.205078, 4153.333008, 4197.436035, 4183.076660, 4196.922852, 4185.127930, 4209.743652, 4220.000000, 4212.820313, 4205.127930, 4161.538574, 4215.897461, 4166.666504, 4203.589844, 3309.000000, 8082.000000, 7986.000000, 0.000000, 0.000000, 0.000000, 17630.000000, 444.102539, 4.000000, 4.000000, 4.000000, 4.000000, 4.000000, 4.000000, 4.000000, 4.000000, 4.000000, 4.000000, 4.000000, 4.000000, 4.000000, 4.000000, 4.000000, 4.000000
89.000000, 0.000000, 4185.127930, 4157.436035, 4193.333008, 4185.127930, 4186.666504, 4185.127930, 4207.179199, 4220.000000, 4216.410156, 4207.692383, 4157.436035, 4208.205078, 4169.743652, 4200.000000, 2498.000000, 8079.000000, 7993.000000, 0.000000, 0.000000, 0.000000, 17630.000000, 452.307678, 4.000000, 4.000000, 4.000000, 4.000000, 4.000000, 4.000000, 4.000000, 4.000000, 4.000000, 4.000000, 4.000000, 4.000000, 4.000000, 4.000000, 4.000000, 4.000000
90.000000, 0.000000, 4186.153809, 4153.333008, 4182.563965, 4183.589844, 4176.410156, 4187.179199, 4200.512695, 4205.127930, 4212.820313, 4208.717773, 4156.410156, 4205.127930, 4168.205078, 4204.102539, 3133.000000, 8079.000000, 7993.000000, 0.000000, 0.000000, 0.000000, 17630.000000, 460.000000, 4.000000, 4.000000, 4.000000, 4.000000, 4.000000, 4.000000, 4.000000, 4.000000, 4.000000, 4.000000, 4.000000, 4.000000, 4.000000, 4.000000, 4.000000, 4.000000
91.000000, 0.000000, 4184.615234, 4156.922852, 4184.615234, 4181.538574, 4195.384277, 4195.897461, 4202.051270, 4214.358887, 4224.102539, 4212.307617, 4163.076660, 4202.563965, 4174.358887, 4200.512695, 1686.000000, 8082.000000, 7996.000000, 0.000000, 0.000000, 0.000000, 17630.000000, 467.692291, 4.000000, 4.000000, 4.000000, 4.000000, 4.000000, 4.000000, 4.000000, 4.000000, 4.000000, 4.000000, 4.000000, 4.000000, 4.000000, 4.000000, 4.000000, 4.000000
92.000000, 0.000000, 4188.717773, 4169.743652, 4196.922852, 4188.205078, 4213.846191, 4197.436035, 4197.436035, 4222.051270, 4236.922852, 4225.641113, 4170.256348, 4211.281738, 4180.000000, 4203.589844, 3309.000000, 8082.000000, 7996.000000, 0.000000, 0.000000, 0.000000, 17630.000000, 475.897430, 4.000000, 4.000000, 4.000000, 4.000000, 4.000000, 4.000000, 4.000000, 4.000000, 4.000000, 4.000000, 4.000000, 4.000000, 4.000000, 4.000000, 4.000000, 4.000000
93.000000, 0.000000, 4193.333008, 4176.922852, 4203.076660, 4197.948730, 4210.256348, 4191.281738, 4188.717773, 4208.205078, 4230.769043, 4238.461426, 4172.307617, 4217.948730, 4182.051270, 4209.230469, 2498.000000, 8088.000000, 8000.000000, 0.000000, 0.000000, 0.000000, 17630.000000, 483.589722, 4.000000, 4.000000, 4.000000, 4.000000, 4.000000, 4.000000, 4.000000, 4.000000, 4.000000, 4.000000, 4.000000, 4.000000, 4.000000, 4.000000, 4.000000, 4.000000
94.000000, 0.000000, 4195.384277, 4180.000000, 4202.563965, 4202.051270, 4198.461426, 4184.615234, 4182.051270, 4199.487305, 4221.538574, 4235.897461, 4179.487305, 4218.974121, 4186.666504, 4204.615234, 3133.000000, 8088.000000, 8000.000000, 0.000000, 0.000000, 0.000000, 17630.000000, 491.794861, 4.000000, 4.000000, 4.000000, 4.000000, 4.000000, 4.000000, 4.000000, 4.000000, 4.000000, 4.000000, 4.000000, 4.000000, 4.000000, 4.000000, 4.000000, 4.000000
95.000000, 0.000000, 4197.436035, 4181.025391, 4204.615234, 4197.948730, 4197.436035, 4182.051270, 4177.436035, 4202.563965, 4215.384277, 4225.641113, 4182.563965, 4224.615234, 4186.153809, 4207.692383, 1686.000000, 8103.000000, 8010.000000, 0.000000, 0.000000, 0.000000, 17630.000000, 499.487152, 4.000000, 4.000000, 4.000000, 4.000000, 4.000000, 4.000000, 4.000000, 4.000000, 4.000000, 4.000000, 4.000000, 4.000000, 4.000000, 4.000000, 4.000000, 4.000000
96.000000, 0.000000, 4193.846191, 4175.897461, 4208.205078, 4193.333008, 4204.615234, 4183.589844, 4186.666504, 4203.076660, 4210.769043, 4223.589844, 4175.384277, 4220.512695, 4176.410156, 4200.000000, 3309.000000, 8103.000000, 8010.000000, 0.000000, 0.000000, 0.000000, 17630.000000, 507.179474, 4.000000, 4.000000, 4.000000, 4.000000, 4.000000, 4.000000, 4.000000, 4.000000, 4.000000, 4.000000, 4.000000, 4.000000, 4.000000, 4.000000, 4.000000, 4.000000
97.000000, 0.000000, 4189.230469, 4173.333008, 4210.769043, 4192.307617, 4199.487305, 4176.922852, 4196.922852, 4205.127930, 4205.127930, 4211.794922, 4171.794922, 4222.051270, 4170.769043, 4198.974121, 2498.000000, 8114.000000, 8018.000000, 0.000000, 0.000000, 0.000000, 17630.000000, 515.384583, 4.000000, 4.000000, 4.000000, 4.000000, 4.000000, 4.000000, 4.000000, 4.000000, 4.000000, 4.000000, 4.000000, 4.000000, 4.000000, 4.000000, 4.000000, 4.000000
98.000000, 0.000000, 4183.589844, 4170.769043, 4204.615234, 4189.230469, 4184.615234, 4160.000000, 4186.666504, 4200.000000, 4188.717773, 4193.333008, 4171.281738, 4218.974121, 4169.743652, 4202.563965, 3133.000000, 8114.000000, 8018.000000, 0.000000, 0.000000, 0.000000, 17630.000000, 523.076904, 4.000000, 4.000000, 4.000000, 4.000000, 4.000000, 4.000000, 4.000000, 4.000000, 4.000000, 4.000000, 4.000000, 4.000000, 4.000000, 4.000000, 4.000000, 4.000000
99.000000, 0.000000, 4176.410156, 4164.102539, 4194.871582, 4184.102539, 4180.000000, 4156.410156, 4176.922852, 4185.127930, 4173.846191, 4187.692383, 4158.974121, 4207.179199, 4167.179199, 4192.820313, 1686.000000, 8142.000000, 8027.000000, 0.000000, 0.000000, 0.000000, 17630.000000, 531.282043, 4.000000, 4.000000, 4.000000, 4.000000, 4.000000, 4.000000, 4.000000, 4.000000, 4.000000, 4.000000, 4.000000, 4.000000, 4.000000, 4.000000, 4.000000, 4.000000
100.000000, 0.000000, 4176.922852, 4167.692383, 4194.871582, 4185.127930, 4189.743652, 4171.794922, 4186.153809, 4182.051270, 4177.948730, 4193.846191, 4153.333008, 4210.769043, 4165.127930, 4200.512695, 3309.000000, 8142.000000, 8027.000000, 0.000000, 0.000000, 0.000000, 17630.000000, 538.974365, 4.000000, 4.000000, 4.000000, 4.000000, 4.000000, 4.000000, 4.000000, 4.000000, 4.000000, 4.000000, 4.000000, 4.000000, 4.000000, 4.000000, 4.000000, 4.000000
101.000000, 0.000000, 4170.769043, 4173.333008, 4195.897461, 4189.743652, 4197.436035, 4188.205078, 4195.897461, 4188.205078, 4184.102539, 4192.307617, 4154.871582, 4207.692383, 4162.051270, 4200.512695, 2498.000000, 8158.000000, 8039.000000, 0.000000, 0.000000, 0.000000, 17630.000000, 547.179443, 4.000000, 4.000000, 4.000000, 4.000000, 4.000000, 4.000000, 4.000000, 4.000000, 4.000000, 4.000000, 4.000000, 4.000000, 4.000000, 4.000000, 4.000000, 4.000000
102.000000, 0.000000, 4162.563965, 4161.538574, 4186.153809, 4182.051270, 4186.666504, 4195.897461, 4196.922852, 4186.666504, 4176.410156, 4176.410156, 4142.051270, 4198.974121, 4153.333008, 4193.333008, 3133.000000, 8158.000000, 8039.000000, 0.000000, 0.000000, 0.000000, 17630.000000, 554.871765, 4.000000, 4.000000, 4.000000, 4.000000, 4.000000, 4.000000, 4.000000, 4.000000, 4.000000, 4.000000, 4.000000, 4.000000, 4.000000, 4.000000, 4.000000, 4.000000
103.000000, 0.000000, 4157.948730, 4148.717773, 4179.487305, 4170.256348, 4177.436035, 4201.025391, 4199.487305, 4191.281738, 4179.487305, 4167.692383, 4132.820313, 4195.897461, 4151.281738, 4195.897461, 1686.000000, 8192.000000, 8057.000000, 0.000000, 0.000000, 0.000000, 17630.000000, 562.564087, 4.000000, 4.000000, 4.000000, 4.000000, 4.000000, 4.000000, 4.000000, 4.000000, 4.000000, 4.000000, 4.000000, 4.000000, 4.000000, 4.000000, 4.000000, 4.000000
104.000000, 0.000000, 4160.000000, 4151.794922, 4188.717773, 4173.846191, 4192.307617, 4205.127930, 4206.153809, 4211.794922, 4201.538574, 4181.538574, 4144.615234, 4197.948730, 4158.461426, 4195.384277, 3309.000000, 8192.000000, 8057.000000, 0.000000, 0.000000, 0.000000, 17630.000000, 570.256409, 4.000000, 4.000000, 4.000000, 4.000000, 4.000000, 4.000000, 4.000000, 4.000000, 4.000000, 4.000000, 4.000000, 4.000000, 4.000000, 4.000000, 4.000000, 4.000000
105.000000, 0.000000, 4167.692383, 4162.563965, 4203.076660, 4184.102539, 4201.025391, 4204.102539, 4209.230469, 4221.025391, 4217.948730, 4204.102539, 4162.051270, 4214.358887, 4169.230469, 4205.641113, 2498.000000, 8211.000000, 8064.000000, 0.000000, 0.000000, 0.000000, 17630.000000, 578.461548, 4.000000, 4.000000, 4.000000, 4.000000, 4.000000, 4.000000, 4.000000, 4.000000, 4.000000, 4.000000, 4.000000, 4.000000, 4.000000, 4.000000, 4.000000, 4.000000
106.000000, 0.000000, 4166.153809, 4171.281738, 4201.538574, 4188.205078, 4192.307617, 4193.846191, 4197.948730, 4209.230469, 4222.563965, 4215.384277, 4170.256348, 4216.410156, 4180.000000, 4206.666504, 3133.000000, 8211.000000, 8064.000000, 0.000000, 0.000000, 0.000000, 17630.000000, 586.153809, 4.000000, 4.000000, 4.000000, 4.000000, 4.000000, 4.000000, 4.000000, 4.000000, 4.000000, 4.000000, 4.000000, 4.000000, 4.000000, 4.000000, 4.000000, 4.000000
107.000000, 0.000000, 4165.641113, 4175.384277, 4196.410156, 4186.666504, 4193.846191, 4183.589844, 4184.102539, 4200.000000, 4213.846191, 4210.769043, 4168.717773, 4209.743652, 4178.974121, 4202.563965, 1686.000000, 8246.000000, 8079.000000, 0.000000, 0.000000, 0.000000, 17630.000000, 594.358948, 4.000000, 4.000000, 4.000000, 4.000000, 4.000000, 4.000000, 4.000000, 4.000000, 4.000000, 4.000000, 4.000000, 4.000000, 4.000000, 4.000000, 4.000000, 4.000000
108.000000, 0.000000, 4169.743652, 4178.974121, 4204.102539, 4188.717773, 4204.615234, 4189.230469, 4189.230469, 4201.025391, 4202.051270, 4204.615234, 4162.051270, 4210.769043, 4172.820313, 4205.127930, 3309.000000, 8246.000000, 8079.000000, 0.000000, 0.000000, 0.000000, 17630.000000, 602.051270, 4.000000, 4.000000, 4.000000, 4.000000, 4.000000, 4.000000, 4.000000, 4.000000, 4.000000, 4.000000, 4.000000, 4.000000, 4.000000, 4.000000, 4.000000, 4.000000
109.000000, 0.000000, 4170.769043, 4184.615234, 4213.846191, 4196.410156, 4209.230469, 4201.025391, 4198.974121, 4204.102539, 4203.076660, 4206.666504, 4164.102539, 4210.769043, 4178.461426, 4200.512695, 2498.000000, 8260.000000, 8079.000000, 0.000000, 0.000000, 0.000000, 17630.000000, 610.256409, 4.000000, 4.000000, 4.000000, 4.000000, 4.000000, 4.000000, 4.000000, 4.000000, 4.000000, 4.000000, 4.000000, 4.000000, 4.000000, 4.000000, 4.000000, 4.000000
110.000000, 0.000000, 4169.230469, 4183.076660, 4209.230469, 4196.922852, 4207.692383, 4204.102539, 4204.102539, 4204.102539, 4203.076660, 4203.076660, 4166.153809, 4211.281738, 4180.512695, 4202.563965, 3133.000000, 8260.000000, 8079.000000, 0.000000, 0.000000, 0.000000, 17630.000000, 617.948730, 4.000000, 4.000000, 4.000000, 4.000000, 4.000000, 4.000000, 4.000000, 4.000000, 4.000000, 4.000000, 4.000000, 4.000000, 4.000000, 4.000000, 4.000000, 4.000000
111.000000, 0.000000, 4164.102539, 4184.102539, 4201.538574, 4196.410156, 4204.615234, 4197.436035, 4202.563965, 4199.487305, 4190.256348, 4187.692383, 4157.436035, 4205.127930, 4172.820313, 4196.410156, 1686.000000, 8275.000000, 8086.000000, 0.000000, 0.000000, 0.000000, 17630.000000, 625.640991, 4.000000, 4.000000, 4.000000, 4.000000, 4.000000, 4.000000, 4.000000, 4.000000, 4.000000, 4.000000, 4.000000, 4.000000, 4.000000, 4.000000, 4.000000, 4.000000
112.000000, 0.000000, 4166.666504, 4188.717773, 4204.102539, 4198.974121, 4201.025391, 4188.717773, 4195.897461, 4197.436035, 4185.641113, 4187.179199, 4152.820313, 4205.127930, 4170.769043, 4193.846191, 3309.000000, 8275.000000, 8086.000000, 0.000000, 0.000000, 0.000000, 17630.000000, 633.333313, 4.000000, 4.000000, 4.000000, 4.000000, 4.000000, 4.000000, 4.000000, 4.000000, 4.000000, 4.000000, 4.000000, 4.000000, 4.000000, 4.000000, 4.000000, 4.000000
113.000000, 0.000000, 4166.153809, 4170.769043, 4208.717773, 4191.281738, 4198.974121, 4188.717773, 4195.897461, 4202.563965, 4197.948730, 4195.897461, 4158.461426, 4211.281738, 4174.358887, 4205.641113, 2498.000000, 8305.000000, 8101.000000, 0.000000, 0.000000, 0.000000, 17630.000000, 641.538452, 4.000000, 4.000000, 4.000000, 4.000000, 4.000000, 4.000000, 4.000000, 4.000000, 4.000000, 4.000000, 4.000000, 4.000000, 4.000000, 4.000000, 4.000000, 4.000000
114.000000, 0.000000, 4159.487305, 4160.000000, 4204.102539, 4182.051270, 4201.025391, 4190.256348, 4197.948730, 4203.589844, 4201.025391, 4191.281738, 4165.641113, 4209.743652, 4175.897461, 4198.461426, 3133.000000, 8305.000000, 8101.000000, 0.000000, 0.000000, 0.000000, 17630.000000, 649.230774, 4.000000, 4.000000, 4.000000, 4.000000, 4.000000, 4.000000, 4.000000, 4.000000, 4.000000, 4.000000, 4.000000, 4.000000, 4.000000, 4.000000, 4.000000, 4.000000
115.000000, 0.000000, 4162.051270, 4181.025391, 4202.051270, 4190.256348, 4203.589844, 4182.563965, 4190.256348, 4195.384277, 4188.205078, 4189.743652, 4161.538574, 4212.820313, 4175.897461, 4198.461426, 1686.000000, 8320.000000, 8103.000000, 0.000000, 0.000000, 0.000000, 17630.000000, 656.923035, 4.000000, 4.000000, 4.000000, 4.000000, 4.000000, 4.000000, 4.000000, 4.000000, 4.000000, 4.000000, 4.000000, 4.000000, 4.000000, 4.000000, 4.000000, 4.000000
116.000000, 0.000000, 4168.717773, 4203.076660, 4210.769043, 4204.102539, 4205.641113, 4185.641113, 4181.538574, 4195.897461, 4187.692383, 4202.051270, 4163.076660, 4212.820313, 4177.948730, 4204.102539, 3309.000000, 8320.000000, 8103.000000, 0.000000, 0.000000, 0.000000, 17630.000000, 664.615356, 4.000000, 4.000000, 4.000000, 4.000000, 4.000000, 4.000000, 4.000000, 4.000000, 4.000000, 4.000000, 4.000000, 4.000000, 4.000000, 4.000000, 4.000000, 4.000000
117.000000, 0.000000, 4175.384277, 4210.256348, 4215.384277, 4211.794922, 4207.179199, 4194.871582, 4186.153809, 4206.153809, 4203.076660, 4205.641113, 4168.717773, 4211.794922, 4178.974121, 4201.025391, 2498.000000, 8343.000000, 8118.000000, 0.000000, 0.000000, 0.000000, 17630.000000, 672.820496, 4.000000, 4.000000, 4.000000, 4.000000, 4.000000, 4.000000, 4.000000, 4.000000, 4.000000, 4.000000, 4.000000, 4.000000, 4.000000, 4.000000, 4.000000, 4.000000
118.000000, 0.000000, 4174.358887, 4215.897461, 4209.230469, 4215.384277, 4205.641113, 4186.153809, 4188.205078, 4208.205078, 4206.666504, 4194.871582, 4160.000000, 4211.281738, 4173.846191, 4200.512695, 3133.000000, 8343.000000, 8118.000000, 0.000000, 0.000000, 0.000000, 17630.000000, 680.512817, 4.000000, 4.000000, 4.000000, 4.000000, 4.000000, 4.000000, 4.000000, 4.000000, 4.000000, 4.000000, 4.000000, 4.000000, 4.000000, 4.000000, 4.000000, 4.000000
119.000000, 0.000000, 4170.256348, 4232.307617, 4208.205078, 4220.000000, 4209.743652, 4188.205078, 4185.127930, 4204.102539, 4204.615234, 4193.846191, 4153.846191, 4205.127930, 4169.230469, 4196.922852, 1686.000000, 8354.000000, 8121.000000, 0.000000, 0.000000, 0.000000, 17630.000000, 688.205139, 4.000000, 4.000000, 4.000000, 4.000000, 4.000000, 4.000000, 4.000000, 4.000000, 4.000000, 4.000000, 4.000000, 4.000000, 4.000000, 4.000000, 4.000000, 4.000000
120.000000, 0.000000, 4179.487305, 4250.769043, 4217.948730, 4224.615234, 4214.358887, 4201.538574, 4187.692383, 4202.563965, 4206.666504, 4195.897461, 4163.589844, 4213.846191, 4172.307617, 4206.153809, 3309.000000, 8354.000000, 8121.000000, 0.000000, 0.000000, 0.000000, 17630.000000, 696.410217, 4.000000, 4.000000, 4.000000, 4.000000, 4.000000, 4.000000, 4.000000, 4.000000, 4.000000, 4.000000, 4.000000, 4.000000, 4.000000, 4.000000, 4.000000, 4.000000
121.000000, 0.000000, 4181.025391, 4257.948730, 4215.384277, 4225.641113, 4208.205078, 4194.358887, 4187.692383, 4200.000000, 4201.025391, 4185.127930, 4162.051270, 4212.307617, 4168.205078, 4203.589844, 2498.000000, 8363.000000, 8133.000000, 0.000000, 0.000000, 0.000000, 17630.000000, 704.102539, 4.000000, 4.000000, 4.000000, 4.000000, 4.000000, 4.000000, 4.000000, 4.000000, 4.000000, 4.000000, 4.000000, 4.000000, 4.000000, 4.000000, 4.000000, 4.000000
122.000000, 0.000000, 4175.897461, 4255.897461, 4204.102539, 4223.589844, 4199.487305, 4188.205078, 4187.179199, 4199.487305, 4194.871582, 4171.794922, 4144.102539, 4202.051270, 4153.846191, 4190.256348, 3133.000000, 8363.000000, 8133.000000, 0.000000, 0.000000, 0.000000, 17630.000000, 711.794861, 4.000000, 4.000000, 4.000000, 4.000000, 4.000000, 4.000000, 4.000000, 4.000000, 4.000000, 4.000000, 4.000000, 4.000000, 4.000000, 4.000000, 4.000000, 4.000000
123.000000, 0.000000, 4178.461426, 4259.487305, 4200.512695, 4225.641113, 4200.000000, 4182.563965, 4188.717773, 4197.436035, 4188.717773, 4160.000000, 4134.358887, 4202.051270, 4146.666504, 4197.948730, 1686.000000, 8380.000000, 8154.000000, 0.000000, 0.000000, 0.000000, 17630.000000, 720.000000, 4.000000, 4.000000, 4.000000, 4.000000, 4.000000, 4.000000, 4.000000, 4.000000, 4.000000, 4.000000, 4.000000, 4.000000, 4.000000, 4.000000, 4.000000, 4.000000
