title:winkLeft28, recorded:21.05.18 17.06.44, timestamp started:2018-05-12T20:28:52.032863+02:00            , sampling:128, subject:Noé, labels:COUNTER INTERPOLATED AF3 F7 F3 FC5 T7 P7 O1 O2 P8 T8 FC6 F4 F8 AF4 RAW_CQ GYROX GYROY MARKER MARKER_HARDWARE SYNC TIME_STAMP_s TIME_STAMP_ms CQ_AF3 CQ_F7 CQ_F3 CQ_FC5 CQ_T7 CQ_P7 CQ_O1 CQ_O2 CQ_P8 CQ_T8 CQ_FC6 CQ_F4 CQ_F8 CQ_AF4 CQ_CMS CQ_DRL, chan:40, samples:2187, units:emotiv
74.000000, 0.000000, 4264.102539, 4229.743652, 4230.769043, 4217.436035, 4214.358887, 4216.922852, 4217.948730, 4217.948730, 4198.974121, 4200.512695, 4218.974121, 4267.179199, 4202.563965, 4244.615234, 3588.000000, 8199.000000, 8139.000000, 0.000000, 0.000000, 0.000000, -20960.000000, 573.333313, 4.000000, 4.000000, 4.000000, 4.000000, 4.000000, 4.000000, 4.000000, 4.000000, 1.000000, 4.000000, 4.000000, 4.000000, 4.000000, 4.000000, 4.000000, 4.000000
75.000000, 0.000000, 4260.512695, 4230.769043, 4225.641113, 4217.436035, 4212.307617, 4216.410156, 4217.436035, 4214.358887, 4200.512695, 4201.538574, 4216.410156, 4266.666504, 4203.076660, 4237.436035, 3560.000000, 8209.000000, 8131.000000, 0.000000, 0.000000, 0.000000, -20960.000000, 581.025635, 4.000000, 4.000000, 4.000000, 4.000000, 4.000000, 4.000000, 4.000000, 4.000000, 1.000000, 4.000000, 4.000000, 4.000000, 4.000000, 4.000000, 4.000000, 4.000000
76.000000, 0.000000, 4250.256348, 4227.179199, 4218.461426, 4215.897461, 4209.743652, 4217.436035, 4217.948730, 4206.666504, 4200.512695, 4202.563965, 4207.179199, 4253.846191, 4202.563965, 4230.769043, 3524.000000, 8209.000000, 8131.000000, 0.000000, 0.000000, 0.000000, -20960.000000, 588.717957, 4.000000, 4.000000, 4.000000, 4.000000, 4.000000, 4.000000, 4.000000, 4.000000, 1.000000, 4.000000, 4.000000, 4.000000, 4.000000, 4.000000, 4.000000, 4.000000
77.000000, 0.000000, 4245.641113, 4223.076660, 4218.974121, 4217.948730, 4214.358887, 4218.974121, 4221.538574, 4212.307617, 4201.538574, 4207.179199, 4205.641113, 4246.153809, 4205.127930, 4227.692383, 3447.000000, 8213.000000, 8135.000000, 0.000000, 0.000000, 0.000000, -20960.000000, 596.410217, 4.000000, 4.000000, 4.000000, 4.000000, 4.000000, 4.000000, 4.000000, 4.000000, 1.000000, 4.000000, 4.000000, 4.000000, 4.000000, 4.000000, 4.000000, 4.000000
78.000000, 0.000000, 4248.717773, 4228.717773, 4221.538574, 4218.974121, 4219.487305, 4223.589844, 4228.717773, 4227.692383, 4201.025391, 4217.436035, 4213.333008, 4254.358887, 4210.769043, 4229.743652, 3588.000000, 8213.000000, 8135.000000, 0.000000, 0.000000, 0.000000, -20960.000000, 604.102539, 4.000000, 4.000000, 4.000000, 4.000000, 4.000000, 4.000000, 4.000000, 4.000000, 1.000000, 4.000000, 4.000000, 4.000000, 4.000000, 4.000000, 4.000000, 4.000000
79.000000, 0.000000, 4248.717773, 4230.256348, 4218.974121, 4217.436035, 4217.948730, 4229.743652, 4234.871582, 4237.948730, 4198.974121, 4222.563965, 4221.538574, 4264.102539, 4218.461426, 4234.871582, 3560.000000, 8233.000000, 8144.000000, 0.000000, 0.000000, 0.000000, -20960.000000, 611.794861, 4.000000, 4.000000, 4.000000, 4.000000, 4.000000, 4.000000, 4.000000, 4.000000, 1.000000, 4.000000, 4.000000, 4.000000, 4.000000, 4.000000, 4.000000, 4.000000
80.000000, 0.000000, 4248.717773, 4223.589844, 4219.487305, 4219.487305, 4217.948730, 4231.281738, 4230.769043, 4233.333008, 4197.948730, 4222.051270, 4227.692383, 4266.666504, 4228.717773, 4236.410156, 3524.000000, 8233.000000, 8144.000000, 0.000000, 0.000000, 0.000000, -20960.000000, 620.000000, 4.000000, 4.000000, 4.000000, 4.000000, 4.000000, 4.000000, 4.000000, 4.000000, 1.000000, 4.000000, 4.000000, 4.000000, 4.000000, 4.000000, 4.000000, 4.000000
81.000000, 0.000000, 4245.641113, 4216.922852, 4215.897461, 4218.974121, 4221.025391, 4225.127930, 4221.538574, 4221.538574, 4200.000000, 4222.051270, 4234.358887, 4266.666504, 4235.384277, 4233.333008, 3447.000000, 8231.000000, 8149.000000, 0.000000, 0.000000, 0.000000, -20960.000000, 627.692322, 4.000000, 4.000000, 4.000000, 4.000000, 4.000000, 4.000000, 4.000000, 4.000000, 1.000000, 4.000000, 4.000000, 4.000000, 4.000000, 4.000000, 4.000000, 4.000000
82.000000, 0.000000, 4236.410156, 4216.410156, 4207.179199, 4216.922852, 4220.512695, 4219.487305, 4216.922852, 4216.410156, 4200.512695, 4221.538574, 4231.281738, 4267.179199, 4233.333008, 4232.820313, 3588.000000, 8231.000000, 8149.000000, 0.000000, 0.000000, 0.000000, -20960.000000, 635.384583, 4.000000, 4.000000, 4.000000, 4.000000, 4.000000, 4.000000, 4.000000, 4.000000, 1.000000, 4.000000, 4.000000, 4.000000, 4.000000, 4.000000, 4.000000, 4.000000
83.000000, 0.000000, 4229.230469, 4215.897461, 4206.666504, 4214.871582, 4218.461426, 4215.384277, 4214.871582, 4220.512695, 4198.974121, 4219.487305, 4223.076660, 4264.102539, 4228.205078, 4229.230469, 3560.000000, 8226.000000, 8150.000000, 0.000000, 0.000000, 0.000000, -20960.000000, 643.076904, 4.000000, 4.000000, 4.000000, 4.000000, 4.000000, 4.000000, 4.000000, 4.000000, 1.000000, 4.000000, 4.000000, 4.000000, 4.000000, 4.000000, 4.000000, 4.000000
84.000000, 0.000000, 4220.000000, 4211.281738, 4205.641113, 4208.205078, 4216.410156, 4210.769043, 4212.820313, 4218.461426, 4198.461426, 4216.922852, 4216.410156, 4254.871582, 4222.051270, 4216.410156, 3524.000000, 8226.000000, 8150.000000, 0.000000, 0.000000, 0.000000, -20960.000000, 651.282043, 4.000000, 4.000000, 4.000000, 4.000000, 4.000000, 4.000000, 4.000000, 4.000000, 1.000000, 4.000000, 4.000000, 4.000000, 4.000000, 4.000000, 4.000000, 4.000000
85.000000, 0.000000, 4213.333008, 4209.743652, 4200.000000, 4206.666504, 4213.846191, 4205.127930, 4215.897461, 4212.307617, 4198.461426, 4214.358887, 4214.358887, 4248.205078, 4212.307617, 4209.230469, 3447.000000, 8218.000000, 8149.000000, 0.000000, 0.000000, 0.000000, -20960.000000, 658.974365, 4.000000, 4.000000, 4.000000, 4.000000, 4.000000, 4.000000, 4.000000, 4.000000, 1.000000, 4.000000, 4.000000, 4.000000, 4.000000, 4.000000, 4.000000, 4.000000
86.000000, 0.000000, 4222.563965, 4213.333008, 4203.589844, 4213.846191, 4214.358887, 4200.000000, 4212.307617, 4220.512695, 4197.948730, 4218.461426, 4223.076660, 4254.358887, 4213.846191, 4211.794922, 3588.000000, 8218.000000, 8149.000000, 0.000000, 0.000000, 0.000000, -20960.000000, 666.666626, 4.000000, 4.000000, 4.000000, 4.000000, 4.000000, 4.000000, 4.000000, 4.000000, 1.000000, 4.000000, 4.000000, 4.000000, 4.000000, 4.000000, 4.000000, 4.000000
87.000000, 0.000000, 4230.256348, 4216.922852, 4214.871582, 4217.436035, 4216.410156, 4203.076660, 4202.563965, 4229.743652, 4198.461426, 4226.666504, 4229.230469, 4265.127930, 4226.666504, 4217.436035, 3560.000000, 8213.000000, 8148.000000, 0.000000, 0.000000, 0.000000, -20960.000000, 674.358948, 4.000000, 4.000000, 4.000000, 4.000000, 4.000000, 4.000000, 4.000000, 4.000000, 1.000000, 4.000000, 4.000000, 4.000000, 4.000000, 4.000000, 4.000000, 4.000000
88.000000, 0.000000, 4221.025391, 4216.922852, 4217.436035, 4212.820313, 4215.384277, 4212.820313, 4208.205078, 4218.461426, 4198.974121, 4222.563965, 4225.127930, 4264.102539, 4225.641113, 4216.922852, 3524.000000, 8213.000000, 8148.000000, 0.000000, 0.000000, 0.000000, -20960.000000, 682.051270, 4.000000, 4.000000, 4.000000, 4.000000, 4.000000, 4.000000, 4.000000, 4.000000, 1.000000, 4.000000, 4.000000, 4.000000, 4.000000, 4.000000, 4.000000, 4.000000
89.000000, 0.000000, 4213.333008, 4211.281738, 4207.692383, 4205.641113, 4210.256348, 4216.922852, 4221.025391, 4205.641113, 4198.461426, 4207.692383, 4214.358887, 4250.769043, 4207.692383, 4208.717773, 3447.000000, 8200.000000, 8144.000000, 0.000000, 0.000000, 0.000000, -20960.000000, 689.743591, 4.000000, 4.000000, 4.000000, 4.000000, 4.000000, 4.000000, 4.000000, 4.000000, 1.000000, 4.000000, 4.000000, 4.000000, 4.000000, 4.000000, 4.000000, 4.000000
90.000000, 0.000000, 4213.333008, 4204.615234, 4201.538574, 4200.512695, 4208.205078, 4214.358887, 4218.461426, 4212.307617, 4198.461426, 4200.000000, 4207.692383, 4241.025391, 4196.922852, 4198.974121, 3588.000000, 8200.000000, 8144.000000, 0.000000, 0.000000, 0.000000, -20960.000000, 697.948730, 4.000000, 4.000000, 4.000000, 4.000000, 4.000000, 4.000000, 4.000000, 4.000000, 1.000000, 4.000000, 4.000000, 4.000000, 4.000000, 4.000000, 4.000000, 4.000000
91.000000, 0.000000, 4214.871582, 4203.076660, 4207.692383, 4205.127930, 4211.281738, 4213.846191, 4215.384277, 4219.487305, 4200.512695, 4204.615234, 4211.281738, 4249.743652, 4200.512695, 4200.000000, 3560.000000, 8191.000000, 8148.000000, 0.000000, 0.000000, 0.000000, -20960.000000, 705.640991, 4.000000, 4.000000, 4.000000, 4.000000, 4.000000, 4.000000, 4.000000, 4.000000, 1.000000, 4.000000, 4.000000, 4.000000, 4.000000, 4.000000, 4.000000, 4.000000
92.000000, 0.000000, 4224.102539, 4209.743652, 4217.948730, 4216.410156, 4214.358887, 4216.922852, 4227.179199, 4221.025391, 4201.538574, 4211.281738, 4216.922852, 4264.615234, 4208.205078, 4212.820313, 3524.000000, 8191.000000, 8148.000000, 0.000000, 0.000000, 0.000000, -20960.000000, 713.333313, 4.000000, 4.000000, 4.000000, 4.000000, 4.000000, 4.000000, 4.000000, 4.000000, 1.000000, 4.000000, 4.000000, 4.000000, 4.000000, 4.000000, 4.000000, 4.000000
93.000000, 0.000000, 4229.743652, 4213.333008, 4217.436035, 4214.871582, 4216.410156, 4216.410156, 4232.820313, 4227.179199, 4201.025391, 4215.897461, 4219.487305, 4267.692383, 4212.307617, 4220.000000, 3447.000000, 8191.000000, 8148.000000, 0.000000, 0.000000, 0.000000, -20960.000000, 721.025635, 4.000000, 4.000000, 4.000000, 4.000000, 4.000000, 4.000000, 4.000000, 4.000000, 1.000000, 4.000000, 4.000000, 4.000000, 4.000000, 4.000000, 4.000000, 4.000000
94.000000, 0.000000, 4221.538574, 4209.743652, 4211.794922, 4208.717773, 4213.333008, 4214.871582, 4223.076660, 4226.153809, 4201.538574, 4217.436035, 4220.512695, 4266.666504, 4209.743652, 4218.461426, 3588.000000, 8191.000000, 8148.000000, 0.000000, 0.000000, 0.000000, -20960.000000, 728.717957, 4.000000, 4.000000, 4.000000, 4.000000, 4.000000, 4.000000, 4.000000, 4.000000, 1.000000, 4.000000, 4.000000, 4.000000, 4.000000, 4.000000, 4.000000, 4.000000
95.000000, 0.000000, 4213.846191, 4203.076660, 4210.769043, 4204.615234, 4202.563965, 4213.333008, 4215.384277, 4215.897461, 4200.000000, 4214.871582, 4217.948730, 4263.589844, 4202.563965, 4216.922852, 3560.000000, 8196.000000, 8153.000000, 0.000000, 0.000000, 0.000000, -20960.000000, 736.410217, 4.000000, 4.000000, 4.000000, 4.000000, 4.000000, 4.000000, 4.000000, 4.000000, 1.000000, 4.000000, 4.000000, 4.000000, 4.000000, 4.000000, 4.000000, 4.000000
96.000000, 0.000000, 4215.384277, 4200.000000, 4214.871582, 4205.641113, 4200.000000, 4209.743652, 4214.871582, 4213.846191, 4197.948730, 4212.820313, 4208.205078, 4253.333008, 4200.512695, 4212.820313, 3524.000000, 8196.000000, 8153.000000, 0.000000, 0.000000, 0.000000, -20960.000000, 744.615356, 4.000000, 4.000000, 4.000000, 4.000000, 4.000000, 4.000000, 4.000000, 4.000000, 1.000000, 4.000000, 4.000000, 4.000000, 4.000000, 4.000000, 4.000000, 4.000000
97.000000, 0.000000, 4218.974121, 4203.076660, 4214.871582, 4209.230469, 4211.281738, 4210.256348, 4218.461426, 4216.922852, 4197.948730, 4207.692383, 4202.563965, 4248.205078, 4200.512695, 4204.102539, 3447.000000, 8200.000000, 8151.000000, 0.000000, 0.000000, 0.000000, -20960.000000, 752.307678, 4.000000, 4.000000, 4.000000, 4.000000, 4.000000, 4.000000, 4.000000, 4.000000, 1.000000, 4.000000, 4.000000, 4.000000, 4.000000, 4.000000, 4.000000, 4.000000
98.000000, 0.000000, 4213.846191, 4200.512695, 4206.666504, 4206.666504, 4209.230469, 4213.333008, 4222.563965, 4212.820313, 4199.487305, 4200.512695, 4200.512695, 4246.153809, 4193.846191, 4197.948730, 3588.000000, 8200.000000, 8151.000000, 0.000000, 0.000000, 0.000000, -20960.000000, 760.000000, 4.000000, 4.000000, 4.000000, 4.000000, 4.000000, 4.000000, 4.000000, 4.000000, 1.000000, 4.000000, 4.000000, 4.000000, 4.000000, 4.000000, 4.000000, 4.000000
99.000000, 0.000000, 4210.256348, 4201.538574, 4205.641113, 4203.076660, 4202.051270, 4214.358887, 4220.512695, 4201.025391, 4198.974121, 4196.922852, 4198.461426, 4243.076660, 4195.897461, 4202.051270, 3560.000000, 8214.000000, 8155.000000, 0.000000, 0.000000, 0.000000, -20960.000000, 767.692261, 4.000000, 4.000000, 4.000000, 4.000000, 4.000000, 4.000000, 4.000000, 4.000000, 1.000000, 4.000000, 4.000000, 4.000000, 4.000000, 4.000000, 4.000000, 4.000000
100.000000, 0.000000, 4208.717773, 4200.512695, 4214.358887, 4203.589844, 4207.179199, 4214.358887, 4215.897461, 4195.897461, 4198.974121, 4195.897461, 4199.487305, 4243.076660, 4199.487305, 4204.615234, 3524.000000, 8214.000000, 8155.000000, 0.000000, 0.000000, 0.000000, -20960.000000, 775.384583, 4.000000, 4.000000, 4.000000, 4.000000, 4.000000, 4.000000, 4.000000, 4.000000, 1.000000, 4.000000, 4.000000, 4.000000, 4.000000, 4.000000, 4.000000, 4.000000
101.000000, 0.000000, 4198.974121, 4184.615234, 4212.820313, 4198.461426, 4206.153809, 4215.384277, 4216.922852, 4210.256348, 4199.487305, 4195.384277, 4198.974121, 4245.127930, 4190.769043, 4194.871582, 3447.000000, 8217.000000, 8156.000000, 0.000000, 0.000000, 0.000000, -20960.000000, 783.076904, 4.000000, 4.000000, 4.000000, 4.000000, 4.000000, 4.000000, 4.000000, 4.000000, 1.000000, 4.000000, 4.000000, 4.000000, 4.000000, 4.000000, 4.000000, 4.000000
102.000000, 0.000000, 4195.897461, 4184.615234, 4209.743652, 4197.436035, 4204.615234, 4217.436035, 4220.512695, 4217.948730, 4199.487305, 4199.487305, 4199.487305, 4247.179199, 4190.256348, 4191.281738, 3588.000000, 8217.000000, 8156.000000, 0.000000, 0.000000, 0.000000, -20960.000000, 791.282043, 4.000000, 4.000000, 4.000000, 4.000000, 4.000000, 4.000000, 4.000000, 4.000000, 1.000000, 4.000000, 4.000000, 4.000000, 4.000000, 4.000000, 4.000000, 4.000000
103.000000, 0.000000, 4211.794922, 4204.102539, 4215.384277, 4209.230469, 4210.769043, 4216.410156, 4212.820313, 4203.076660, 4198.974121, 4203.076660, 4204.102539, 4249.230469, 4204.615234, 4201.538574, 3560.000000, 8222.000000, 8154.000000, 0.000000, 0.000000, 0.000000, -20960.000000, 798.974365, 4.000000, 4.000000, 4.000000, 4.000000, 4.000000, 4.000000, 4.000000, 4.000000, 1.000000, 4.000000, 4.000000, 4.000000, 4.000000, 4.000000, 4.000000, 4.000000
104.000000, 0.000000, 4217.436035, 4207.692383, 4216.410156, 4209.743652, 4208.717773, 4212.820313, 4203.589844, 4200.512695, 4200.000000, 4205.127930, 4207.179199, 4250.256348, 4205.127930, 4205.127930, 3524.000000, 8222.000000, 8154.000000, 0.000000, 0.000000, 0.000000, -20960.000000, 806.666626, 4.000000, 4.000000, 4.000000, 4.000000, 4.000000, 4.000000, 4.000000, 4.000000, 1.000000, 4.000000, 4.000000, 4.000000, 4.000000, 4.000000, 4.000000, 4.000000
105.000000, 0.000000, 4211.794922, 4200.000000, 4212.307617, 4201.025391, 4204.102539, 4207.692383, 4205.641113, 4217.436035, 4200.000000, 4210.256348, 4205.127930, 4247.692383, 4198.461426, 4199.487305, 3447.000000, 8222.000000, 8155.000000, 0.000000, 0.000000, 0.000000, -20960.000000, 814.358948, 4.000000, 4.000000, 4.000000, 4.000000, 4.000000, 4.000000, 4.000000, 4.000000, 1.000000, 4.000000, 4.000000, 4.000000, 4.000000, 4.000000, 4.000000, 4.000000
106.000000, 0.000000, 4213.846191, 4204.102539, 4213.333008, 4210.769043, 4209.743652, 4204.615234, 4208.205078, 4219.487305, 4200.512695, 4212.820313, 4205.127930, 4246.153809, 4201.025391, 4195.897461, 3588.000000, 8222.000000, 8155.000000, 0.000000, 0.000000, 0.000000, -20960.000000, 822.051270, 4.000000, 4.000000, 4.000000, 4.000000, 4.000000, 4.000000, 4.000000, 4.000000, 1.000000, 4.000000, 4.000000, 4.000000, 4.000000, 4.000000, 4.000000, 4.000000
107.000000, 0.000000, 4209.743652, 4205.127930, 4211.794922, 4218.461426, 4212.820313, 4204.102539, 4204.102539, 4205.127930, 4200.512695, 4206.153809, 4200.512695, 4244.102539, 4196.410156, 4190.256348, 3560.000000, 8223.000000, 8154.000000, 0.000000, 0.000000, 0.000000, -20960.000000, 830.256409, 4.000000, 4.000000, 4.000000, 4.000000, 4.000000, 4.000000, 4.000000, 4.000000, 1.000000, 4.000000, 4.000000, 4.000000, 4.000000, 4.000000, 4.000000, 4.000000
108.000000, 0.000000, 4199.487305, 4200.000000, 4204.102539, 4207.692383, 4207.179199, 4203.589844, 4202.563965, 4196.410156, 4198.974121, 4200.000000, 4190.256348, 4237.948730, 4184.102539, 4182.563965, 3524.000000, 8223.000000, 8154.000000, 0.000000, 0.000000, 0.000000, -20960.000000, 837.948669, 4.000000, 4.000000, 4.000000, 4.000000, 4.000000, 4.000000, 4.000000, 4.000000, 1.000000, 4.000000, 4.000000, 4.000000, 4.000000, 4.000000, 4.000000, 4.000000
109.000000, 0.000000, 4197.948730, 4198.974121, 4200.000000, 4201.538574, 4205.641113, 4205.127930, 4205.641113, 4191.794922, 4197.948730, 4200.000000, 4185.641113, 4230.769043, 4183.589844, 4177.948730, 3447.000000, 8216.000000, 8154.000000, 0.000000, 0.000000, 0.000000, -20960.000000, 845.640991, 4.000000, 4.000000, 4.000000, 4.000000, 4.000000, 4.000000, 4.000000, 4.000000, 1.000000, 4.000000, 4.000000, 4.000000, 4.000000, 4.000000, 4.000000, 4.000000
110.000000, 0.000000, 4191.281738, 4195.897461, 4199.487305, 4204.615234, 4205.641113, 4206.666504, 4200.512695, 4184.102539, 4198.974121, 4195.897461, 4183.076660, 4223.076660, 4185.127930, 4168.717773, 3588.000000, 8216.000000, 8154.000000, 0.000000, 0.000000, 0.000000, -20960.000000, 853.333313, 4.000000, 4.000000, 4.000000, 4.000000, 4.000000, 4.000000, 4.000000, 4.000000, 1.000000, 4.000000, 4.000000, 4.000000, 4.000000, 4.000000, 4.000000, 4.000000
111.000000, 0.000000, 4182.563965, 4189.743652, 4196.410156, 4201.538574, 4203.589844, 4206.666504, 4201.025391, 4187.179199, 4199.487305, 4191.794922, 4179.487305, 4220.512695, 4181.025391, 4165.641113, 3560.000000, 8212.000000, 8156.000000, 0.000000, 0.000000, 0.000000, -20960.000000, 861.025635, 4.000000, 4.000000, 4.000000, 4.000000, 4.000000, 4.000000, 4.000000, 4.000000, 1.000000, 4.000000, 4.000000, 4.000000, 4.000000, 4.000000, 4.000000, 4.000000
112.000000, 0.000000, 4191.794922, 4188.205078, 4198.974121, 4198.974121, 4205.127930, 4210.256348, 4216.922852, 4207.692383, 4198.974121, 4197.948730, 4186.153809, 4230.256348, 4182.563965, 4178.461426, 3524.000000, 8212.000000, 8156.000000, 0.000000, 0.000000, 0.000000, -20960.000000, 868.717957, 4.000000, 4.000000, 4.000000, 4.000000, 4.000000, 4.000000, 4.000000, 4.000000, 1.000000, 4.000000, 4.000000, 4.000000, 4.000000, 4.000000, 4.000000, 4.000000
113.000000, 0.000000, 4199.487305, 4190.769043, 4204.102539, 4201.025391, 4214.358887, 4214.871582, 4217.948730, 4217.436035, 4200.000000, 4205.641113, 4202.051270, 4245.641113, 4195.897461, 4189.230469, 3447.000000, 8204.000000, 8154.000000, 0.000000, 0.000000, 0.000000, -20960.000000, 876.923035, 4.000000, 4.000000, 4.000000, 4.000000, 4.000000, 4.000000, 4.000000, 4.000000, 1.000000, 4.000000, 4.000000, 4.000000, 4.000000, 4.000000, 4.000000, 4.000000
114.000000, 0.000000, 4193.333008, 4189.743652, 4198.461426, 4197.436035, 4217.436035, 4216.922852, 4202.563965, 4206.153809, 4201.025391, 4205.127930, 4208.717773, 4245.641113, 4204.102539, 4189.743652, 3588.000000, 8204.000000, 8154.000000, 0.000000, 0.000000, 0.000000, -20960.000000, 884.615356, 4.000000, 4.000000, 4.000000, 4.000000, 4.000000, 4.000000, 4.000000, 4.000000, 1.000000, 4.000000, 4.000000, 4.000000, 4.000000, 4.000000, 4.000000, 4.000000
115.000000, 0.000000, 4185.127930, 4184.102539, 4192.820313, 4190.256348, 4206.666504, 4212.307617, 4199.487305, 4197.948730, 4201.025391, 4201.538574, 4198.974121, 4234.358887, 4196.410156, 4185.641113, 3560.000000, 8207.000000, 8156.000000, 0.000000, 0.000000, 0.000000, -20960.000000, 892.307678, 4.000000, 4.000000, 4.000000, 4.000000, 4.000000, 4.000000, 4.000000, 4.000000, 1.000000, 4.000000, 4.000000, 4.000000, 4.000000, 4.000000, 4.000000, 4.000000
116.000000, 0.000000, 4185.127930, 4181.025391, 4198.461426, 4195.384277, 4200.000000, 4205.127930, 4206.666504, 4200.512695, 4201.025391, 4200.512695, 4187.692383, 4233.333008, 4188.717773, 4183.589844, 3524.000000, 8207.000000, 8156.000000, 0.000000, 0.000000, 0.000000, -20960.000000, 900.000000, 4.000000, 4.000000, 4.000000, 4.000000, 4.000000, 4.000000, 4.000000, 4.000000, 1.000000, 4.000000, 4.000000, 4.000000, 4.000000, 4.000000, 4.000000, 4.000000
117.000000, 0.000000, 4187.692383, 4184.615234, 4202.563965, 4202.563965, 4202.051270, 4198.974121, 4203.589844, 4203.076660, 4201.025391, 4197.436035, 4185.641113, 4235.897461, 4187.179199, 4182.051270, 3447.000000, 8208.000000, 8157.000000, 0.000000, 0.000000, 0.000000, -20960.000000, 907.692261, 4.000000, 4.000000, 4.000000, 4.000000, 4.000000, 4.000000, 4.000000, 4.000000, 1.000000, 4.000000, 4.000000, 4.000000, 4.000000, 4.000000, 4.000000, 4.000000
118.000000, 0.000000, 4187.179199, 4187.179199, 4201.538574, 4200.000000, 4200.000000, 4198.461426, 4198.974121, 4204.615234, 4201.025391, 4195.384277, 4188.717773, 4233.846191, 4188.717773, 4183.076660, 3588.000000, 8208.000000, 8157.000000, 0.000000, 0.000000, 0.000000, -20960.000000, 915.897400, 4.000000, 4.000000, 4.000000, 4.000000, 4.000000, 4.000000, 4.000000, 4.000000, 1.000000, 4.000000, 4.000000, 4.000000, 4.000000, 4.000000, 4.000000, 4.000000
119.000000, 0.000000, 4188.717773, 4185.641113, 4203.076660, 4201.025391, 4198.974121, 4200.512695, 4203.589844, 4205.641113, 4201.025391, 4198.974121, 4191.281738, 4232.820313, 4193.846191, 4186.666504, 3560.000000, 8206.000000, 8164.000000, 0.000000, 0.000000, 0.000000, -20960.000000, 923.589722, 4.000000, 4.000000, 4.000000, 4.000000, 4.000000, 4.000000, 4.000000, 4.000000, 1.000000, 4.000000, 4.000000, 4.000000, 4.000000, 4.000000, 4.000000, 4.000000
120.000000, 0.000000, 4190.769043, 4185.127930, 4198.974121, 4202.563965, 4199.487305, 4199.487305, 4206.666504, 4199.487305, 4201.025391, 4198.974121, 4187.692383, 4234.358887, 4193.846191, 4185.641113, 3524.000000, 8206.000000, 8164.000000, 0.000000, 0.000000, 0.000000, -20960.000000, 931.282043, 4.000000, 4.000000, 4.000000, 4.000000, 4.000000, 4.000000, 4.000000, 4.000000, 1.000000, 4.000000, 4.000000, 4.000000, 4.000000, 4.000000, 4.000000, 4.000000
121.000000, 0.000000, 4186.666504, 4185.641113, 4192.307617, 4192.307617, 4197.436035, 4198.974121, 4202.051270, 4195.384277, 4201.025391, 4194.358887, 4183.589844, 4228.205078, 4185.641113, 4179.487305, 3447.000000, 8206.000000, 8168.000000, 0.000000, 0.000000, 0.000000, -20960.000000, 938.974365, 4.000000, 4.000000, 4.000000, 4.000000, 4.000000, 4.000000, 4.000000, 4.000000, 1.000000, 4.000000, 4.000000, 4.000000, 4.000000, 4.000000, 4.000000, 4.000000
122.000000, 0.000000, 4184.102539, 4184.102539, 4194.871582, 4186.666504, 4198.974121, 4201.025391, 4202.051270, 4197.948730, 4201.025391, 4195.384277, 4186.153809, 4224.615234, 4189.230469, 4179.487305, 3588.000000, 8206.000000, 8168.000000, 0.000000, 0.000000, 0.000000, -20960.000000, 947.179443, 4.000000, 4.000000, 4.000000, 4.000000, 4.000000, 4.000000, 4.000000, 4.000000, 1.000000, 4.000000, 4.000000, 4.000000, 4.000000, 4.000000, 4.000000, 4.000000
123.000000, 0.000000, 4191.281738, 4183.076660, 4202.563965, 4196.410156, 4202.563965, 4205.127930, 4211.794922, 4202.563965, 4201.025391, 4206.666504, 4198.974121, 4237.948730, 4207.179199, 4191.281738, 3560.000000, 8203.000000, 8179.000000, 0.000000, 0.000000, 0.000000, -20960.000000, 954.871765, 4.000000, 4.000000, 4.000000, 4.000000, 4.000000, 4.000000, 4.000000, 4.000000, 1.000000, 4.000000, 4.000000, 4.000000, 4.000000, 4.000000, 4.000000, 4.000000
124.000000, 0.000000, 4194.358887, 4183.589844, 4203.076660, 4200.512695, 4202.563965, 4206.153809, 4212.820313, 4206.666504, 4201.025391, 4215.384277, 4212.307617, 4251.281738, 4216.922852, 4202.563965, 3524.000000, 8203.000000, 8179.000000, 0.000000, 0.000000, 0.000000, -20960.000000, 962.564087, 4.000000, 4.000000, 4.000000, 4.000000, 4.000000, 4.000000, 4.000000, 4.000000, 1.000000, 4.000000, 4.000000, 4.000000, 4.000000, 4.000000, 4.000000, 4.000000
125.000000, 0.000000, 4188.205078, 4183.589844, 4201.025391, 4191.281738, 4198.461426, 4204.102539, 4206.153809, 4213.846191, 4201.025391, 4217.948730, 4217.436035, 4249.743652, 4217.436035, 4204.102539, 3447.000000, 8206.000000, 8183.000000, 0.000000, 0.000000, 0.000000, -20960.000000, 970.256409, 4.000000, 4.000000, 4.000000, 4.000000, 4.000000, 4.000000, 4.000000, 4.000000, 1.000000, 4.000000, 4.000000, 4.000000, 4.000000, 4.000000, 4.000000, 4.000000
126.000000, 0.000000, 4186.666504, 4184.102539, 4199.487305, 4184.615234, 4195.897461, 4202.051270, 4203.076660, 4215.897461, 4201.025391, 4214.871582, 4213.333008, 4247.179199, 4215.897461, 4202.563965, 3588.000000, 8206.000000, 8183.000000, 0.000000, 0.000000, 0.000000, -20960.000000, 978.461487, 4.000000, 4.000000, 4.000000, 4.000000, 4.000000, 4.000000, 4.000000, 4.000000, 1.000000, 4.000000, 4.000000, 4.000000, 4.000000, 4.000000, 4.000000, 4.000000
127.000000, 0.000000, 4185.127930, 4178.974121, 4190.256348, 4183.076660, 4197.436035, 4200.512695, 4206.153809, 4204.102539, 4201.025391, 4207.179199, 4204.615234, 4249.230469, 4207.692383, 4196.922852, 57.000000, 8205.000000, 8184.000000, 0.000000, 0.000000, 0.000000, -20960.000000, 986.153809, 4.000000, 4.000000, 4.000000, 4.000000, 4.000000, 4.000000, 4.000000, 4.000000, 1.000000, 4.000000, 4.000000, 4.000000, 4.000000, 4.000000, 4.000000, 4.000000
0.000000, 0.000000, 4175.384277, 4175.384277, 4180.512695, 4183.076660, 4198.974121, 4202.563965, 4211.281738, 4198.974121, 4200.000000, 4201.538574, 4199.487305, 4243.076660, 4200.000000, 4187.692383, 3170.000000, 8205.000000, 8184.000000, 0.000000, 0.000000, 0.000000, -20960.000000, 993.846130, 4.000000, 4.000000, 4.000000, 4.000000, 4.000000, 4.000000, 4.000000, 4.000000, 1.000000, 4.000000, 4.000000, 4.000000, 4.000000, 4.000000, 4.000000, 4.000000
1.000000, 0.000000, 4169.230469, 4181.538574, 4181.025391, 4185.127930, 4200.512695, 4203.589844, 4213.846191, 4202.051270, 4197.948730, 4200.512695, 4194.871582, 4233.846191, 4200.512695, 4184.615234, 3515.000000, 8202.000000, 8187.000000, 0.000000, 0.000000, 0.000000, -20959.000000, 1.538461, 4.000000, 4.000000, 4.000000, 4.000000, 4.000000, 4.000000, 4.000000, 4.000000, 1.000000, 4.000000, 4.000000, 4.000000, 4.000000, 4.000000, 4.000000, 4.000000
2.000000, 0.000000, 4171.281738, 4185.127930, 4184.615234, 4185.641113, 4200.512695, 4204.615234, 4212.820313, 4192.307617, 4197.948730, 4200.000000, 4187.692383, 4232.307617, 4196.922852, 4182.051270, 3556.000000, 8202.000000, 8187.000000, 0.000000, 0.000000, 0.000000, -20959.000000, 9.743589, 4.000000, 4.000000, 4.000000, 4.000000, 4.000000, 4.000000, 4.000000, 4.000000, 1.000000, 4.000000, 4.000000, 4.000000, 4.000000, 4.000000, 4.000000, 4.000000
3.000000, 0.000000, 4172.307617, 4181.538574, 4183.076660, 4184.615234, 4201.538574, 4212.820313, 4215.384277, 4184.615234, 4198.974121, 4197.436035, 4185.641113, 4232.820313, 4188.205078, 4176.922852, 2368.000000, 8205.000000, 8188.000000, 0.000000, 0.000000, 0.000000, -20959.000000, 17.435898, 4.000000, 4.000000, 4.000000, 4.000000, 4.000000, 4.000000, 4.000000, 4.000000, 1.000000, 4.000000, 4.000000, 4.000000, 4.000000, 4.000000, 4.000000, 4.000000
4.000000, 0.000000, 4172.820313, 4180.512695, 4181.025391, 4185.641113, 4204.102539, 4219.487305, 4220.512695, 4195.897461, 4200.000000, 4198.461426, 4186.666504, 4231.794922, 4186.666504, 4175.897461, 3543.000000, 8205.000000, 8188.000000, 0.000000, 0.000000, 0.000000, -20959.000000, 25.128204, 4.000000, 4.000000, 4.000000, 4.000000, 4.000000, 4.000000, 4.000000, 4.000000, 1.000000, 4.000000, 4.000000, 4.000000, 4.000000, 4.000000, 4.000000, 4.000000
5.000000, 0.000000, 4175.384277, 4182.051270, 4182.051270, 4180.512695, 4201.538574, 4215.897461, 4219.487305, 4212.820313, 4200.512695, 4202.051270, 4186.666504, 4230.256348, 4186.153809, 4175.384277, 3571.000000, 8206.000000, 8185.000000, 0.000000, 0.000000, 0.000000, -20959.000000, 33.333332, 4.000000, 4.000000, 4.000000, 4.000000, 4.000000, 4.000000, 4.000000, 4.000000, 1.000000, 4.000000, 4.000000, 4.000000, 4.000000, 4.000000, 4.000000, 4.000000
6.000000, 0.000000, 4180.000000, 4180.512695, 4183.076660, 4177.948730, 4196.922852, 4215.897461, 4221.025391, 4214.358887, 4200.512695, 4206.666504, 4187.179199, 4229.230469, 4189.230469, 4177.436035, 3411.000000, 8206.000000, 8185.000000, 0.000000, 0.000000, 0.000000, -20959.000000, 41.025639, 4.000000, 4.000000, 4.000000, 4.000000, 4.000000, 4.000000, 4.000000, 4.000000, 1.000000, 4.000000, 4.000000, 4.000000, 4.000000, 4.000000, 4.000000, 4.000000
7.000000, 0.000000, 4188.205078, 4185.641113, 4184.102539, 4185.127930, 4197.948730, 4216.410156, 4217.436035, 4199.487305, 4199.487305, 4208.205078, 4189.230469, 4230.769043, 4198.974121, 4185.641113, 3498.000000, 8212.000000, 8183.000000, 0.000000, 0.000000, 0.000000, -20959.000000, 48.717949, 4.000000, 4.000000, 4.000000, 4.000000, 4.000000, 4.000000, 4.000000, 4.000000, 1.000000, 4.000000, 4.000000, 4.000000, 4.000000, 4.000000, 4.000000, 4.000000
8.000000, 0.000000, 4187.179199, 4193.333008, 4185.127930, 4188.717773, 4201.025391, 4205.641113, 4205.127930, 4182.563965, 4198.974121, 4203.076660, 4188.205078, 4230.256348, 4202.563965, 4186.153809, 65.000000, 8212.000000, 8183.000000, 0.000000, 0.000000, 0.000000, -20959.000000, 56.410255, 4.000000, 4.000000, 4.000000, 4.000000, 4.000000, 4.000000, 4.000000, 4.000000, 1.000000, 4.000000, 4.000000, 4.000000, 4.000000, 4.000000, 4.000000, 4.000000
9.000000, 0.000000, 4176.922852, 4189.743652, 4180.512695, 4183.076660, 4199.487305, 4197.436035, 4197.948730, 4181.025391, 4199.487305, 4197.948730, 4188.205078, 4229.230469, 4197.948730, 4178.974121, 2993.000000, 8215.000000, 8185.000000, 0.000000, 0.000000, 0.000000, -20959.000000, 64.615379, 4.000000, 4.000000, 4.000000, 4.000000, 4.000000, 4.000000, 4.000000, 4.000000, 1.000000, 4.000000, 4.000000, 4.000000, 4.000000, 4.000000, 4.000000, 4.000000
10.000000, 0.000000, 4177.948730, 4188.717773, 4176.922852, 4182.051270, 4198.461426, 4198.974121, 4198.461426, 4193.333008, 4200.000000, 4200.000000, 4192.307617, 4231.794922, 4197.948730, 4182.563965, 3591.000000, 8215.000000, 8185.000000, 0.000000, 0.000000, 0.000000, -20959.000000, 72.307693, 4.000000, 4.000000, 4.000000, 4.000000, 4.000000, 4.000000, 4.000000, 4.000000, 1.000000, 4.000000, 4.000000, 4.000000, 4.000000, 4.000000, 4.000000, 4.000000
11.000000, 0.000000, 4187.179199, 4192.307617, 4182.051270, 4186.666504, 4199.487305, 4200.512695, 4199.487305, 4201.538574, 4201.025391, 4201.538574, 4197.436035, 4234.358887, 4201.025391, 4190.769043, 3559.000000, 8217.000000, 8180.000000, 0.000000, 0.000000, 0.000000, -20959.000000, 80.000000, 4.000000, 4.000000, 4.000000, 4.000000, 4.000000, 4.000000, 4.000000, 4.000000, 1.000000, 4.000000, 4.000000, 4.000000, 4.000000, 4.000000, 4.000000, 4.000000
12.000000, 0.000000, 4188.717773, 4190.769043, 4186.153809, 4188.205078, 4200.512695, 4201.025391, 4201.538574, 4202.563965, 4201.025391, 4202.051270, 4198.974121, 4237.436035, 4202.051270, 4194.358887, 3526.000000, 8217.000000, 8180.000000, 0.000000, 0.000000, 0.000000, -20959.000000, 88.205124, 4.000000, 4.000000, 4.000000, 4.000000, 4.000000, 4.000000, 4.000000, 4.000000, 1.000000, 4.000000, 4.000000, 4.000000, 4.000000, 4.000000, 4.000000, 4.000000
13.000000, 0.000000, 4185.127930, 4193.846191, 4186.153809, 4188.205078, 4202.563965, 4203.076660, 4204.102539, 4201.025391, 4201.025391, 4208.717773, 4198.974121, 4244.102539, 4208.205078, 4197.436035, 3446.000000, 8216.000000, 8174.000000, 0.000000, 0.000000, 0.000000, -20959.000000, 95.897430, 4.000000, 4.000000, 4.000000, 4.000000, 4.000000, 4.000000, 4.000000, 4.000000, 1.000000, 4.000000, 4.000000, 4.000000, 4.000000, 4.000000, 4.000000, 4.000000
14.000000, 0.000000, 4186.153809, 4198.461426, 4184.615234, 4189.230469, 4202.051270, 4203.076660, 4202.563965, 4204.102539, 4201.025391, 4216.410156, 4202.563965, 4247.692383, 4216.410156, 4202.051270, 3591.000000, 8216.000000, 8174.000000, 0.000000, 0.000000, 0.000000, -20959.000000, 103.589745, 4.000000, 4.000000, 4.000000, 4.000000, 4.000000, 4.000000, 4.000000, 4.000000, 1.000000, 4.000000, 4.000000, 4.000000, 4.000000, 4.000000, 4.000000, 4.000000
15.000000, 0.000000, 4184.615234, 4188.205078, 4186.666504, 4189.230469, 4198.461426, 4203.076660, 4201.538574, 4210.256348, 4201.025391, 4216.922852, 4204.102539, 4244.615234, 4215.897461, 4201.538574, 3559.000000, 8216.000000, 8158.000000, 0.000000, 0.000000, 0.000000, -20959.000000, 111.794868, 4.000000, 4.000000, 4.000000, 4.000000, 4.000000, 4.000000, 4.000000, 4.000000, 1.000000, 4.000000, 4.000000, 4.000000, 4.000000, 4.000000, 4.000000, 4.000000
16.000000, 0.000000, 4184.102539, 4183.076660, 4193.846191, 4191.281738, 4197.436035, 4203.076660, 4202.563965, 4206.153809, 4201.025391, 4212.820313, 4203.589844, 4244.102539, 4211.794922, 4198.461426, 0.000000, 8216.000000, 8158.000000, 0.000000, 0.000000, 0.000000, -20959.000000, 119.487175, 4.000000, 4.000000, 4.000000, 4.000000, 4.000000, 4.000000, 4.000000, 4.000000, 1.000000, 4.000000, 4.000000, 4.000000, 4.000000, 4.000000, 4.000000, 4.000000
17.000000, 0.000000, 4196.410156, 4200.000000, 4203.076660, 4201.538574, 4200.512695, 4201.538574, 4198.461426, 4192.820313, 4200.512695, 4208.205078, 4207.179199, 4246.666504, 4218.974121, 4204.102539, 0.000000, 8217.000000, 8158.000000, 0.000000, 0.000000, 0.000000, -20959.000000, 127.179482, 4.000000, 4.000000, 4.000000, 4.000000, 4.000000, 4.000000, 4.000000, 4.000000, 1.000000, 4.000000, 4.000000, 4.000000, 4.000000, 4.000000, 4.000000, 4.000000
18.000000, 0.000000, 4203.589844, 4207.179199, 4203.589844, 4204.615234, 4196.410156, 4198.974121, 4195.897461, 4182.563965, 4199.487305, 4202.563965, 4206.666504, 4246.153809, 4220.512695, 4207.179199, 0.000000, 8217.000000, 8158.000000, 0.000000, 0.000000, 0.000000, -20959.000000, 135.384613, 4.000000, 4.000000, 4.000000, 4.000000, 4.000000, 4.000000, 4.000000, 4.000000, 1.000000, 4.000000, 4.000000, 4.000000, 4.000000, 4.000000, 4.000000, 4.000000
19.000000, 0.000000, 4199.487305, 4196.410156, 4200.512695, 4196.922852, 4189.743652, 4196.410156, 4200.000000, 4184.615234, 4198.974121, 4200.000000, 4201.025391, 4246.666504, 4206.153809, 4201.025391, 0.000000, 8205.000000, 8151.000000, 0.000000, 0.000000, 0.000000, -20959.000000, 143.076920, 4.000000, 4.000000, 4.000000, 4.000000, 4.000000, 4.000000, 4.000000, 4.000000, 1.000000, 4.000000, 4.000000, 4.000000, 4.000000, 4.000000, 4.000000, 4.000000
20.000000, 0.000000, 4200.000000, 4196.922852, 4204.102539, 4198.461426, 4194.358887, 4198.461426, 4202.051270, 4185.127930, 4199.487305, 4195.897461, 4197.948730, 4248.205078, 4197.436035, 4201.025391, 0.000000, 8205.000000, 8151.000000, 0.000000, 0.000000, 0.000000, -20959.000000, 150.769226, 4.000000, 4.000000, 4.000000, 4.000000, 4.000000, 4.000000, 4.000000, 4.000000, 1.000000, 4.000000, 4.000000, 4.000000, 4.000000, 4.000000, 4.000000, 4.000000
21.000000, 0.000000, 4198.974121, 4203.589844, 4202.051270, 4201.538574, 4198.461426, 4201.025391, 4199.487305, 4182.563965, 4198.461426, 4187.179199, 4194.358887, 4244.102539, 4187.692383, 4200.000000, 0.000000, 8203.000000, 8157.000000, 0.000000, 0.000000, 0.000000, -20959.000000, 158.461533, 4.000000, 4.000000, 4.000000, 4.000000, 4.000000, 4.000000, 4.000000, 4.000000, 1.000000, 4.000000, 4.000000, 4.000000, 4.000000, 4.000000, 4.000000, 4.000000
22.000000, 0.000000, 4185.641113, 4195.897461, 4188.717773, 4189.230469, 4188.717773, 4194.871582, 4199.487305, 4183.589844, 4197.436035, 4184.615234, 4182.051270, 4231.794922, 4165.127930, 4184.615234, 0.000000, 8203.000000, 8157.000000, 0.000000, 0.000000, 0.000000, -20959.000000, 166.666656, 4.000000, 4.000000, 4.000000, 4.000000, 4.000000, 4.000000, 4.000000, 4.000000, 1.000000, 4.000000, 4.000000, 4.000000, 4.000000, 4.000000, 4.000000, 4.000000
23.000000, 0.000000, 4177.436035, 4188.205078, 4178.974121, 4179.487305, 4181.025391, 4184.615234, 4192.307617, 4176.410156, 4198.974121, 4180.512695, 4169.230469, 4217.436035, 4147.179199, 4171.281738, 0.000000, 8200.000000, 8167.000000, 0.000000, 0.000000, 0.000000, -20959.000000, 174.358963, 4.000000, 4.000000, 4.000000, 4.000000, 4.000000, 4.000000, 4.000000, 4.000000, 1.000000, 4.000000, 4.000000, 4.000000, 4.000000, 4.000000, 4.000000, 4.000000
24.000000, 0.000000, 4184.102539, 4194.871582, 4180.512695, 4188.717773, 4186.666504, 4185.641113, 4183.589844, 4168.717773, 4200.512695, 4176.410156, 4172.820313, 4214.358887, 4152.307617, 4176.410156, 0.000000, 8200.000000, 8167.000000, 0.000000, 0.000000, 0.000000, -20959.000000, 182.051285, 4.000000, 4.000000, 4.000000, 4.000000, 4.000000, 4.000000, 4.000000, 4.000000, 1.000000, 4.000000, 4.000000, 4.000000, 4.000000, 4.000000, 4.000000, 4.000000
25.000000, 0.000000, 4194.358887, 4205.127930, 4186.666504, 4201.025391, 4197.436035, 4197.948730, 4191.281738, 4176.410156, 4200.512695, 4183.076660, 4182.563965, 4223.076660, 4159.487305, 4183.589844, 0.000000, 8192.000000, 8181.000000, 0.000000, 0.000000, 0.000000, -20959.000000, 189.743591, 4.000000, 4.000000, 4.000000, 4.000000, 4.000000, 4.000000, 4.000000, 4.000000, 1.000000, 4.000000, 4.000000, 4.000000, 4.000000, 4.000000, 4.000000, 4.000000
26.000000, 0.000000, 4202.563965, 4209.230469, 4187.179199, 4202.051270, 4203.589844, 4203.589844, 4202.051270, 4186.153809, 4200.000000, 4191.281738, 4184.615234, 4227.179199, 4160.000000, 4187.179199, 0.000000, 8192.000000, 8181.000000, 0.000000, 0.000000, 0.000000, -20959.000000, 197.948715, 4.000000, 4.000000, 4.000000, 4.000000, 4.000000, 4.000000, 4.000000, 4.000000, 1.000000, 4.000000, 4.000000, 4.000000, 4.000000, 4.000000, 4.000000, 4.000000
27.000000, 0.000000, 4202.563965, 4207.179199, 4183.589844, 4197.948730, 4201.025391, 4201.538574, 4202.051270, 4186.153809, 4199.487305, 4191.794922, 4181.538574, 4221.025391, 4162.563965, 4188.205078, 0.000000, 8199.000000, 8181.000000, 0.000000, 0.000000, 0.000000, -20959.000000, 205.641022, 4.000000, 4.000000, 4.000000, 4.000000, 4.000000, 4.000000, 4.000000, 4.000000, 1.000000, 4.000000, 4.000000, 4.000000, 4.000000, 4.000000, 4.000000, 4.000000
28.000000, 0.000000, 4196.922852, 4204.102539, 4182.051270, 4195.897461, 4196.922852, 4200.512695, 4201.025391, 4184.102539, 4198.461426, 4187.692383, 4181.025391, 4218.461426, 4165.127930, 4184.102539, 0.000000, 8199.000000, 8181.000000, 0.000000, 0.000000, 0.000000, -20959.000000, 213.333328, 4.000000, 4.000000, 4.000000, 4.000000, 4.000000, 4.000000, 4.000000, 4.000000, 1.000000, 4.000000, 4.000000, 4.000000, 4.000000, 4.000000, 4.000000, 4.000000
29.000000, 0.000000, 4200.512695, 4206.666504, 4185.127930, 4200.512695, 4201.025391, 4200.000000, 4200.512695, 4184.102539, 4197.436035, 4186.666504, 4184.102539, 4225.641113, 4168.205078, 4188.717773, 0.000000, 8201.000000, 8187.000000, 0.000000, 0.000000, 0.000000, -20959.000000, 221.025635, 4.000000, 4.000000, 4.000000, 4.000000, 4.000000, 4.000000, 4.000000, 4.000000, 1.000000, 4.000000, 4.000000, 4.000000, 4.000000, 4.000000, 4.000000, 4.000000
30.000000, 0.000000, 4204.615234, 4208.205078, 4188.205078, 4199.487305, 4203.076660, 4197.948730, 4198.461426, 4186.153809, 4198.974121, 4187.692383, 4183.076660, 4233.846191, 4166.153809, 4197.948730, 0.000000, 8201.000000, 8187.000000, 0.000000, 0.000000, 0.000000, -20959.000000, 229.230759, 4.000000, 4.000000, 4.000000, 4.000000, 4.000000, 4.000000, 4.000000, 4.000000, 1.000000, 4.000000, 4.000000, 4.000000, 4.000000, 4.000000, 4.000000, 4.000000
31.000000, 0.000000, 4196.410156, 4196.410156, 4188.205078, 4187.179199, 4197.436035, 4197.948730, 4202.563965, 4189.743652, 4201.025391, 4185.127930, 4173.333008, 4230.256348, 4154.358887, 4191.794922, 0.000000, 8200.000000, 8181.000000, 0.000000, 0.000000, 0.000000, -20959.000000, 236.923065, 4.000000, 4.000000, 4.000000, 4.000000, 4.000000, 4.000000, 4.000000, 4.000000, 1.000000, 4.000000, 4.000000, 4.000000, 4.000000, 4.000000, 4.000000, 4.000000
32.000000, 0.000000, 4191.794922, 4196.410156, 4185.641113, 4187.179199, 4197.948730, 4198.974121, 4201.025391, 4188.205078, 4199.487305, 4179.487305, 4166.666504, 4220.000000, 4147.179199, 4181.538574, 0.000000, 8200.000000, 8181.000000, 0.000000, 0.000000, 0.000000, -20959.000000, 244.615372, 4.000000, 4.000000, 4.000000, 4.000000, 4.000000, 4.000000, 4.000000, 4.000000, 1.000000, 4.000000, 4.000000, 4.000000, 4.000000, 4.000000, 4.000000, 4.000000
33.000000, 0.000000, 4197.948730, 4212.820313, 4184.102539, 4199.487305, 4200.000000, 4197.948730, 4187.179199, 4180.512695, 4198.974121, 4181.025391, 4173.846191, 4221.025391, 4157.436035, 4186.666504, 0.000000, 8202.000000, 8176.000000, 0.000000, 0.000000, 0.000000, -20959.000000, 252.307693, 4.000000, 4.000000, 4.000000, 4.000000, 4.000000, 4.000000, 4.000000, 4.000000, 1.000000, 4.000000, 4.000000, 4.000000, 4.000000, 4.000000, 4.000000, 4.000000
34.000000, 0.000000, 4202.563965, 4217.436035, 4191.281738, 4205.127930, 4201.025391, 4196.922852, 4182.563965, 4179.487305, 4200.000000, 4186.666504, 4183.076660, 4228.205078, 4170.769043, 4193.333008, 0.000000, 8202.000000, 8176.000000, 0.000000, 0.000000, 0.000000, -20959.000000, 260.512817, 4.000000, 4.000000, 4.000000, 4.000000, 4.000000, 4.000000, 4.000000, 4.000000, 1.000000, 4.000000, 4.000000, 4.000000, 4.000000, 4.000000, 4.000000, 4.000000
35.000000, 0.000000, 4200.512695, 4214.871582, 4195.384277, 4203.589844, 4208.205078, 4200.000000, 4196.922852, 4182.051270, 4200.000000, 4189.230469, 4183.589844, 4226.153809, 4170.769043, 4186.153809, 0.000000, 8197.000000, 8177.000000, 0.000000, 0.000000, 0.000000, -20959.000000, 268.205109, 4.000000, 4.000000, 4.000000, 4.000000, 4.000000, 4.000000, 4.000000, 4.000000, 1.000000, 4.000000, 4.000000, 4.000000, 4.000000, 4.000000, 4.000000, 4.000000
36.000000, 0.000000, 4196.922852, 4217.948730, 4193.333008, 4209.230469, 4214.871582, 4208.205078, 4204.102539, 4182.563965, 4199.487305, 4193.333008, 4182.051270, 4222.051270, 4171.794922, 4183.076660, 0.000000, 8197.000000, 8177.000000, 0.000000, 0.000000, 0.000000, -20959.000000, 275.897430, 4.000000, 4.000000, 4.000000, 4.000000, 4.000000, 4.000000, 4.000000, 4.000000, 1.000000, 4.000000, 4.000000, 4.000000, 4.000000, 4.000000, 4.000000, 4.000000
37.000000, 0.000000, 4198.461426, 4218.974121, 4195.384277, 4213.846191, 4217.948730, 4214.871582, 4201.025391, 4183.589844, 4198.461426, 4200.000000, 4186.666504, 4225.127930, 4184.615234, 4191.794922, 0.000000, 8200.000000, 8168.000000, 0.000000, 0.000000, 0.000000, -20959.000000, 284.102570, 4.000000, 4.000000, 4.000000, 4.000000, 4.000000, 4.000000, 4.000000, 4.000000, 1.000000, 4.000000, 4.000000, 4.000000, 4.000000, 4.000000, 4.000000, 4.000000
38.000000, 0.000000, 4210.256348, 4222.051270, 4203.076660, 4217.436035, 4226.666504, 4217.436035, 4205.641113, 4192.307617, 4197.948730, 4209.230469, 4198.461426, 4235.384277, 4202.563965, 4205.127930, 0.000000, 8200.000000, 8168.000000, 0.000000, 0.000000, 0.000000, -20959.000000, 291.794861, 4.000000, 4.000000, 4.000000, 4.000000, 4.000000, 4.000000, 4.000000, 4.000000, 1.000000, 4.000000, 4.000000, 4.000000, 4.000000, 4.000000, 4.000000, 4.000000
39.000000, 0.000000, 4214.358887, 4229.230469, 4204.615234, 4222.051270, 4232.820313, 4220.000000, 4213.333008, 4204.615234, 4198.974121, 4218.974121, 4206.666504, 4244.615234, 4212.307617, 4210.769043, 0.000000, 8194.000000, 8170.000000, 0.000000, 0.000000, 0.000000, -20959.000000, 299.487183, 4.000000, 4.000000, 4.000000, 4.000000, 4.000000, 4.000000, 4.000000, 4.000000, 1.000000, 4.000000, 4.000000, 4.000000, 4.000000, 4.000000, 4.000000, 4.000000
40.000000, 0.000000, 4203.076660, 4228.205078, 4198.461426, 4221.025391, 4230.256348, 4221.025391, 4215.897461, 4207.179199, 4200.000000, 4218.974121, 4205.127930, 4246.153809, 4208.205078, 4205.127930, 0.000000, 8194.000000, 8170.000000, 0.000000, 0.000000, 0.000000, -20959.000000, 307.179474, 4.000000, 4.000000, 4.000000, 4.000000, 4.000000, 4.000000, 4.000000, 4.000000, 1.000000, 4.000000, 4.000000, 4.000000, 4.000000, 4.000000, 4.000000, 4.000000
41.000000, 0.000000, 4198.974121, 4219.487305, 4197.948730, 4215.384277, 4225.127930, 4217.948730, 4211.281738, 4204.102539, 4200.512695, 4214.871582, 4201.538574, 4240.000000, 4203.589844, 4200.000000, 0.000000, 8191.000000, 8172.000000, 0.000000, 0.000000, 0.000000, -20959.000000, 315.384613, 4.000000, 4.000000, 4.000000, 4.000000, 4.000000, 4.000000, 4.000000, 4.000000, 1.000000, 4.000000, 4.000000, 4.000000, 4.000000, 4.000000, 4.000000, 4.000000
42.000000, 0.000000, 4199.487305, 4216.410156, 4195.897461, 4207.179199, 4221.025391, 4215.897461, 4205.127930, 4202.563965, 4200.512695, 4214.358887, 4202.051270, 4235.897461, 4203.589844, 4198.974121, 0.000000, 8191.000000, 8172.000000, 0.000000, 0.000000, 0.000000, -20959.000000, 323.076904, 4.000000, 4.000000, 4.000000, 4.000000, 4.000000, 4.000000, 4.000000, 4.000000, 1.000000, 4.000000, 4.000000, 4.000000, 4.000000, 4.000000, 4.000000, 4.000000
43.000000, 0.000000, 4189.743652, 4217.948730, 4188.717773, 4202.563965, 4218.461426, 4216.410156, 4209.230469, 4202.563965, 4198.974121, 4215.897461, 4202.051270, 4233.846191, 4199.487305, 4192.820313, 0.000000, 8196.000000, 8162.000000, 0.000000, 0.000000, 0.000000, -20959.000000, 330.769226, 4.000000, 4.000000, 4.000000, 4.000000, 4.000000, 4.000000, 4.000000, 4.000000, 1.000000, 4.000000, 4.000000, 4.000000, 4.000000, 4.000000, 4.000000, 4.000000
44.000000, 0.000000, 4184.102539, 4214.358887, 4182.563965, 4202.051270, 4216.410156, 4213.333008, 4216.410156, 4199.487305, 4198.974121, 4211.794922, 4196.410156, 4229.743652, 4192.307617, 4184.102539, 0.000000, 8196.000000, 8162.000000, 0.000000, 0.000000, 0.000000, -20959.000000, 338.974365, 4.000000, 4.000000, 4.000000, 4.000000, 4.000000, 4.000000, 4.000000, 4.000000, 1.000000, 4.000000, 4.000000, 4.000000, 4.000000, 4.000000, 4.000000, 4.000000
45.000000, 0.000000, 4186.666504, 4210.769043, 4182.563965, 4202.051270, 4214.871582, 4206.153809, 4208.205078, 4198.974121, 4201.025391, 4206.666504, 4191.281738, 4226.153809, 4195.897461, 4183.076660, 0.000000, 8207.000000, 8165.000000, 0.000000, 0.000000, 0.000000, -20959.000000, 346.666656, 4.000000, 4.000000, 4.000000, 4.000000, 4.000000, 4.000000, 4.000000, 4.000000, 1.000000, 4.000000, 4.000000, 4.000000, 4.000000, 4.000000, 4.000000, 4.000000
46.000000, 0.000000, 4185.127930, 4214.871582, 4183.589844, 4200.512695, 4214.871582, 4202.051270, 4200.000000, 4201.538574, 4201.538574, 4204.615234, 4191.794922, 4222.563965, 4202.563965, 4184.615234, 0.000000, 8207.000000, 8165.000000, 0.000000, 0.000000, 0.000000, -20959.000000, 354.358978, 4.000000, 4.000000, 4.000000, 4.000000, 4.000000, 4.000000, 4.000000, 4.000000, 1.000000, 4.000000, 4.000000, 4.000000, 4.000000, 4.000000, 4.000000, 4.000000
47.000000, 0.000000, 4183.076660, 4209.743652, 4181.538574, 4200.000000, 4207.692383, 4201.538574, 4205.127930, 4194.871582, 4200.000000, 4203.589844, 4188.717773, 4219.487305, 4197.948730, 4183.076660, 0.000000, 8211.000000, 8170.000000, 0.000000, 0.000000, 0.000000, -20959.000000, 362.564087, 4.000000, 4.000000, 4.000000, 4.000000, 4.000000, 4.000000, 4.000000, 4.000000, 1.000000, 4.000000, 4.000000, 4.000000, 4.000000, 4.000000, 4.000000, 4.000000
48.000000, 0.000000, 4186.153809, 4202.051270, 4182.563965, 4200.512695, 4201.025391, 4199.487305, 4202.563965, 4189.230469, 4199.487305, 4200.512695, 4184.615234, 4223.589844, 4193.846191, 4183.076660, 0.000000, 8211.000000, 8170.000000, 0.000000, 0.000000, 0.000000, -20959.000000, 370.256409, 4.000000, 4.000000, 4.000000, 4.000000, 4.000000, 4.000000, 4.000000, 4.000000, 1.000000, 4.000000, 4.000000, 4.000000, 4.000000, 4.000000, 4.000000, 4.000000
49.000000, 0.000000, 4188.205078, 4206.666504, 4187.179199, 4201.538574, 4205.641113, 4195.897461, 4200.000000, 4194.871582, 4198.974121, 4198.974121, 4190.256348, 4229.743652, 4200.000000, 4186.153809, 0.000000, 8213.000000, 8174.000000, 0.000000, 0.000000, 0.000000, -20959.000000, 378.461517, 4.000000, 4.000000, 4.000000, 4.000000, 4.000000, 4.000000, 4.000000, 4.000000, 1.000000, 4.000000, 4.000000, 4.000000, 4.000000, 4.000000, 4.000000, 4.000000
50.000000, 0.000000, 4192.307617, 4210.256348, 4193.846191, 4207.179199, 4209.743652, 4195.897461, 4207.692383, 4201.025391, 4198.974121, 4201.538574, 4198.461426, 4232.820313, 4203.589844, 4188.717773, 0.000000, 8213.000000, 8174.000000, 0.000000, 0.000000, 0.000000, -20959.000000, 386.666656, 4.000000, 4.000000, 4.000000, 4.000000, 4.000000, 4.000000, 4.000000, 4.000000, 1.000000, 4.000000, 4.000000, 4.000000, 4.000000, 4.000000, 4.000000, 4.000000
51.000000, 0.000000, 4198.974121, 4206.153809, 4199.487305, 4213.333008, 4203.589844, 4195.897461, 4209.743652, 4198.974121, 4198.974121, 4203.076660, 4199.487305, 4238.461426, 4202.051270, 4190.769043, 0.000000, 8212.000000, 8178.000000, 0.000000, 0.000000, 0.000000, -20959.000000, 394.358978, 4.000000, 4.000000, 4.000000, 4.000000, 4.000000, 4.000000, 4.000000, 4.000000, 1.000000, 4.000000, 4.000000, 4.000000, 4.000000, 4.000000, 4.000000, 4.000000
52.000000, 0.000000, 4201.025391, 4206.153809, 4200.512695, 4212.307617, 4202.051270, 4193.846191, 4206.666504, 4190.769043, 4198.974121, 4200.512695, 4194.871582, 4245.127930, 4197.436035, 4188.717773, 0.000000, 8212.000000, 8178.000000, 0.000000, 0.000000, 0.000000, -20959.000000, 402.051270, 4.000000, 4.000000, 4.000000, 4.000000, 4.000000, 4.000000, 4.000000, 4.000000, 1.000000, 4.000000, 4.000000, 4.000000, 4.000000, 4.000000, 4.000000, 4.000000
53.000000, 0.000000, 4196.410156, 4207.692383, 4200.000000, 4209.230469, 4210.256348, 4193.333008, 4205.127930, 4184.615234, 4198.974121, 4198.974121, 4192.820313, 4245.127930, 4189.743652, 4186.153809, 0.000000, 8205.000000, 8179.000000, 0.000000, 0.000000, 0.000000, -20959.000000, 410.256409, 4.000000, 4.000000, 4.000000, 4.000000, 4.000000, 4.000000, 4.000000, 4.000000, 1.000000, 4.000000, 4.000000, 4.000000, 4.000000, 4.000000, 4.000000, 4.000000
54.000000, 0.000000, 4195.897461, 4207.692383, 4198.974121, 4212.307617, 4211.794922, 4197.948730, 4205.641113, 4185.641113, 4198.974121, 4200.512695, 4196.922852, 4241.025391, 4189.743652, 4186.666504, 0.000000, 8205.000000, 8179.000000, 0.000000, 0.000000, 0.000000, -20959.000000, 417.948700, 4.000000, 4.000000, 4.000000, 4.000000, 4.000000, 4.000000, 4.000000, 4.000000, 1.000000, 4.000000, 4.000000, 4.000000, 4.000000, 4.000000, 4.000000, 4.000000
55.000000, 0.000000, 4202.051270, 4213.333008, 4200.512695, 4216.922852, 4205.641113, 4202.051270, 4205.641113, 4188.717773, 4199.487305, 4201.538574, 4201.025391, 4244.102539, 4197.436035, 4190.769043, 0.000000, 8201.000000, 8182.000000, 0.000000, 0.000000, 0.000000, -20959.000000, 426.153839, 4.000000, 4.000000, 4.000000, 4.000000, 4.000000, 4.000000, 4.000000, 4.000000, 1.000000, 4.000000, 4.000000, 4.000000, 4.000000, 4.000000, 4.000000, 4.000000
56.000000, 0.000000, 4202.563965, 4216.410156, 4201.538574, 4213.333008, 4203.589844, 4197.436035, 4203.076660, 4186.666504, 4198.974121, 4200.512695, 4198.974121, 4246.153809, 4193.846191, 4193.846191, 0.000000, 8201.000000, 8182.000000, 0.000000, 0.000000, 0.000000, -20959.000000, 433.846130, 4.000000, 4.000000, 4.000000, 4.000000, 4.000000, 4.000000, 4.000000, 4.000000, 1.000000, 4.000000, 4.000000, 4.000000, 4.000000, 4.000000, 4.000000, 4.000000
57.000000, 0.000000, 4193.333008, 4206.666504, 4196.410156, 4203.589844, 4202.563965, 4187.692383, 4197.948730, 4182.563965, 4198.974121, 4197.948730, 4196.922852, 4239.487305, 4184.102539, 4189.743652, 0.000000, 8194.000000, 8186.000000, 0.000000, 0.000000, 0.000000, -20959.000000, 442.051270, 4.000000, 4.000000, 4.000000, 4.000000, 4.000000, 4.000000, 4.000000, 4.000000, 1.000000, 4.000000, 4.000000, 4.000000, 4.000000, 4.000000, 4.000000, 4.000000
58.000000, 0.000000, 4186.153809, 4200.000000, 4188.717773, 4197.948730, 4197.948730, 4184.615234, 4195.384277, 4177.948730, 4199.487305, 4197.436035, 4200.512695, 4233.333008, 4187.179199, 4185.641113, 0.000000, 8194.000000, 8186.000000, 0.000000, 0.000000, 0.000000, -20959.000000, 449.743591, 4.000000, 4.000000, 4.000000, 4.000000, 4.000000, 4.000000, 4.000000, 4.000000, 1.000000, 4.000000, 4.000000, 4.000000, 4.000000, 4.000000, 4.000000, 4.000000
59.000000, 0.000000, 4187.179199, 4203.076660, 4185.641113, 4198.974121, 4196.922852, 4188.205078, 4198.461426, 4177.436035, 4200.000000, 4199.487305, 4200.000000, 4231.794922, 4190.769043, 4188.717773, 0.000000, 8187.000000, 8190.000000, 0.000000, 0.000000, 0.000000, -20959.000000, 457.435883, 4.000000, 4.000000, 4.000000, 4.000000, 4.000000, 4.000000, 4.000000, 4.000000, 1.000000, 4.000000, 4.000000, 4.000000, 4.000000, 4.000000, 4.000000, 4.000000
60.000000, 0.000000, 4184.102539, 4201.025391, 4185.641113, 4195.897461, 4199.487305, 4190.256348, 4198.974121, 4191.281738, 4200.512695, 4200.000000, 4190.256348, 4231.794922, 4175.384277, 4182.051270, 0.000000, 8187.000000, 8190.000000, 0.000000, 0.000000, 0.000000, -20959.000000, 465.641022, 4.000000, 4.000000, 4.000000, 4.000000, 4.000000, 4.000000, 4.000000, 4.000000, 1.000000, 4.000000, 4.000000, 4.000000, 4.000000, 4.000000, 4.000000, 4.000000
61.000000, 0.000000, 4180.512695, 4193.333008, 4187.692383, 4192.307617, 4199.487305, 4192.307617, 4193.846191, 4198.461426, 4200.512695, 4204.615234, 4190.769043, 4231.281738, 4171.794922, 4177.948730, 0.000000, 8185.000000, 8191.000000, 0.000000, 0.000000, 0.000000, -20959.000000, 473.846130, 4.000000, 4.000000, 4.000000, 4.000000, 4.000000, 4.000000, 4.000000, 4.000000, 1.000000, 4.000000, 4.000000, 4.000000, 4.000000, 4.000000, 4.000000, 4.000000
62.000000, 0.000000, 4184.615234, 4195.897461, 4188.205078, 4197.436035, 4201.538574, 4197.436035, 4191.794922, 4190.256348, 4200.000000, 4212.820313, 4202.563965, 4232.820313, 4198.461426, 4191.794922, 0.000000, 8185.000000, 8191.000000, 0.000000, 0.000000, 0.000000, -20959.000000, 481.538452, 4.000000, 4.000000, 4.000000, 4.000000, 4.000000, 4.000000, 4.000000, 4.000000, 1.000000, 4.000000, 4.000000, 4.000000, 4.000000, 4.000000, 4.000000, 4.000000
63.000000, 0.000000, 4189.743652, 4207.179199, 4188.205078, 4202.051270, 4203.589844, 4199.487305, 4194.871582, 4185.127930, 4200.000000, 4213.846191, 4208.717773, 4234.871582, 4221.538574, 4201.538574, 0.000000, 8190.000000, 8190.000000, 0.000000, 0.000000, 0.000000, -20959.000000, 489.230743, 4.000000, 4.000000, 4.000000, 4.000000, 4.000000, 4.000000, 4.000000, 4.000000, 1.000000, 4.000000, 4.000000, 4.000000, 4.000000, 4.000000, 4.000000, 4.000000
64.000000, 0.000000, 4189.230469, 4205.641113, 4190.256348, 4200.512695, 4203.076660, 4198.974121, 4195.897461, 4188.205078, 4200.512695, 4213.846191, 4211.794922, 4235.897461, 4220.512695, 4196.922852, 3171.000000, 8190.000000, 8190.000000, 0.000000, 0.000000, 0.000000, -20959.000000, 497.435883, 4.000000, 4.000000, 4.000000, 4.000000, 4.000000, 4.000000, 4.000000, 4.000000, 1.000000, 4.000000, 4.000000, 4.000000, 4.000000, 4.000000, 4.000000, 4.000000
65.000000, 0.000000, 4186.666504, 4195.897461, 4189.743652, 4195.384277, 4201.025391, 4201.538574, 4197.436035, 4189.230469, 4200.000000, 4216.922852, 4214.871582, 4236.410156, 4217.948730, 4195.897461, 3515.000000, 8191.000000, 8186.000000, 0.000000, 0.000000, 0.000000, -20959.000000, 505.128204, 4.000000, 4.000000, 4.000000, 4.000000, 4.000000, 4.000000, 4.000000, 4.000000, 1.000000, 4.000000, 4.000000, 4.000000, 4.000000, 4.000000, 4.000000, 4.000000
66.000000, 0.000000, 4184.102539, 4194.871582, 4184.615234, 4189.743652, 4196.410156, 4200.000000, 4198.461426, 4187.179199, 4198.974121, 4209.743652, 4207.179199, 4230.769043, 4219.487305, 4194.358887, 3554.000000, 8191.000000, 8186.000000, 0.000000, 0.000000, 0.000000, -20959.000000, 513.333313, 4.000000, 4.000000, 4.000000, 4.000000, 4.000000, 4.000000, 4.000000, 4.000000, 1.000000, 4.000000, 4.000000, 4.000000, 4.000000, 4.000000, 4.000000, 4.000000
67.000000, 0.000000, 4180.512695, 4193.846191, 4183.589844, 4186.666504, 4194.358887, 4194.871582, 4194.358887, 4186.666504, 4199.487305, 4200.512695, 4199.487305, 4228.717773, 4214.871582, 4186.153809, 2366.000000, 8197.000000, 8187.000000, 0.000000, 0.000000, 0.000000, -20959.000000, 521.025635, 4.000000, 4.000000, 4.000000, 4.000000, 4.000000, 4.000000, 4.000000, 4.000000, 1.000000, 4.000000, 4.000000, 4.000000, 4.000000, 4.000000, 4.000000, 4.000000
68.000000, 0.000000, 4176.922852, 4190.769043, 4183.076660, 4191.281738, 4200.000000, 4197.436035, 4195.897461, 4188.717773, 4199.487305, 4209.230469, 4204.102539, 4230.256348, 4215.897461, 4188.717773, 3543.000000, 8197.000000, 8187.000000, 0.000000, 0.000000, 0.000000, -20959.000000, 529.230774, 4.000000, 4.000000, 4.000000, 4.000000, 4.000000, 4.000000, 4.000000, 4.000000, 1.000000, 4.000000, 4.000000, 4.000000, 4.000000, 4.000000, 4.000000, 4.000000
69.000000, 0.000000, 4171.794922, 4190.256348, 4174.358887, 4190.256348, 4200.512695, 4201.538574, 4199.487305, 4190.769043, 4198.974121, 4214.358887, 4203.076660, 4222.051270, 4217.948730, 4188.717773, 3571.000000, 8198.000000, 8187.000000, 0.000000, 0.000000, 0.000000, -20959.000000, 536.923035, 4.000000, 4.000000, 4.000000, 4.000000, 4.000000, 4.000000, 4.000000, 4.000000, 1.000000, 4.000000, 4.000000, 4.000000, 4.000000, 4.000000, 4.000000, 4.000000
70.000000, 0.000000, 4166.153809, 4188.717773, 4165.127930, 4183.589844, 4195.897461, 4198.974121, 4193.333008, 4191.281738, 4199.487305, 4205.641113, 4196.410156, 4208.717773, 4214.871582, 4176.922852, 3405.000000, 8198.000000, 8187.000000, 0.000000, 0.000000, 0.000000, -20959.000000, 545.128174, 4.000000, 4.000000, 4.000000, 4.000000, 4.000000, 4.000000, 4.000000, 4.000000, 1.000000, 4.000000, 4.000000, 4.000000, 4.000000, 4.000000, 4.000000, 4.000000
71.000000, 0.000000, 4165.641113, 4186.666504, 4168.205078, 4183.589844, 4196.922852, 4195.897461, 4187.692383, 4188.205078, 4199.487305, 4202.051270, 4197.436035, 4211.794922, 4214.358887, 4174.871582, 3496.000000, 8207.000000, 8187.000000, 0.000000, 0.000000, 0.000000, -20959.000000, 552.820496, 4.000000, 4.000000, 4.000000, 4.000000, 4.000000, 4.000000, 4.000000, 4.000000, 1.000000, 4.000000, 4.000000, 4.000000, 4.000000, 4.000000, 4.000000, 4.000000
72.000000, 0.000000, 4168.205078, 4187.179199, 4176.410156, 4185.641113, 4196.922852, 4193.846191, 4190.769043, 4184.615234, 4199.487305, 4204.102539, 4201.025391, 4224.615234, 4215.384277, 4182.563965, 61.000000, 8207.000000, 8187.000000, 0.000000, 0.000000, 0.000000, -20959.000000, 560.512817, 4.000000, 4.000000, 4.000000, 4.000000, 4.000000, 4.000000, 4.000000, 4.000000, 1.000000, 4.000000, 4.000000, 4.000000, 4.000000, 4.000000, 4.000000, 4.000000
73.000000, 0.000000, 4177.436035, 4188.717773, 4184.615234, 4187.179199, 4191.794922, 4190.769043, 4194.358887, 4188.717773, 4199.487305, 4202.563965, 4201.538574, 4232.307617, 4215.897461, 4192.820313, 2993.000000, 8203.000000, 8181.000000, 0.000000, 0.000000, 0.000000, -20959.000000, 568.717957, 4.000000, 4.000000, 4.000000, 4.000000, 4.000000, 4.000000, 4.000000, 4.000000, 1.000000, 4.000000, 4.000000, 4.000000, 4.000000, 4.000000, 4.000000, 4.000000
74.000000, 0.000000, 4186.666504, 4188.205078, 4191.281738, 4188.717773, 4188.205078, 4187.179199, 4190.769043, 4187.179199, 4198.974121, 4198.461426, 4203.076660, 4234.871582, 4216.922852, 4201.025391, 3591.000000, 8203.000000, 8181.000000, 0.000000, 0.000000, 0.000000, -20959.000000, 576.410217, 4.000000, 4.000000, 4.000000, 4.000000, 4.000000, 4.000000, 4.000000, 4.000000, 1.000000, 4.000000, 4.000000, 4.000000, 4.000000, 4.000000, 4.000000, 4.000000
75.000000, 0.000000, 4183.589844, 4187.179199, 4188.717773, 4186.666504, 4186.666504, 4181.538574, 4178.461426, 4176.922852, 4199.487305, 4193.333008, 4201.538574, 4233.333008, 4217.436035, 4200.000000, 3556.000000, 8207.000000, 8172.000000, 0.000000, 0.000000, 0.000000, -20959.000000, 584.615356, 4.000000, 4.000000, 4.000000, 4.000000, 4.000000, 4.000000, 4.000000, 4.000000, 1.000000, 4.000000, 4.000000, 4.000000, 4.000000, 4.000000, 4.000000, 4.000000
76.000000, 0.000000, 4177.436035, 4186.666504, 4183.589844, 4184.102539, 4183.076660, 4178.461426, 4170.256348, 4172.307617, 4199.487305, 4190.256348, 4198.461426, 4231.281738, 4214.871582, 4195.897461, 3522.000000, 8207.000000, 8172.000000, 0.000000, 0.000000, 0.000000, -20959.000000, 592.307678, 4.000000, 4.000000, 4.000000, 4.000000, 4.000000, 4.000000, 4.000000, 4.000000, 1.000000, 4.000000, 4.000000, 4.000000, 4.000000, 4.000000, 4.000000, 4.000000
77.000000, 0.000000, 4178.974121, 4185.127930, 4182.563965, 4187.179199, 4182.051270, 4181.538574, 4176.922852, 4172.820313, 4198.974121, 4191.794922, 4198.974121, 4232.307617, 4212.820313, 4195.384277, 3446.000000, 8208.000000, 8169.000000, 0.000000, 0.000000, 0.000000, -20959.000000, 600.000000, 4.000000, 4.000000, 4.000000, 4.000000, 4.000000, 4.000000, 4.000000, 4.000000, 1.000000, 4.000000, 4.000000, 4.000000, 4.000000, 4.000000, 4.000000, 4.000000
78.000000, 0.000000, 4180.512695, 4185.127930, 4184.615234, 4187.179199, 4184.615234, 4183.076660, 4182.563965, 4175.897461, 4200.512695, 4193.846191, 4200.000000, 4233.333008, 4212.307617, 4194.358887, 3591.000000, 8208.000000, 8169.000000, 0.000000, 0.000000, 0.000000, -20959.000000, 608.205139, 4.000000, 4.000000, 4.000000, 4.000000, 4.000000, 4.000000, 4.000000, 4.000000, 1.000000, 4.000000, 4.000000, 4.000000, 4.000000, 4.000000, 4.000000, 4.000000
79.000000, 0.000000, 4180.512695, 4183.076660, 4186.153809, 4181.538574, 4183.076660, 4182.563965, 4184.615234, 4186.153809, 4202.051270, 4194.871582, 4199.487305, 4232.307617, 4212.820313, 4192.820313, 3556.000000, 8211.000000, 8164.000000, 0.000000, 0.000000, 0.000000, -20959.000000, 615.897400, 4.000000, 4.000000, 4.000000, 4.000000, 4.000000, 4.000000, 4.000000, 4.000000, 1.000000, 4.000000, 4.000000, 4.000000, 4.000000, 4.000000, 4.000000, 4.000000
80.000000, 0.000000, 4182.563965, 4181.025391, 4180.512695, 4178.974121, 4182.563965, 4185.641113, 4193.333008, 4190.769043, 4200.512695, 4197.948730, 4200.000000, 4230.769043, 4214.358887, 4196.922852, 3522.000000, 8211.000000, 8164.000000, 0.000000, 0.000000, 0.000000, -20959.000000, 624.102539, 4.000000, 4.000000, 4.000000, 4.000000, 4.000000, 4.000000, 4.000000, 4.000000, 1.000000, 4.000000, 4.000000, 4.000000, 4.000000, 4.000000, 4.000000, 4.000000
81.000000, 0.000000, 4183.076660, 4183.076660, 4177.436035, 4182.563965, 4190.769043, 4192.307617, 4201.538574, 4185.127930, 4200.000000, 4199.487305, 4202.051270, 4231.794922, 4221.025391, 4200.000000, 3446.000000, 8208.000000, 8159.000000, 0.000000, 0.000000, 0.000000, -20959.000000, 631.794861, 4.000000, 4.000000, 4.000000, 4.000000, 4.000000, 4.000000, 4.000000, 4.000000, 1.000000, 4.000000, 4.000000, 4.000000, 4.000000, 4.000000, 4.000000, 4.000000
82.000000, 0.000000, 4185.641113, 4186.153809, 4184.102539, 4186.666504, 4195.897461, 4194.871582, 4201.025391, 4189.230469, 4200.512695, 4203.589844, 4204.102539, 4233.333008, 4227.179199, 4202.563965, 3591.000000, 8208.000000, 8159.000000, 0.000000, 0.000000, 0.000000, -20959.000000, 640.000000, 4.000000, 4.000000, 4.000000, 4.000000, 4.000000, 4.000000, 4.000000, 4.000000, 1.000000, 4.000000, 4.000000, 4.000000, 4.000000, 4.000000, 4.000000, 4.000000
83.000000, 0.000000, 4185.127930, 4182.051270, 4185.641113, 4186.666504, 4188.717773, 4190.256348, 4198.461426, 4194.358887, 4200.000000, 4202.051270, 4203.589844, 4232.820313, 4220.512695, 4201.025391, 3556.000000, 8207.000000, 8157.000000, 0.000000, 0.000000, 0.000000, -20959.000000, 647.692322, 4.000000, 4.000000, 4.000000, 4.000000, 4.000000, 4.000000, 4.000000, 4.000000, 1.000000, 4.000000, 4.000000, 4.000000, 4.000000, 4.000000, 4.000000, 4.000000
84.000000, 0.000000, 4172.307617, 4171.281738, 4183.589844, 4182.563965, 4182.051270, 4183.076660, 4197.948730, 4179.487305, 4198.974121, 4190.256348, 4198.974121, 4227.692383, 4211.281738, 4194.358887, 3522.000000, 8207.000000, 8157.000000, 0.000000, 0.000000, 0.000000, -20959.000000, 655.384583, 4.000000, 4.000000, 4.000000, 4.000000, 4.000000, 4.000000, 4.000000, 4.000000, 1.000000, 4.000000, 4.000000, 4.000000, 4.000000, 4.000000, 4.000000, 4.000000
85.000000, 0.000000, 4170.256348, 4167.692383, 4188.205078, 4183.589844, 4186.153809, 4184.102539, 4198.974121, 4174.871582, 4199.487305, 4188.205078, 4199.487305, 4230.256348, 4214.871582, 4196.922852, 3446.000000, 8213.000000, 8158.000000, 0.000000, 0.000000, 0.000000, -20959.000000, 663.589722, 4.000000, 4.000000, 4.000000, 4.000000, 4.000000, 4.000000, 4.000000, 4.000000, 1.000000, 4.000000, 4.000000, 4.000000, 4.000000, 4.000000, 4.000000, 4.000000
86.000000, 0.000000, 4182.051270, 4175.897461, 4189.743652, 4186.153809, 4185.127930, 4185.641113, 4200.000000, 4190.769043, 4199.487305, 4199.487305, 4206.153809, 4240.000000, 4220.000000, 4203.076660, 3591.000000, 8213.000000, 8158.000000, 0.000000, 0.000000, 0.000000, -20959.000000, 671.794861, 4.000000, 4.000000, 4.000000, 4.000000, 4.000000, 4.000000, 4.000000, 4.000000, 1.000000, 4.000000, 4.000000, 4.000000, 4.000000, 4.000000, 4.000000, 4.000000
87.000000, 0.000000, 4183.076660, 4182.563965, 4189.230469, 4185.641113, 4182.051270, 4184.102539, 4199.487305, 4202.051270, 4199.487305, 4210.256348, 4212.307617, 4245.127930, 4221.025391, 4202.051270, 3556.000000, 8220.000000, 8156.000000, 0.000000, 0.000000, 0.000000, -20959.000000, 679.487183, 4.000000, 4.000000, 4.000000, 4.000000, 4.000000, 4.000000, 4.000000, 4.000000, 1.000000, 4.000000, 4.000000, 4.000000, 4.000000, 4.000000, 4.000000, 4.000000
88.000000, 0.000000, 4179.487305, 4183.589844, 4195.897461, 4186.666504, 4187.179199, 4186.153809, 4197.948730, 4201.025391, 4199.487305, 4212.307617, 4216.922852, 4245.641113, 4228.205078, 4204.102539, 3522.000000, 8220.000000, 8156.000000, 0.000000, 0.000000, 0.000000, -20959.000000, 687.179443, 4.000000, 4.000000, 4.000000, 4.000000, 4.000000, 4.000000, 4.000000, 4.000000, 1.000000, 4.000000, 4.000000, 4.000000, 4.000000, 4.000000, 4.000000, 4.000000
89.000000, 0.000000, 4179.487305, 4181.538574, 4195.384277, 4187.179199, 4188.717773, 4186.153809, 4197.436035, 4195.897461, 4198.974121, 4206.666504, 4216.922852, 4246.153809, 4227.179199, 4205.641113, 3446.000000, 8221.000000, 8157.000000, 0.000000, 0.000000, 0.000000, -20959.000000, 694.871765, 4.000000, 4.000000, 4.000000, 4.000000, 4.000000, 4.000000, 4.000000, 4.000000, 1.000000, 4.000000, 4.000000, 4.000000, 4.000000, 4.000000, 4.000000, 4.000000
90.000000, 0.000000, 4176.410156, 4181.538574, 4185.641113, 4185.127930, 4184.615234, 4183.589844, 4191.794922, 4186.153809, 4200.000000, 4200.512695, 4211.281738, 4244.615234, 4216.410156, 4200.512695, 3591.000000, 8221.000000, 8157.000000, 0.000000, 0.000000, 0.000000, -20959.000000, 703.076904, 4.000000, 4.000000, 4.000000, 4.000000, 4.000000, 4.000000, 4.000000, 4.000000, 1.000000, 4.000000, 4.000000, 4.000000, 4.000000, 4.000000, 4.000000, 4.000000
91.000000, 0.000000, 4176.922852, 4184.615234, 4187.179199, 4186.153809, 4185.127930, 4186.153809, 4187.179199, 4181.538574, 4200.512695, 4206.153809, 4213.333008, 4239.487305, 4222.563965, 4201.538574, 3556.000000, 8221.000000, 8159.000000, 0.000000, 0.000000, 0.000000, -20959.000000, 710.769226, 4.000000, 4.000000, 4.000000, 4.000000, 4.000000, 4.000000, 4.000000, 4.000000, 1.000000, 4.000000, 4.000000, 4.000000, 4.000000, 4.000000, 4.000000, 4.000000
92.000000, 0.000000, 4185.127930, 4185.127930, 4195.384277, 4190.769043, 4189.743652, 4188.717773, 4192.307617, 4192.820313, 4200.512695, 4217.948730, 4219.487305, 4236.410156, 4234.358887, 4207.692383, 3522.000000, 8221.000000, 8159.000000, 0.000000, 0.000000, 0.000000, -20959.000000, 718.974365, 4.000000, 4.000000, 4.000000, 4.000000, 4.000000, 4.000000, 4.000000, 4.000000, 1.000000, 4.000000, 4.000000, 4.000000, 4.000000, 4.000000, 4.000000, 4.000000
93.000000, 0.000000, 4183.589844, 4184.615234, 4191.281738, 4189.743652, 4187.179199, 4185.127930, 4196.410156, 4202.051270, 4198.974121, 4216.410156, 4211.794922, 4231.794922, 4226.153809, 4199.487305, 3446.000000, 8222.000000, 8165.000000, 0.000000, 0.000000, 0.000000, -20959.000000, 726.666626, 4.000000, 4.000000, 4.000000, 4.000000, 4.000000, 4.000000, 4.000000, 4.000000, 1.000000, 4.000000, 4.000000, 4.000000, 4.000000, 4.000000, 4.000000, 4.000000
94.000000, 0.000000, 4178.461426, 4186.153809, 4185.127930, 4184.615234, 4181.538574, 4181.538574, 4196.922852, 4201.025391, 4198.974121, 4211.794922, 4203.589844, 4228.717773, 4215.897461, 4190.256348, 3591.000000, 8222.000000, 8165.000000, 0.000000, 0.000000, 0.000000, -20959.000000, 734.871765, 4.000000, 4.000000, 4.000000, 4.000000, 4.000000, 4.000000, 4.000000, 4.000000, 1.000000, 4.000000, 4.000000, 4.000000, 4.000000, 4.000000, 4.000000, 4.000000
95.000000, 0.000000, 4185.127930, 4187.179199, 4188.717773, 4185.641113, 4185.127930, 4184.102539, 4200.000000, 4202.563965, 4200.512695, 4213.846191, 4213.846191, 4233.333008, 4224.102539, 4200.000000, 3556.000000, 8216.000000, 8167.000000, 0.000000, 0.000000, 0.000000, -20959.000000, 742.564087, 4.000000, 4.000000, 4.000000, 4.000000, 4.000000, 4.000000, 4.000000, 4.000000, 1.000000, 4.000000, 4.000000, 4.000000, 4.000000, 4.000000, 4.000000, 4.000000
96.000000, 0.000000, 4183.589844, 4186.666504, 4187.692383, 4188.717773, 4187.692383, 4187.179199, 4201.538574, 4206.666504, 4200.512695, 4209.743652, 4217.436035, 4234.358887, 4220.512695, 4202.051270, 3522.000000, 8216.000000, 8167.000000, 0.000000, 0.000000, 0.000000, -20959.000000, 750.256409, 4.000000, 4.000000, 4.000000, 4.000000, 4.000000, 4.000000, 4.000000, 4.000000, 1.000000, 4.000000, 4.000000, 4.000000, 4.000000, 4.000000, 4.000000, 4.000000
97.000000, 0.000000, 4171.794922, 4184.102539, 4175.384277, 4183.589844, 4183.076660, 4185.127930, 4198.461426, 4200.512695, 4198.974121, 4200.512695, 4204.615234, 4231.281738, 4204.615234, 4186.666504, 3446.000000, 8208.000000, 8165.000000, 0.000000, 0.000000, 0.000000, -20959.000000, 758.461548, 4.000000, 4.000000, 4.000000, 4.000000, 4.000000, 4.000000, 4.000000, 4.000000, 1.000000, 4.000000, 4.000000, 4.000000, 4.000000, 4.000000, 4.000000, 4.000000
98.000000, 0.000000, 4165.641113, 4177.436035, 4169.743652, 4172.820313, 4185.127930, 4190.769043, 4198.974121, 4192.307617, 4199.487305, 4195.897461, 4197.948730, 4228.205078, 4201.025391, 4183.076660, 3591.000000, 8208.000000, 8165.000000, 0.000000, 0.000000, 0.000000, -20959.000000, 766.153809, 4.000000, 4.000000, 4.000000, 4.000000, 4.000000, 4.000000, 4.000000, 4.000000, 1.000000, 4.000000, 4.000000, 4.000000, 4.000000, 4.000000, 4.000000, 4.000000
99.000000, 0.000000, 4158.974121, 4167.692383, 4171.794922, 4167.179199, 4186.153809, 4200.000000, 4203.076660, 4196.922852, 4200.512695, 4192.820313, 4192.820313, 4223.076660, 4196.410156, 4182.563965, 3556.000000, 8211.000000, 8163.000000, 0.000000, 0.000000, 0.000000, -20959.000000, 773.846130, 4.000000, 4.000000, 4.000000, 4.000000, 4.000000, 4.000000, 4.000000, 4.000000, 1.000000, 4.000000, 4.000000, 4.000000, 4.000000, 4.000000, 4.000000, 4.000000
100.000000, 0.000000, 4148.205078, 4162.563965, 4168.205078, 4165.641113, 4176.410156, 4194.871582, 4201.538574, 4205.641113, 4199.487305, 4193.333008, 4183.589844, 4215.897461, 4187.179199, 4171.281738, 3522.000000, 8211.000000, 8163.000000, 0.000000, 0.000000, 0.000000, -20959.000000, 782.051270, 4.000000, 4.000000, 4.000000, 4.000000, 4.000000, 4.000000, 4.000000, 4.000000, 1.000000, 4.000000, 4.000000, 4.000000, 4.000000, 4.000000, 4.000000, 4.000000
101.000000, 0.000000, 4154.871582, 4165.641113, 4170.769043, 4168.205078, 4174.871582, 4186.153809, 4200.000000, 4200.000000, 4197.948730, 4198.974121, 4190.256348, 4215.897461, 4195.384277, 4176.922852, 3446.000000, 8217.000000, 8161.000000, 0.000000, 0.000000, 0.000000, -20959.000000, 789.743591, 4.000000, 4.000000, 4.000000, 4.000000, 4.000000, 4.000000, 4.000000, 4.000000, 1.000000, 4.000000, 4.000000, 4.000000, 4.000000, 4.000000, 4.000000, 4.000000
102.000000, 0.000000, 4168.717773, 4171.281738, 4178.461426, 4173.846191, 4185.127930, 4187.692383, 4196.410156, 4186.153809, 4199.487305, 4201.025391, 4203.076660, 4224.615234, 4213.846191, 4191.281738, 3591.000000, 8217.000000, 8161.000000, 0.000000, 0.000000, 0.000000, -20959.000000, 797.948669, 4.000000, 4.000000, 4.000000, 4.000000, 4.000000, 4.000000, 4.000000, 4.000000, 1.000000, 4.000000, 4.000000, 4.000000, 4.000000, 4.000000, 4.000000, 4.000000
103.000000, 0.000000, 4162.051270, 4168.717773, 4173.846191, 4171.281738, 4183.076660, 4188.717773, 4193.333008, 4181.025391, 4201.025391, 4199.487305, 4203.076660, 4231.281738, 4215.897461, 4189.230469, 3556.000000, 8216.000000, 8163.000000, 0.000000, 0.000000, 0.000000, -20959.000000, 805.640991, 4.000000, 4.000000, 4.000000, 4.000000, 4.000000, 4.000000, 4.000000, 4.000000, 1.000000, 4.000000, 4.000000, 4.000000, 4.000000, 4.000000, 4.000000, 4.000000
104.000000, 0.000000, 4151.794922, 4165.127930, 4165.127930, 4165.641113, 4176.922852, 4186.666504, 4195.897461, 4184.102539, 4199.487305, 4202.051270, 4201.025391, 4230.769043, 4213.846191, 4188.205078, 3522.000000, 8216.000000, 8163.000000, 0.000000, 0.000000, 0.000000, -20959.000000, 813.846130, 4.000000, 4.000000, 4.000000, 4.000000, 4.000000, 4.000000, 4.000000, 4.000000, 1.000000, 4.000000, 4.000000, 4.000000, 4.000000, 4.000000, 4.000000, 4.000000
105.000000, 0.000000, 4153.846191, 4167.692383, 4171.794922, 4167.179199, 4181.025391, 4187.692383, 4200.512695, 4185.127930, 4198.974121, 4207.692383, 4209.743652, 4232.307617, 4219.487305, 4197.948730, 3446.000000, 8223.000000, 8158.000000, 0.000000, 0.000000, 0.000000, -20959.000000, 821.538452, 4.000000, 4.000000, 4.000000, 4.000000, 4.000000, 4.000000, 4.000000, 4.000000, 1.000000, 4.000000, 4.000000, 4.000000, 4.000000, 4.000000, 4.000000, 4.000000
106.000000, 0.000000, 4160.512695, 4171.281738, 4182.051270, 4171.794922, 4183.589844, 4187.179199, 4202.051270, 4191.794922, 4200.512695, 4213.846191, 4215.897461, 4241.538574, 4220.000000, 4200.000000, 3591.000000, 8223.000000, 8158.000000, 0.000000, 0.000000, 0.000000, -20959.000000, 829.743591, 4.000000, 4.000000, 4.000000, 4.000000, 4.000000, 4.000000, 4.000000, 4.000000, 1.000000, 4.000000, 4.000000, 4.000000, 4.000000, 4.000000, 4.000000, 4.000000
107.000000, 0.000000, 4167.179199, 4171.281738, 4187.179199, 4176.410156, 4181.538574, 4185.641113, 4200.000000, 4200.000000, 4200.512695, 4215.384277, 4214.871582, 4248.717773, 4219.487305, 4200.512695, 3556.000000, 8230.000000, 8142.000000, 0.000000, 0.000000, 0.000000, -20959.000000, 837.435852, 4.000000, 4.000000, 4.000000, 4.000000, 4.000000, 4.000000, 4.000000, 4.000000, 1.000000, 4.000000, 4.000000, 4.000000, 4.000000, 4.000000, 4.000000, 4.000000
108.000000, 0.000000, 4172.820313, 4171.281738, 4193.846191, 4182.563965, 4184.102539, 4186.666504, 4201.538574, 4202.563965, 4199.487305, 4212.820313, 4213.846191, 4252.820313, 4227.179199, 4207.179199, 3522.000000, 8230.000000, 8142.000000, 0.000000, 0.000000, 0.000000, -20959.000000, 845.128174, 4.000000, 4.000000, 4.000000, 4.000000, 4.000000, 4.000000, 4.000000, 4.000000, 1.000000, 4.000000, 4.000000, 4.000000, 4.000000, 4.000000, 4.000000, 4.000000
109.000000, 0.000000, 4174.358887, 4171.794922, 4196.410156, 4183.589844, 4185.127930, 4187.692383, 4206.666504, 4202.051270, 4199.487305, 4215.897461, 4216.410156, 4252.307617, 4232.307617, 4208.717773, 3446.000000, 8232.000000, 8138.000000, 0.000000, 0.000000, 0.000000, -20959.000000, 853.333313, 4.000000, 4.000000, 4.000000, 4.000000, 4.000000, 4.000000, 4.000000, 4.000000, 1.000000, 4.000000, 4.000000, 4.000000, 4.000000, 4.000000, 4.000000, 4.000000
110.000000, 0.000000, 4169.230469, 4169.743652, 4183.589844, 4177.436035, 4176.922852, 4185.127930, 4199.487305, 4195.897461, 4199.487305, 4215.384277, 4215.384277, 4239.487305, 4224.102539, 4203.076660, 3591.000000, 8232.000000, 8138.000000, 0.000000, 0.000000, 0.000000, -20959.000000, 861.025635, 4.000000, 4.000000, 4.000000, 4.000000, 4.000000, 4.000000, 4.000000, 4.000000, 1.000000, 4.000000, 4.000000, 4.000000, 4.000000, 4.000000, 4.000000, 4.000000
111.000000, 0.000000, 4158.974121, 4168.205078, 4170.769043, 4172.307617, 4171.281738, 4182.563965, 4190.769043, 4194.871582, 4199.487305, 4207.179199, 4208.717773, 4226.666504, 4217.948730, 4194.358887, 3556.000000, 8231.000000, 8131.000000, 0.000000, 0.000000, 0.000000, -20959.000000, 868.717957, 4.000000, 4.000000, 4.000000, 4.000000, 4.000000, 4.000000, 4.000000, 4.000000, 1.000000, 4.000000, 4.000000, 4.000000, 4.000000, 4.000000, 4.000000, 4.000000
112.000000, 0.000000, 4156.410156, 4169.743652, 4169.743652, 4173.333008, 4177.948730, 4186.153809, 4200.512695, 4202.051270, 4198.974121, 4203.589844, 4205.127930, 4229.743652, 4222.051270, 4191.794922, 3522.000000, 8231.000000, 8131.000000, 0.000000, 0.000000, 0.000000, -20959.000000, 876.923035, 4.000000, 4.000000, 4.000000, 4.000000, 4.000000, 4.000000, 4.000000, 4.000000, 1.000000, 4.000000, 4.000000, 4.000000, 4.000000, 4.000000, 4.000000, 4.000000
113.000000, 0.000000, 4166.153809, 4171.281738, 4170.256348, 4174.358887, 4184.615234, 4188.717773, 4205.127930, 4197.948730, 4199.487305, 4205.127930, 4205.641113, 4233.333008, 4218.974121, 4193.846191, 3446.000000, 8227.000000, 8133.000000, 0.000000, 0.000000, 0.000000, -20959.000000, 884.615356, 4.000000, 4.000000, 4.000000, 4.000000, 4.000000, 4.000000, 4.000000, 4.000000, 1.000000, 4.000000, 4.000000, 4.000000, 4.000000, 4.000000, 4.000000, 4.000000
114.000000, 0.000000, 4167.692383, 4172.307617, 4171.794922, 4173.846191, 4176.922852, 4184.102539, 4188.717773, 4180.512695, 4198.974121, 4202.051270, 4198.974121, 4224.102539, 4203.589844, 4190.256348, 3591.000000, 8227.000000, 8133.000000, 0.000000, 0.000000, 0.000000, -20959.000000, 892.307678, 4.000000, 4.000000, 4.000000, 4.000000, 4.000000, 4.000000, 4.000000, 4.000000, 1.000000, 4.000000, 4.000000, 4.000000, 4.000000, 4.000000, 4.000000, 4.000000
115.000000, 0.000000, 4165.127930, 4173.333008, 4176.410156, 4173.846191, 4170.769043, 4180.000000, 4183.076660, 4171.794922, 4197.436035, 4195.897461, 4189.743652, 4217.948730, 4189.743652, 4183.076660, 3556.000000, 8230.000000, 8130.000000, 0.000000, 0.000000, 0.000000, -20959.000000, 900.512817, 4.000000, 4.000000, 4.000000, 4.000000, 4.000000, 4.000000, 4.000000, 4.000000, 1.000000, 4.000000, 4.000000, 4.000000, 4.000000, 4.000000, 4.000000, 4.000000
116.000000, 0.000000, 4165.127930, 4172.307617, 4174.358887, 4173.846191, 4174.358887, 4176.922852, 4190.256348, 4169.230469, 4198.461426, 4188.717773, 4187.692383, 4213.333008, 4176.410156, 4177.436035, 3522.000000, 8230.000000, 8130.000000, 0.000000, 0.000000, 0.000000, -20959.000000, 908.205078, 4.000000, 4.000000, 4.000000, 4.000000, 4.000000, 4.000000, 4.000000, 4.000000, 1.000000, 4.000000, 4.000000, 4.000000, 4.000000, 4.000000, 4.000000, 4.000000
117.000000, 0.000000, 4157.948730, 4170.256348, 4162.563965, 4171.794922, 4175.384277, 4172.820313, 4187.179199, 4164.615234, 4201.025391, 4184.102539, 4181.025391, 4203.076660, 4158.974121, 4172.307617, 3446.000000, 8226.000000, 8148.000000, 0.000000, 0.000000, 0.000000, -20959.000000, 916.410217, 4.000000, 4.000000, 4.000000, 4.000000, 4.000000, 4.000000, 4.000000, 4.000000, 1.000000, 4.000000, 4.000000, 4.000000, 4.000000, 4.000000, 4.000000, 4.000000
118.000000, 0.000000, 4147.179199, 4166.666504, 4150.769043, 4164.102539, 4172.307617, 4172.820313, 4184.102539, 4166.153809, 4200.000000, 4184.102539, 4169.743652, 4201.538574, 4145.641113, 4166.153809, 3591.000000, 8226.000000, 8148.000000, 0.000000, 0.000000, 0.000000, -20959.000000, 924.102539, 4.000000, 4.000000, 4.000000, 4.000000, 4.000000, 4.000000, 4.000000, 4.000000, 1.000000, 4.000000, 4.000000, 4.000000, 4.000000, 4.000000, 4.000000, 4.000000
119.000000, 0.000000, 4149.743652, 4166.666504, 4156.410156, 4161.025391, 4171.281738, 4178.461426, 4186.666504, 4169.230469, 4197.436035, 4185.127930, 4173.333008, 4210.769043, 4147.179199, 4165.641113, 3556.000000, 8223.000000, 8148.000000, 0.000000, 0.000000, 0.000000, -20959.000000, 932.307678, 4.000000, 4.000000, 4.000000, 4.000000, 4.000000, 4.000000, 4.000000, 4.000000, 1.000000, 4.000000, 4.000000, 4.000000, 4.000000, 4.000000, 4.000000, 4.000000
120.000000, 0.000000, 4162.051270, 4173.333008, 4175.897461, 4171.281738, 4173.333008, 4184.102539, 4184.615234, 4169.230469, 4198.974121, 4185.127930, 4185.127930, 4219.487305, 4153.846191, 4176.922852, 3522.000000, 8223.000000, 8148.000000, 0.000000, 0.000000, 0.000000, -20959.000000, 940.000000, 4.000000, 4.000000, 4.000000, 4.000000, 4.000000, 4.000000, 4.000000, 4.000000, 1.000000, 4.000000, 4.000000, 4.000000, 4.000000, 4.000000, 4.000000, 4.000000
121.000000, 0.000000, 4171.794922, 4177.436035, 4187.179199, 4183.076660, 4175.384277, 4183.076660, 4185.127930, 4170.769043, 4201.025391, 4184.102539, 4182.563965, 4225.127930, 4154.358887, 4187.179199, 3446.000000, 8241.000000, 8152.000000, 0.000000, 0.000000, 0.000000, -20959.000000, 947.692261, 4.000000, 4.000000, 4.000000, 4.000000, 4.000000, 4.000000, 4.000000, 4.000000, 1.000000, 4.000000, 4.000000, 4.000000, 4.000000, 4.000000, 4.000000, 4.000000
122.000000, 0.000000, 4177.948730, 4180.000000, 4187.179199, 4185.127930, 4174.871582, 4175.897461, 4185.127930, 4167.179199, 4201.538574, 4181.538574, 4176.410156, 4226.666504, 4153.333008, 4188.717773, 3591.000000, 8241.000000, 8152.000000, 0.000000, 0.000000, 0.000000, -20959.000000, 955.384583, 4.000000, 4.000000, 4.000000, 4.000000, 4.000000, 4.000000, 4.000000, 4.000000, 1.000000, 4.000000, 4.000000, 4.000000, 4.000000, 4.000000, 4.000000, 4.000000
123.000000, 0.000000, 4177.948730, 4181.538574, 4185.641113, 4180.512695, 4172.307617, 4170.769043, 4172.820313, 4160.000000, 4201.025391, 4181.538574, 4181.538574, 4226.153809, 4154.871582, 4192.820313, 3556.000000, 8246.000000, 8148.000000, 0.000000, 0.000000, 0.000000, -20959.000000, 963.589722, 4.000000, 4.000000, 4.000000, 4.000000, 4.000000, 4.000000, 4.000000, 4.000000, 1.000000, 4.000000, 4.000000, 4.000000, 4.000000, 4.000000, 4.000000, 4.000000
124.000000, 0.000000, 4174.871582, 4176.922852, 4176.922852, 4176.922852, 4169.743652, 4170.256348, 4164.615234, 4162.051270, 4198.974121, 4184.615234, 4186.153809, 4226.153809, 4157.948730, 4198.461426, 3522.000000, 8246.000000, 8148.000000, 0.000000, 0.000000, 0.000000, -20959.000000, 971.282043, 4.000000, 4.000000, 4.000000, 4.000000, 4.000000, 4.000000, 4.000000, 4.000000, 1.000000, 4.000000, 4.000000, 4.000000, 4.000000, 4.000000, 4.000000, 4.000000
125.000000, 0.000000, 4164.615234, 4169.743652, 4158.461426, 4168.717773, 4170.256348, 4170.769043, 4176.922852, 4168.717773, 4198.461426, 4186.153809, 4184.615234, 4222.051270, 4161.025391, 4193.333008, 3446.000000, 8259.000000, 8152.000000, 0.000000, 0.000000, 0.000000, -20959.000000, 979.487183, 4.000000, 4.000000, 4.000000, 4.000000, 4.000000, 4.000000, 4.000000, 4.000000, 1.000000, 4.000000, 4.000000, 4.000000, 4.000000, 4.000000, 4.000000, 4.000000
126.000000, 0.000000, 4152.307617, 4165.641113, 4147.692383, 4155.384277, 4166.153809, 4169.743652, 4185.641113, 4169.230469, 4200.000000, 4186.153809, 4180.512695, 4213.333008, 4162.563965, 4186.153809, 3591.000000, 8259.000000, 8152.000000, 0.000000, 0.000000, 0.000000, -20959.000000, 987.179443, 4.000000, 4.000000, 4.000000, 4.000000, 4.000000, 4.000000, 4.000000, 4.000000, 1.000000, 4.000000, 4.000000, 4.000000, 4.000000, 4.000000, 4.000000, 4.000000
127.000000, 0.000000, 4155.897461, 4167.179199, 4160.512695, 4155.897461, 4160.000000, 4169.230469, 4182.563965, 4168.717773, 4199.487305, 4183.589844, 4176.410156, 4216.410156, 4162.051270, 4188.717773, 57.000000, 8262.000000, 8147.000000, 0.000000, 0.000000, 0.000000, -20959.000000, 995.384583, 4.000000, 4.000000, 4.000000, 4.000000, 4.000000, 4.000000, 4.000000, 4.000000, 1.000000, 4.000000, 4.000000, 4.000000, 4.000000, 4.000000, 4.000000, 4.000000
0.000000, 0.000000, 4169.230469, 4165.127930, 4181.025391, 4164.615234, 4157.436035, 4170.256348, 4184.102539, 4167.692383, 4198.461426, 4177.948730, 4174.358887, 4224.615234, 4159.487305, 4191.281738, 3174.000000, 8262.000000, 8147.000000, 0.000000, 0.000000, 0.000000, -20958.000000, 3.076923, 4.000000, 4.000000, 4.000000, 4.000000, 4.000000, 4.000000, 4.000000, 4.000000, 1.000000, 4.000000, 4.000000, 4.000000, 4.000000, 4.000000, 4.000000, 4.000000
1.000000, 0.000000, 4168.717773, 4157.436035, 4186.153809, 4163.589844, 4154.358887, 4170.256348, 4184.102539, 4156.922852, 4200.000000, 4170.769043, 4172.307617, 4221.538574, 4154.871582, 4186.153809, 3394.000000, 8261.000000, 8142.000000, 0.000000, 0.000000, 0.000000, -20958.000000, 10.769231, 4.000000, 4.000000, 4.000000, 4.000000, 4.000000, 4.000000, 4.000000, 4.000000, 1.000000, 4.000000, 4.000000, 4.000000, 4.000000, 4.000000, 4.000000, 4.000000
2.000000, 0.000000, 4163.589844, 4156.410156, 4181.538574, 4160.512695, 4153.846191, 4168.205078, 4174.871582, 4148.717773, 4201.025391, 4165.641113, 4168.205078, 4215.897461, 4157.436035, 4186.666504, 3554.000000, 8261.000000, 8142.000000, 0.000000, 0.000000, 0.000000, -20958.000000, 18.974358, 4.000000, 4.000000, 4.000000, 4.000000, 4.000000, 4.000000, 4.000000, 4.000000, 1.000000, 4.000000, 4.000000, 4.000000, 4.000000, 4.000000, 4.000000, 4.000000
3.000000, 0.000000, 4176.922852, 4167.692383, 4177.948730, 4167.692383, 4163.076660, 4168.717773, 4170.769043, 4158.974121, 4200.512695, 4170.769043, 4171.794922, 4223.076660, 4170.256348, 4198.461426, 2366.000000, 8272.000000, 8138.000000, 0.000000, 0.000000, 0.000000, -20958.000000, 26.666666, 4.000000, 4.000000, 4.000000, 4.000000, 4.000000, 4.000000, 4.000000, 4.000000, 1.000000, 4.000000, 4.000000, 4.000000, 4.000000, 4.000000, 4.000000, 4.000000
4.000000, 0.000000, 4189.743652, 4178.974121, 4174.358887, 4171.281738, 4170.256348, 4162.563965, 4166.153809, 4166.153809, 4200.000000, 4179.487305, 4179.487305, 4231.281738, 4177.948730, 4206.666504, 3543.000000, 8272.000000, 8138.000000, 0.000000, 0.000000, 0.000000, -20958.000000, 34.358974, 4.000000, 4.000000, 4.000000, 4.000000, 4.000000, 4.000000, 4.000000, 4.000000, 1.000000, 4.000000, 4.000000, 4.000000, 4.000000, 4.000000, 4.000000, 4.000000
5.000000, 0.000000, 4193.846191, 4180.512695, 4170.769043, 4170.769043, 4165.641113, 4151.281738, 4154.358887, 4158.974121, 4200.512695, 4176.922852, 4176.410156, 4227.179199, 4171.794922, 4207.179199, 3571.000000, 8275.000000, 8130.000000, 0.000000, 0.000000, 0.000000, -20958.000000, 42.564102, 4.000000, 4.000000, 4.000000, 4.000000, 4.000000, 4.000000, 4.000000, 4.000000, 1.000000, 4.000000, 4.000000, 4.000000, 4.000000, 4.000000, 4.000000, 4.000000
6.000000, 0.000000, 4209.230469, 4192.307617, 4178.974121, 4182.563965, 4164.615234, 4156.410156, 4150.256348, 4153.333008, 4200.512695, 4170.256348, 4173.333008, 4226.666504, 4169.743652, 4212.307617, 3523.000000, 8275.000000, 8130.000000, 0.000000, 0.000000, 0.000000, -20958.000000, 50.256409, 4.000000, 4.000000, 4.000000, 4.000000, 4.000000, 4.000000, 4.000000, 4.000000, 1.000000, 4.000000, 4.000000, 4.000000, 4.000000, 4.000000, 4.000000, 4.000000
7.000000, 0.000000, 4232.307617, 4212.307617, 4196.922852, 4201.538574, 4178.974121, 4172.307617, 4153.333008, 4156.410156, 4199.487305, 4172.307617, 4178.974121, 4231.794922, 4176.410156, 4222.563965, 3500.000000, 8278.000000, 8124.000000, 0.000000, 0.000000, 0.000000, -20958.000000, 57.948715, 4.000000, 4.000000, 4.000000, 4.000000, 4.000000, 4.000000, 4.000000, 4.000000, 1.000000, 4.000000, 4.000000, 4.000000, 4.000000, 4.000000, 4.000000, 4.000000
8.000000, 0.000000, 4241.025391, 4222.051270, 4203.076660, 4211.794922, 4187.692383, 4174.871582, 4153.333008, 4155.897461, 4197.948730, 4171.281738, 4173.846191, 4223.589844, 4171.281738, 4217.436035, 61.000000, 8278.000000, 8124.000000, 0.000000, 0.000000, 0.000000, -20958.000000, 66.153847, 4.000000, 4.000000, 4.000000, 4.000000, 4.000000, 4.000000, 4.000000, 4.000000, 1.000000, 4.000000, 4.000000, 4.000000, 4.000000, 4.000000, 4.000000, 4.000000
9.000000, 0.000000, 4236.410156, 4225.127930, 4193.846191, 4206.666504, 4176.922852, 4170.256348, 4160.000000, 4152.307617, 4198.461426, 4161.025391, 4161.538574, 4211.281738, 4152.820313, 4203.076660, 3149.000000, 8296.000000, 8114.000000, 0.000000, 0.000000, 0.000000, -20958.000000, 74.358971, 4.000000, 4.000000, 4.000000, 4.000000, 4.000000, 4.000000, 4.000000, 4.000000, 1.000000, 4.000000, 4.000000, 4.000000, 4.000000, 4.000000, 4.000000, 4.000000
10.000000, 0.000000, 4236.410156, 4229.230469, 4184.615234, 4207.179199, 4168.205078, 4171.794922, 4172.307617, 4154.358887, 4200.000000, 4157.948730, 4161.538574, 4211.281738, 4147.179199, 4203.076660, 3591.000000, 8296.000000, 8114.000000, 0.000000, 0.000000, 0.000000, -20958.000000, 82.051277, 4.000000, 4.000000, 4.000000, 4.000000, 4.000000, 4.000000, 4.000000, 4.000000, 1.000000, 4.000000, 4.000000, 4.000000, 4.000000, 4.000000, 4.000000, 4.000000
11.000000, 0.000000, 4249.743652, 4235.897461, 4189.230469, 4216.410156, 4173.846191, 4173.333008, 4174.871582, 4157.948730, 4200.512695, 4170.256348, 4170.256348, 4223.076660, 4162.563965, 4218.461426, 3556.000000, 8334.000000, 8107.000000, 0.000000, 0.000000, 0.000000, -20958.000000, 89.743591, 4.000000, 4.000000, 4.000000, 4.000000, 4.000000, 4.000000, 4.000000, 4.000000, 1.000000, 4.000000, 4.000000, 4.000000, 4.000000, 4.000000, 4.000000, 4.000000
12.000000, 0.000000, 4265.127930, 4243.589844, 4199.487305, 4221.538574, 4175.897461, 4167.179199, 4168.717773, 4158.974121, 4199.487305, 4181.538574, 4174.871582, 4235.384277, 4174.358887, 4228.717773, 3522.000000, 8334.000000, 8107.000000, 0.000000, 0.000000, 0.000000, -20958.000000, 97.435898, 4.000000, 4.000000, 4.000000, 4.000000, 4.000000, 4.000000, 4.000000, 4.000000, 1.000000, 4.000000, 4.000000, 4.000000, 4.000000, 4.000000, 4.000000, 4.000000
13.000000, 0.000000, 4269.230469, 4247.692383, 4198.461426, 4223.589844, 4175.897461, 4158.974121, 4155.897461, 4150.256348, 4198.974121, 4178.461426, 4175.897461, 4233.846191, 4176.410156, 4227.692383, 3446.000000, 8428.000000, 8126.000000, 0.000000, 0.000000, 0.000000, -20958.000000, 105.128204, 4.000000, 4.000000, 4.000000, 4.000000, 4.000000, 4.000000, 4.000000, 4.000000, 1.000000, 4.000000, 4.000000, 4.000000, 4.000000, 4.000000, 4.000000, 4.000000
14.000000, 0.000000, 4260.000000, 4240.512695, 4193.846191, 4223.076660, 4178.461426, 4151.281738, 4139.487305, 4138.461426, 4198.974121, 4171.281738, 4168.205078, 4221.538574, 4169.230469, 4216.922852, 3591.000000, 8428.000000, 8126.000000, 0.000000, 0.000000, 0.000000, -20958.000000, 113.333328, 4.000000, 4.000000, 4.000000, 4.000000, 4.000000, 4.000000, 4.000000, 4.000000, 1.000000, 4.000000, 4.000000, 4.000000, 4.000000, 4.000000, 4.000000, 4.000000
15.000000, 0.000000, 4247.179199, 4233.333008, 4193.846191, 4220.000000, 4173.333008, 4143.076660, 4127.179199, 4133.846191, 4199.487305, 4168.717773, 4156.922852, 4210.769043, 4155.384277, 4198.974121, 3556.000000, 8462.000000, 8134.000000, 0.000000, 0.000000, 0.000000, -20958.000000, 121.025635, 4.000000, 4.000000, 4.000000, 4.000000, 4.000000, 4.000000, 4.000000, 4.000000, 1.000000, 4.000000, 4.000000, 4.000000, 4.000000, 4.000000, 4.000000, 4.000000
16.000000, 0.000000, 4240.000000, 4234.871582, 4194.358887, 4218.461426, 4168.717773, 4137.948730, 4123.589844, 4137.436035, 4198.974121, 4167.179199, 4151.794922, 4206.153809, 4144.102539, 4184.102539, 0.000000, 8462.000000, 8134.000000, 0.000000, 0.000000, 0.000000, -20958.000000, 128.717941, 4.000000, 4.000000, 4.000000, 4.000000, 4.000000, 4.000000, 4.000000, 4.000000, 1.000000, 4.000000, 4.000000, 4.000000, 4.000000, 4.000000, 4.000000, 4.000000
17.000000, 0.000000, 4229.230469, 4232.820313, 4187.179199, 4214.871582, 4169.743652, 4136.922852, 4130.256348, 4145.641113, 4198.974121, 4165.641113, 4148.205078, 4201.025391, 4138.461426, 4174.358887, 0.000000, 8519.000000, 8140.000000, 0.000000, 0.000000, 0.000000, -20958.000000, 136.923080, 4.000000, 4.000000, 4.000000, 4.000000, 4.000000, 4.000000, 4.000000, 4.000000, 1.000000, 4.000000, 4.000000, 4.000000, 4.000000, 4.000000, 4.000000, 4.000000
18.000000, 0.000000, 4216.922852, 4226.153809, 4177.948730, 4211.794922, 4168.717773, 4140.512695, 4143.589844, 4154.358887, 4199.487305, 4167.692383, 4148.205078, 4200.512695, 4137.948730, 4171.281738, 0.000000, 8519.000000, 8140.000000, 0.000000, 0.000000, 0.000000, -20958.000000, 144.615387, 4.000000, 4.000000, 4.000000, 4.000000, 4.000000, 4.000000, 4.000000, 4.000000, 1.000000, 4.000000, 4.000000, 4.000000, 4.000000, 4.000000, 4.000000, 4.000000
19.000000, 0.000000, 4214.871582, 4220.000000, 4174.871582, 4211.794922, 4168.205078, 4147.179199, 4154.358887, 4157.436035, 4199.487305, 4171.281738, 4150.256348, 4204.102539, 4141.538574, 4175.384277, 0.000000, 8533.000000, 8145.000000, 0.000000, 0.000000, 0.000000, -20958.000000, 152.820511, 4.000000, 4.000000, 4.000000, 4.000000, 4.000000, 4.000000, 4.000000, 4.000000, 1.000000, 4.000000, 4.000000, 4.000000, 4.000000, 4.000000, 4.000000, 4.000000
20.000000, 0.000000, 4207.692383, 4216.922852, 4167.692383, 4202.563965, 4172.820313, 4154.871582, 4158.974121, 4156.410156, 4199.487305, 4169.230469, 4143.589844, 4198.461426, 4138.461426, 4170.256348, 0.000000, 8533.000000, 8145.000000, 0.000000, 0.000000, 0.000000, -20958.000000, 160.512817, 4.000000, 4.000000, 4.000000, 4.000000, 4.000000, 4.000000, 4.000000, 4.000000, 1.000000, 4.000000, 4.000000, 4.000000, 4.000000, 4.000000, 4.000000, 4.000000
21.000000, 0.000000, 4186.153809, 4212.307617, 4153.846191, 4185.641113, 4162.563965, 4156.922852, 4159.487305, 4146.666504, 4199.487305, 4162.051270, 4132.820313, 4184.615234, 4128.205078, 4151.794922, 0.000000, 8536.000000, 8144.000000, 0.000000, 0.000000, 0.000000, -20958.000000, 168.717941, 4.000000, 4.000000, 4.000000, 4.000000, 4.000000, 4.000000, 4.000000, 4.000000, 1.000000, 4.000000, 4.000000, 4.000000, 4.000000, 4.000000, 4.000000, 4.000000
22.000000, 0.000000, 4169.743652, 4204.615234, 4143.589844, 4177.948730, 4151.794922, 4154.871582, 4153.333008, 4133.333008, 4199.487305, 4155.897461, 4126.153809, 4171.794922, 4121.538574, 4136.922852, 0.000000, 8536.000000, 8144.000000, 0.000000, 0.000000, 0.000000, -20958.000000, 176.410248, 4.000000, 4.000000, 4.000000, 4.000000, 4.000000, 4.000000, 4.000000, 4.000000, 1.000000, 4.000000, 4.000000, 4.000000, 4.000000, 4.000000, 4.000000, 4.000000
23.000000, 0.000000, 4170.256348, 4202.563965, 4146.666504, 4181.025391, 4168.717773, 4156.410156, 4140.512695, 4135.384277, 4199.487305, 4154.871582, 4124.615234, 4167.692383, 4121.025391, 4134.358887, 0.000000, 8520.000000, 8139.000000, 0.000000, 0.000000, 0.000000, -20958.000000, 184.102554, 4.000000, 4.000000, 4.000000, 4.000000, 4.000000, 4.000000, 4.000000, 4.000000, 1.000000, 4.000000, 4.000000, 4.000000, 4.000000, 4.000000, 4.000000, 4.000000
24.000000, 0.000000, 4177.948730, 4209.230469, 4154.871582, 4187.692383, 4192.307617, 4157.948730, 4127.179199, 4137.948730, 4199.487305, 4156.410156, 4129.743652, 4176.410156, 4129.743652, 4139.487305, 0.000000, 8520.000000, 8139.000000, 0.000000, 0.000000, 0.000000, -20958.000000, 192.307693, 4.000000, 4.000000, 4.000000, 4.000000, 4.000000, 4.000000, 4.000000, 4.000000, 1.000000, 4.000000, 4.000000, 4.000000, 4.000000, 4.000000, 4.000000, 4.000000
25.000000, 0.000000, 4183.076660, 4215.897461, 4160.000000, 4189.743652, 4185.127930, 4155.384277, 4123.076660, 4122.563965, 4199.487305, 4154.358887, 4135.384277, 4187.179199, 4134.871582, 4147.692383, 0.000000, 8506.000000, 8143.000000, 0.000000, 0.000000, 0.000000, -20958.000000, 200.000000, 4.000000, 4.000000, 4.000000, 4.000000, 4.000000, 4.000000, 4.000000, 4.000000, 1.000000, 4.000000, 4.000000, 4.000000, 4.000000, 4.000000, 4.000000, 4.000000
26.000000, 0.000000, 4185.641113, 4214.358887, 4164.615234, 4186.153809, 4169.743652, 4153.846191, 4132.307617, 4119.487305, 4199.487305, 4152.820313, 4136.410156, 4189.743652, 4127.179199, 4154.358887, 0.000000, 8506.000000, 8143.000000, 0.000000, 0.000000, 0.000000, -20958.000000, 207.692307, 4.000000, 4.000000, 4.000000, 4.000000, 4.000000, 4.000000, 4.000000, 4.000000, 1.000000, 4.000000, 4.000000, 4.000000, 4.000000, 4.000000, 4.000000, 4.000000
27.000000, 0.000000, 4183.076660, 4208.717773, 4163.589844, 4186.153809, 4171.794922, 4155.384277, 4145.127930, 4135.897461, 4198.974121, 4150.256348, 4140.512695, 4189.230469, 4123.076660, 4152.820313, 0.000000, 8487.000000, 8149.000000, 0.000000, 0.000000, 0.000000, -20958.000000, 215.897430, 4.000000, 4.000000, 4.000000, 4.000000, 4.000000, 4.000000, 4.000000, 4.000000, 1.000000, 4.000000, 4.000000, 4.000000, 4.000000, 4.000000, 4.000000, 4.000000
28.000000, 0.000000, 4172.307617, 4201.538574, 4156.922852, 4184.102539, 4167.692383, 4154.358887, 4153.846191, 4144.615234, 4200.000000, 4143.589844, 4137.436035, 4189.743652, 4125.641113, 4144.615234, 0.000000, 8487.000000, 8149.000000, 0.000000, 0.000000, 0.000000, -20958.000000, 223.589737, 4.000000, 4.000000, 4.000000, 4.000000, 4.000000, 4.000000, 4.000000, 4.000000, 1.000000, 4.000000, 4.000000, 4.000000, 4.000000, 4.000000, 4.000000, 4.000000
29.000000, 0.000000, 4158.461426, 4192.820313, 4154.358887, 4173.846191, 4152.820313, 4151.281738, 4163.076660, 4138.974121, 4200.512695, 4140.000000, 4125.127930, 4182.051270, 4125.641113, 4135.384277, 0.000000, 8466.000000, 8160.000000, 0.000000, 0.000000, 0.000000, -20958.000000, 231.282043, 4.000000, 4.000000, 4.000000, 4.000000, 4.000000, 4.000000, 4.000000, 4.000000, 1.000000, 4.000000, 4.000000, 4.000000, 4.000000, 4.000000, 4.000000, 4.000000
30.000000, 0.000000, 4152.307617, 4186.153809, 4155.897461, 4164.615234, 4148.205078, 4151.794922, 4171.794922, 4137.436035, 4198.461426, 4140.512695, 4118.974121, 4171.281738, 4120.000000, 4125.127930, 0.000000, 8466.000000, 8160.000000, 0.000000, 0.000000, 0.000000, -20958.000000, 239.487167, 4.000000, 4.000000, 4.000000, 4.000000, 4.000000, 4.000000, 4.000000, 4.000000, 1.000000, 4.000000, 4.000000, 4.000000, 4.000000, 4.000000, 4.000000, 4.000000
31.000000, 0.000000, 4148.205078, 4181.025391, 4151.281738, 4158.974121, 4155.897461, 4154.871582, 4168.205078, 4145.641113, 4197.948730, 4140.512695, 4115.897461, 4168.717773, 4111.281738, 4117.948730, 0.000000, 8434.000000, 8192.000000, 0.000000, 0.000000, 0.000000, -20958.000000, 247.179474, 4.000000, 4.000000, 4.000000, 4.000000, 4.000000, 4.000000, 4.000000, 4.000000, 1.000000, 4.000000, 4.000000, 4.000000, 4.000000, 4.000000, 4.000000, 4.000000
32.000000, 0.000000, 4140.512695, 4175.384277, 4143.589844, 4154.871582, 4153.333008, 4155.384277, 4161.538574, 4143.589844, 4198.974121, 4137.948730, 4107.692383, 4164.102539, 4104.615234, 4113.333008, 0.000000, 8434.000000, 8192.000000, 0.000000, 0.000000, 0.000000, -20958.000000, 254.871796, 4.000000, 4.000000, 4.000000, 4.000000, 4.000000, 4.000000, 4.000000, 4.000000, 1.000000, 4.000000, 4.000000, 4.000000, 4.000000, 4.000000, 4.000000, 4.000000
33.000000, 0.000000, 4136.410156, 4169.743652, 4137.948730, 4153.333008, 4140.000000, 4152.820313, 4160.512695, 4133.333008, 4199.487305, 4137.436035, 4101.538574, 4153.846191, 4105.127930, 4108.205078, 0.000000, 8417.000000, 8209.000000, 0.000000, 0.000000, 0.000000, -20958.000000, 263.076904, 4.000000, 4.000000, 4.000000, 4.000000, 4.000000, 4.000000, 4.000000, 4.000000, 1.000000, 4.000000, 4.000000, 4.000000, 4.000000, 4.000000, 4.000000, 4.000000
34.000000, 0.000000, 4137.436035, 4168.205078, 4138.461426, 4153.333008, 4141.538574, 4151.281738, 4157.948730, 4134.871582, 4198.974121, 4137.436035, 4108.717773, 4156.410156, 4106.666504, 4110.769043, 0.000000, 8417.000000, 8209.000000, 0.000000, 0.000000, 0.000000, -20958.000000, 270.769226, 4.000000, 4.000000, 4.000000, 4.000000, 4.000000, 4.000000, 4.000000, 4.000000, 1.000000, 4.000000, 4.000000, 4.000000, 4.000000, 4.000000, 4.000000, 4.000000
35.000000, 0.000000, 4141.025391, 4173.333008, 4143.076660, 4153.846191, 4151.794922, 4147.179199, 4151.794922, 4139.487305, 4198.974121, 4137.948730, 4118.974121, 4169.743652, 4111.794922, 4118.974121, 0.000000, 8395.000000, 8220.000000, 0.000000, 0.000000, 0.000000, -20958.000000, 278.974365, 4.000000, 4.000000, 4.000000, 4.000000, 4.000000, 4.000000, 4.000000, 4.000000, 1.000000, 4.000000, 4.000000, 4.000000, 4.000000, 4.000000, 4.000000, 4.000000
36.000000, 0.000000, 4146.153809, 4178.461426, 4150.256348, 4159.487305, 4152.820313, 4141.538574, 4148.717773, 4135.384277, 4199.487305, 4144.102539, 4122.051270, 4173.333008, 4120.512695, 4122.563965, 0.000000, 8395.000000, 8220.000000, 0.000000, 0.000000, 0.000000, -20958.000000, 286.666656, 4.000000, 4.000000, 4.000000, 4.000000, 4.000000, 4.000000, 4.000000, 4.000000, 1.000000, 4.000000, 4.000000, 4.000000, 4.000000, 4.000000, 4.000000, 4.000000
37.000000, 0.000000, 4151.794922, 4175.897461, 4154.871582, 4161.538574, 4150.256348, 4139.487305, 4149.230469, 4144.102539, 4198.974121, 4154.358887, 4128.717773, 4176.922852, 4125.127930, 4129.743652, 0.000000, 8352.000000, 8238.000000, 0.000000, 0.000000, 0.000000, -20958.000000, 294.871796, 4.000000, 4.000000, 4.000000, 4.000000, 4.000000, 4.000000, 4.000000, 4.000000, 1.000000, 4.000000, 4.000000, 4.000000, 4.000000, 4.000000, 4.000000, 4.000000
38.000000, 0.000000, 4153.846191, 4173.333008, 4153.333008, 4157.948730, 4149.743652, 4141.538574, 4150.769043, 4157.436035, 4198.974121, 4159.487305, 4139.487305, 4186.153809, 4126.153809, 4138.974121, 0.000000, 8352.000000, 8238.000000, 0.000000, 0.000000, 0.000000, -20958.000000, 302.564087, 4.000000, 4.000000, 4.000000, 4.000000, 4.000000, 4.000000, 4.000000, 4.000000, 1.000000, 4.000000, 4.000000, 4.000000, 4.000000, 4.000000, 4.000000, 4.000000
39.000000, 0.000000, 4156.410156, 4180.512695, 4154.358887, 4162.051270, 4149.743652, 4145.127930, 4152.820313, 4151.794922, 4198.974121, 4157.948730, 4143.076660, 4189.743652, 4132.820313, 4140.512695, 0.000000, 8323.000000, 8239.000000, 0.000000, 0.000000, 0.000000, -20958.000000, 310.256409, 4.000000, 4.000000, 4.000000, 4.000000, 4.000000, 4.000000, 4.000000, 4.000000, 1.000000, 4.000000, 4.000000, 4.000000, 4.000000, 4.000000, 4.000000, 4.000000
40.000000, 0.000000, 4157.948730, 4184.102539, 4155.897461, 4165.127930, 4147.179199, 4145.127930, 4154.871582, 4155.384277, 4199.487305, 4157.948730, 4140.512695, 4186.666504, 4137.436035, 4142.051270, 0.000000, 8323.000000, 8239.000000, 0.000000, 0.000000, 0.000000, -20958.000000, 318.461517, 4.000000, 4.000000, 4.000000, 4.000000, 4.000000, 4.000000, 4.000000, 4.000000, 1.000000, 4.000000, 4.000000, 4.000000, 4.000000, 4.000000, 4.000000, 4.000000
41.000000, 0.000000, 4156.410156, 4181.538574, 4153.846191, 4158.974121, 4142.563965, 4141.538574, 4156.410156, 4171.281738, 4198.974121, 4157.948730, 4141.538574, 4186.153809, 4137.436035, 4145.127930, 0.000000, 8278.000000, 8227.000000, 0.000000, 0.000000, 0.000000, -20958.000000, 326.153839, 4.000000, 4.000000, 4.000000, 4.000000, 4.000000, 4.000000, 4.000000, 4.000000, 1.000000, 4.000000, 4.000000, 4.000000, 4.000000, 4.000000, 4.000000, 4.000000
42.000000, 0.000000, 4155.897461, 4182.563965, 4152.820313, 4155.384277, 4141.025391, 4144.615234, 4160.000000, 4164.102539, 4198.974121, 4155.384277, 4142.051270, 4187.179199, 4138.461426, 4141.538574, 0.000000, 8278.000000, 8227.000000, 0.000000, 0.000000, 0.000000, -20958.000000, 334.358978, 4.000000, 4.000000, 4.000000, 4.000000, 4.000000, 4.000000, 4.000000, 4.000000, 1.000000, 4.000000, 4.000000, 4.000000, 4.000000, 4.000000, 4.000000, 4.000000
43.000000, 0.000000, 4152.820313, 4183.589844, 4150.769043, 4159.487305, 4142.051270, 4148.205078, 4164.102539, 4148.205078, 4199.487305, 4153.333008, 4139.487305, 4185.127930, 4132.307617, 4136.922852, 0.000000, 8254.000000, 8213.000000, 0.000000, 0.000000, 0.000000, -20958.000000, 342.051270, 4.000000, 4.000000, 4.000000, 4.000000, 4.000000, 4.000000, 4.000000, 4.000000, 1.000000, 4.000000, 4.000000, 4.000000, 4.000000, 4.000000, 4.000000, 4.000000
44.000000, 0.000000, 4147.179199, 4183.589844, 4149.743652, 4164.615234, 4141.025391, 4141.538574, 4166.666504, 4151.794922, 4198.974121, 4148.205078, 4135.384277, 4182.563965, 4123.589844, 4139.487305, 0.000000, 8254.000000, 8213.000000, 0.000000, 0.000000, 0.000000, -20958.000000, 350.256409, 4.000000, 4.000000, 4.000000, 4.000000, 4.000000, 4.000000, 4.000000, 4.000000, 1.000000, 4.000000, 4.000000, 4.000000, 4.000000, 4.000000, 4.000000, 4.000000
45.000000, 0.000000, 4144.615234, 4185.127930, 4152.307617, 4163.589844, 4140.512695, 4142.051270, 4169.230469, 4156.922852, 4197.948730, 4141.025391, 4131.281738, 4183.589844, 4123.076660, 4137.948730, 0.000000, 8234.000000, 8202.000000, 0.000000, 0.000000, 0.000000, -20958.000000, 358.461517, 4.000000, 4.000000, 4.000000, 4.000000, 4.000000, 4.000000, 4.000000, 4.000000, 1.000000, 4.000000, 4.000000, 4.000000, 4.000000, 4.000000, 4.000000, 4.000000
46.000000, 0.000000, 4144.615234, 4178.461426, 4149.743652, 4156.922852, 4142.563965, 4153.846191, 4166.666504, 4151.794922, 4198.461426, 4139.487305, 4134.871582, 4185.641113, 4130.769043, 4134.358887, 0.000000, 8234.000000, 8202.000000, 0.000000, 0.000000, 0.000000, -20958.000000, 366.153839, 4.000000, 4.000000, 4.000000, 4.000000, 4.000000, 4.000000, 4.000000, 4.000000, 1.000000, 4.000000, 4.000000, 4.000000, 4.000000, 4.000000, 4.000000, 4.000000
47.000000, 0.000000, 4144.102539, 4171.281738, 4144.615234, 4152.820313, 4142.051270, 4153.846191, 4158.974121, 4151.281738, 4198.461426, 4143.076660, 4138.974121, 4183.589844, 4136.922852, 4135.384277, 0.000000, 8210.000000, 8181.000000, 0.000000, 0.000000, 0.000000, -20958.000000, 374.358978, 4.000000, 4.000000, 4.000000, 4.000000, 4.000000, 4.000000, 4.000000, 4.000000, 1.000000, 4.000000, 4.000000, 4.000000, 4.000000, 4.000000, 4.000000, 4.000000
48.000000, 0.000000, 4141.025391, 4173.333008, 4147.179199, 4154.871582, 4140.512695, 4143.589844, 4153.846191, 4154.871582, 4199.487305, 4141.538574, 4133.333008, 4183.076660, 4134.871582, 4132.820313, 0.000000, 8210.000000, 8181.000000, 0.000000, 0.000000, 0.000000, -20958.000000, 382.051270, 4.000000, 4.000000, 4.000000, 4.000000, 4.000000, 4.000000, 4.000000, 4.000000, 1.000000, 4.000000, 4.000000, 4.000000, 4.000000, 4.000000, 4.000000, 4.000000
49.000000, 0.000000, 4138.974121, 4175.897461, 4153.333008, 4156.410156, 4137.948730, 4138.461426, 4153.333008, 4149.743652, 4200.000000, 4138.461426, 4127.692383, 4184.102539, 4130.256348, 4127.179199, 0.000000, 8201.000000, 8168.000000, 0.000000, 0.000000, 0.000000, -20958.000000, 390.256409, 4.000000, 4.000000, 4.000000, 4.000000, 4.000000, 4.000000, 4.000000, 4.000000, 1.000000, 4.000000, 4.000000, 4.000000, 4.000000, 4.000000, 4.000000, 4.000000
50.000000, 0.000000, 4140.000000, 4171.281738, 4155.897461, 4157.948730, 4137.948730, 4141.025391, 4161.538574, 4138.974121, 4195.384277, 4136.922852, 4120.512695, 4176.922852, 4115.897461, 4123.076660, 0.000000, 8201.000000, 8168.000000, 0.000000, 0.000000, 0.000000, -20958.000000, 397.948700, 4.000000, 4.000000, 4.000000, 4.000000, 4.000000, 4.000000, 4.000000, 4.000000, 1.000000, 4.000000, 4.000000, 4.000000, 4.000000, 4.000000, 4.000000, 4.000000
51.000000, 0.000000, 4137.436035, 4166.153809, 4154.871582, 4156.410156, 4141.538574, 4145.127930, 4167.179199, 4134.358887, 4193.333008, 4135.897461, 4111.794922, 4172.307617, 4102.051270, 4116.410156, 0.000000, 8198.000000, 8151.000000, 0.000000, 0.000000, 0.000000, -20958.000000, 406.153839, 4.000000, 4.000000, 4.000000, 4.000000, 4.000000, 4.000000, 4.000000, 4.000000, 1.000000, 4.000000, 4.000000, 4.000000, 4.000000, 4.000000, 4.000000, 4.000000
52.000000, 0.000000, 4140.000000, 4169.230469, 4153.333008, 4153.333008, 4136.922852, 4141.538574, 4157.948730, 4140.000000, 4198.461426, 4138.461426, 4117.948730, 4179.487305, 4111.794922, 4120.512695, 0.000000, 8198.000000, 8151.000000, 0.000000, 0.000000, 0.000000, -20958.000000, 414.358978, 4.000000, 4.000000, 4.000000, 4.000000, 4.000000, 4.000000, 4.000000, 4.000000, 1.000000, 4.000000, 4.000000, 4.000000, 4.000000, 4.000000, 4.000000, 4.000000
53.000000, 0.000000, 4158.974121, 4178.461426, 4157.948730, 4161.025391, 4134.358887, 4136.922852, 4149.230469, 4147.692383, 4202.563965, 4141.538574, 4135.384277, 4186.153809, 4136.410156, 4141.025391, 0.000000, 8194.000000, 8145.000000, 0.000000, 0.000000, 0.000000, -20958.000000, 422.051270, 4.000000, 4.000000, 4.000000, 4.000000, 4.000000, 4.000000, 4.000000, 4.000000, 1.000000, 4.000000, 4.000000, 4.000000, 4.000000, 4.000000, 4.000000, 4.000000
54.000000, 0.000000, 4178.974121, 4185.127930, 4163.589844, 4170.769043, 4139.487305, 4138.974121, 4154.358887, 4145.641113, 4199.487305, 4144.102539, 4140.000000, 4186.153809, 4146.153809, 4155.897461, 0.000000, 8194.000000, 8145.000000, 0.000000, 0.000000, 0.000000, -20958.000000, 430.256409, 4.000000, 4.000000, 4.000000, 4.000000, 4.000000, 4.000000, 4.000000, 4.000000, 1.000000, 4.000000, 4.000000, 4.000000, 4.000000, 4.000000, 4.000000, 4.000000
55.000000, 0.000000, 4185.127930, 4188.717773, 4164.615234, 4172.307617, 4140.000000, 4141.025391, 4155.897461, 4138.461426, 4195.897461, 4147.179199, 4136.922852, 4185.641113, 4149.743652, 4159.487305, 0.000000, 8189.000000, 8144.000000, 0.000000, 0.000000, 0.000000, -20958.000000, 437.948700, 4.000000, 4.000000, 4.000000, 4.000000, 4.000000, 4.000000, 4.000000, 4.000000, 1.000000, 4.000000, 4.000000, 4.000000, 4.000000, 4.000000, 4.000000, 4.000000
56.000000, 0.000000, 4192.307617, 4188.717773, 4164.615234, 4168.717773, 4136.410156, 4139.487305, 4152.820313, 4135.897461, 4200.000000, 4144.615234, 4144.102539, 4186.153809, 4162.563965, 4169.743652, 0.000000, 8189.000000, 8144.000000, 0.000000, 0.000000, 0.000000, -20958.000000, 446.153839, 4.000000, 4.000000, 4.000000, 4.000000, 4.000000, 4.000000, 4.000000, 4.000000, 1.000000, 4.000000, 4.000000, 4.000000, 4.000000, 4.000000, 4.000000, 4.000000
57.000000, 0.000000, 4208.717773, 4190.769043, 4169.743652, 4170.256348, 4136.922852, 4138.974121, 4153.846191, 4138.974121, 4197.948730, 4144.102539, 4152.820313, 4191.794922, 4174.358887, 4187.179199, 0.000000, 8189.000000, 8144.000000, 0.000000, 0.000000, 0.000000, -20958.000000, 453.846130, 4.000000, 4.000000, 4.000000, 4.000000, 4.000000, 4.000000, 4.000000, 4.000000, 1.000000, 4.000000, 4.000000, 4.000000, 4.000000, 4.000000, 4.000000, 4.000000
58.000000, 0.000000, 4221.025391, 4193.846191, 4178.461426, 4177.948730, 4141.025391, 4142.563965, 4154.871582, 4142.051270, 4188.717773, 4152.307617, 4162.563965, 4203.589844, 4189.743652, 4202.051270, 0.000000, 8189.000000, 8144.000000, 0.000000, 0.000000, 0.000000, -20958.000000, 462.051270, 4.000000, 4.000000, 4.000000, 4.000000, 4.000000, 4.000000, 4.000000, 4.000000, 1.000000, 4.000000, 4.000000, 4.000000, 4.000000, 4.000000, 4.000000, 4.000000
59.000000, 0.000000, 4221.025391, 4191.794922, 4175.384277, 4175.897461, 4137.436035, 4137.436035, 4149.230469, 4136.410156, 4191.281738, 4156.410156, 4170.769043, 4206.666504, 4203.076660, 4212.820313, 0.000000, 8184.000000, 8144.000000, 0.000000, 0.000000, 0.000000, -20958.000000, 469.743591, 4.000000, 4.000000, 4.000000, 4.000000, 4.000000, 4.000000, 4.000000, 4.000000, 1.000000, 4.000000, 4.000000, 4.000000, 4.000000, 4.000000, 4.000000, 4.000000
60.000000, 0.000000, 4218.974121, 4186.666504, 4161.025391, 4169.230469, 4127.179199, 4126.666504, 4138.461426, 4126.153809, 4198.974121, 4153.333008, 4171.281738, 4202.563965, 4204.102539, 4218.461426, 0.000000, 8184.000000, 8144.000000, 0.000000, 0.000000, 0.000000, -20958.000000, 477.948700, 4.000000, 4.000000, 4.000000, 4.000000, 4.000000, 4.000000, 4.000000, 4.000000, 1.000000, 4.000000, 4.000000, 4.000000, 4.000000, 4.000000, 4.000000, 4.000000
61.000000, 0.000000, 4219.487305, 4182.563965, 4155.897461, 4166.666504, 4124.102539, 4129.743652, 4137.436035, 4119.487305, 4192.820313, 4149.743652, 4167.179199, 4197.948730, 4205.641113, 4216.922852, 0.000000, 8170.000000, 8134.000000, 0.000000, 0.000000, 0.000000, -20958.000000, 485.641022, 4.000000, 4.000000, 4.000000, 4.000000, 4.000000, 4.000000, 4.000000, 4.000000, 1.000000, 4.000000, 4.000000, 4.000000, 4.000000, 4.000000, 4.000000, 4.000000
62.000000, 0.000000, 4209.230469, 4173.333008, 4152.307617, 4155.897461, 4126.153809, 4133.846191, 4141.025391, 4117.948730, 4189.230469, 4140.000000, 4156.410156, 4188.717773, 4198.974121, 4205.127930, 0.000000, 8170.000000, 8134.000000, 0.000000, 0.000000, 0.000000, -20958.000000, 493.846130, 4.000000, 4.000000, 4.000000, 4.000000, 4.000000, 4.000000, 4.000000, 4.000000, 1.000000, 4.000000, 4.000000, 4.000000, 4.000000, 4.000000, 4.000000, 4.000000
63.000000, 0.000000, 4189.743652, 4164.102539, 4137.436035, 4137.436035, 4124.615234, 4130.256348, 4138.974121, 4125.641113, 4198.974121, 4131.281738, 4145.641113, 4179.487305, 4184.102539, 4194.358887, 0.000000, 8157.000000, 8124.000000, 0.000000, 0.000000, 0.000000, -20958.000000, 502.051270, 4.000000, 4.000000, 4.000000, 4.000000, 4.000000, 4.000000, 4.000000, 4.000000, 1.000000, 4.000000, 4.000000, 4.000000, 4.000000, 4.000000, 4.000000, 4.000000
64.000000, 0.000000, 4183.589844, 4161.025391, 4138.461426, 4132.820313, 4123.589844, 4134.358887, 4138.974121, 4137.948730, 4201.538574, 4141.025391, 4154.358887, 4183.589844, 4188.717773, 4197.436035, 3174.000000, 8157.000000, 8124.000000, 0.000000, 0.000000, 0.000000, -20958.000000, 509.743591, 4.000000, 4.000000, 4.000000, 4.000000, 4.000000, 4.000000, 4.000000, 4.000000, 1.000000, 4.000000, 4.000000, 4.000000, 4.000000, 4.000000, 4.000000, 4.000000
65.000000, 0.000000, 4193.333008, 4161.025391, 4154.358887, 4142.563965, 4125.127930, 4140.512695, 4143.076660, 4141.538574, 4198.461426, 4154.871582, 4170.256348, 4194.358887, 4208.205078, 4204.615234, 3497.000000, 8130.000000, 8093.000000, 0.000000, 0.000000, 0.000000, -20958.000000, 517.948730, 4.000000, 4.000000, 4.000000, 4.000000, 4.000000, 4.000000, 4.000000, 4.000000, 1.000000, 4.000000, 4.000000, 4.000000, 4.000000, 4.000000, 4.000000, 4.000000
66.000000, 0.000000, 4201.025391, 4163.589844, 4156.922852, 4150.769043, 4130.769043, 4135.897461, 4139.487305, 4138.974121, 4199.487305, 4161.538574, 4174.871582, 4200.000000, 4216.922852, 4206.666504, 3551.000000, 8130.000000, 8093.000000, 0.000000, 0.000000, 0.000000, -20958.000000, 525.640991, 4.000000, 4.000000, 4.000000, 4.000000, 4.000000, 4.000000, 4.000000, 4.000000, 1.000000, 4.000000, 4.000000, 4.000000, 4.000000, 4.000000, 4.000000, 4.000000
67.000000, 0.000000, 4199.487305, 4168.205078, 4154.358887, 4154.358887, 4137.948730, 4134.871582, 4136.410156, 4135.897461, 4197.948730, 4168.717773, 4178.461426, 4200.512695, 4224.102539, 4203.589844, 2366.000000, 8108.000000, 8094.000000, 0.000000, 0.000000, 0.000000, -20958.000000, 533.846130, 4.000000, 4.000000, 4.000000, 4.000000, 4.000000, 4.000000, 4.000000, 4.000000, 1.000000, 4.000000, 4.000000, 4.000000, 4.000000, 4.000000, 4.000000, 4.000000
68.000000, 0.000000, 4190.769043, 4168.205078, 4155.897461, 4152.307617, 4136.410156, 4136.922852, 4140.512695, 4132.820313, 4197.436035, 4168.205078, 4179.487305, 4197.948730, 4226.153809, 4199.487305, 3544.000000, 8108.000000, 8094.000000, 0.000000, 0.000000, 0.000000, -20958.000000, 541.538452, 4.000000, 4.000000, 4.000000, 4.000000, 4.000000, 4.000000, 4.000000, 4.000000, 1.000000, 4.000000, 4.000000, 4.000000, 4.000000, 4.000000, 4.000000, 4.000000
69.000000, 0.000000, 4184.102539, 4163.589844, 4152.820313, 4146.153809, 4133.333008, 4134.871582, 4142.051270, 4128.205078, 4198.461426, 4158.974121, 4173.846191, 4196.410156, 4219.487305, 4199.487305, 3571.000000, 8083.000000, 8085.000000, 0.000000, 0.000000, 0.000000, -20958.000000, 549.743591, 4.000000, 4.000000, 4.000000, 4.000000, 4.000000, 4.000000, 4.000000, 4.000000, 1.000000, 4.000000, 4.000000, 4.000000, 4.000000, 4.000000, 4.000000, 4.000000
70.000000, 0.000000, 4177.436035, 4159.487305, 4154.358887, 4141.538574, 4137.436035, 4136.922852, 4139.487305, 4120.512695, 4198.461426, 4157.436035, 4173.333008, 4201.025391, 4218.461426, 4200.000000, 3499.000000, 8083.000000, 8085.000000, 0.000000, 0.000000, 0.000000, -20958.000000, 557.435913, 4.000000, 4.000000, 4.000000, 4.000000, 4.000000, 4.000000, 4.000000, 4.000000, 1.000000, 4.000000, 4.000000, 4.000000, 4.000000, 4.000000, 4.000000, 4.000000
71.000000, 0.000000, 4165.127930, 4153.846191, 4155.384277, 4138.974121, 4140.000000, 4138.974121, 4145.641113, 4124.615234, 4198.974121, 4162.051270, 4174.358887, 4201.538574, 4217.436035, 4188.717773, 3505.000000, 8043.000000, 8081.000000, 0.000000, 0.000000, 0.000000, -20958.000000, 565.640991, 4.000000, 4.000000, 4.000000, 4.000000, 4.000000, 4.000000, 4.000000, 4.000000, 1.000000, 4.000000, 4.000000, 4.000000, 4.000000, 4.000000, 4.000000, 4.000000
72.000000, 0.000000, 4153.846191, 4150.769043, 4145.641113, 4139.487305, 4135.897461, 4138.461426, 4156.410156, 4143.589844, 4199.487305, 4158.461426, 4167.692383, 4190.256348, 4203.589844, 4173.846191, 61.000000, 8043.000000, 8081.000000, 0.000000, 0.000000, 0.000000, -20958.000000, 573.846130, 4.000000, 4.000000, 4.000000, 4.000000, 4.000000, 4.000000, 4.000000, 4.000000, 1.000000, 4.000000, 4.000000, 4.000000, 4.000000, 4.000000, 4.000000, 4.000000
73.000000, 0.000000, 4155.384277, 4157.436035, 4143.076660, 4140.000000, 4136.410156, 4141.025391, 4152.307617, 4142.563965, 4198.974121, 4158.461426, 4164.102539, 4184.615234, 4197.436035, 4168.205078, 3079.000000, 8022.000000, 8074.000000, 0.000000, 0.000000, 0.000000, -20958.000000, 581.538452, 4.000000, 4.000000, 4.000000, 4.000000, 4.000000, 4.000000, 4.000000, 4.000000, 1.000000, 4.000000, 4.000000, 4.000000, 4.000000, 4.000000, 4.000000, 4.000000
74.000000, 0.000000, 4162.563965, 4168.205078, 4151.281738, 4147.179199, 4146.666504, 4142.563965, 4138.974121, 4133.846191, 4199.487305, 4169.230469, 4174.871582, 4196.410156, 4211.281738, 4172.820313, 3593.000000, 8022.000000, 8074.000000, 0.000000, 0.000000, 0.000000, -20958.000000, 589.230774, 4.000000, 4.000000, 4.000000, 4.000000, 4.000000, 4.000000, 4.000000, 4.000000, 1.000000, 4.000000, 4.000000, 4.000000, 4.000000, 4.000000, 4.000000, 4.000000
75.000000, 0.000000, 4163.076660, 4168.205078, 4157.436035, 4156.410156, 4153.333008, 4139.487305, 4131.794922, 4151.794922, 4199.487305, 4176.410156, 4183.076660, 4207.692383, 4217.948730, 4177.948730, 3556.000000, 7987.000000, 8082.000000, 0.000000, 0.000000, 0.000000, -20958.000000, 597.435913, 4.000000, 4.000000, 4.000000, 4.000000, 4.000000, 4.000000, 4.000000, 4.000000, 1.000000, 4.000000, 4.000000, 4.000000, 4.000000, 4.000000, 4.000000, 4.000000
76.000000, 0.000000, 4153.846191, 4157.948730, 4152.820313, 4149.743652, 4145.641113, 4136.922852, 4125.127930, 4154.871582, 4197.948730, 4167.692383, 4178.461426, 4204.102539, 4205.127930, 4172.307617, 3522.000000, 7987.000000, 8082.000000, 0.000000, 0.000000, 0.000000, -20958.000000, 605.128174, 4.000000, 4.000000, 4.000000, 4.000000, 4.000000, 4.000000, 4.000000, 4.000000, 1.000000, 4.000000, 4.000000, 4.000000, 4.000000, 4.000000, 4.000000, 4.000000
77.000000, 0.000000, 4144.102539, 4147.692383, 4142.051270, 4137.948730, 4133.333008, 4134.871582, 4125.127930, 4123.076660, 4196.922852, 4152.307617, 4165.641113, 4191.794922, 4188.717773, 4157.948730, 3446.000000, 7971.000000, 8088.000000, 0.000000, 0.000000, 0.000000, -20958.000000, 613.333313, 4.000000, 4.000000, 4.000000, 4.000000, 4.000000, 4.000000, 4.000000, 4.000000, 1.000000, 4.000000, 4.000000, 4.000000, 4.000000, 4.000000, 4.000000, 4.000000
78.000000, 0.000000, 4137.948730, 4142.051270, 4136.922852, 4132.820313, 4131.794922, 4135.384277, 4145.127930, 4113.333008, 4197.948730, 4148.205078, 4154.871582, 4184.102539, 4179.487305, 4149.743652, 3593.000000, 7971.000000, 8088.000000, 0.000000, 0.000000, 0.000000, -20958.000000, 621.538452, 4.000000, 4.000000, 4.000000, 4.000000, 4.000000, 4.000000, 4.000000, 4.000000, 1.000000, 4.000000, 4.000000, 4.000000, 4.000000, 4.000000, 4.000000, 4.000000
