title:winkLeft15, recorded:17.05.18 22.04.49, timestamp started:2018-05-12T20:28:52.032863+02:00            , sampling:128, subject:Noé, labels:COUNTER INTERPOLATED AF3 F7 F3 FC5 T7 P7 O1 O2 P8 T8 FC6 F4 F8 AF4 RAW_CQ GYROX GYROY MARKER MARKER_HARDWARE SYNC TIME_STAMP_s TIME_STAMP_ms CQ_AF3 CQ_F7 CQ_F3 CQ_FC5 CQ_T7 CQ_P7 CQ_O1 CQ_O2 CQ_P8 CQ_T8 CQ_FC6 CQ_F4 CQ_F8 CQ_AF4 CQ_CMS CQ_DRL, chan:40, samples:2126, units:emotiv
74.000000, 0.000000, 4215.897461, 4203.589844, 4204.615234, 4195.384277, 4206.153809, 4219.487305, 4208.717773, 4201.025391, 4188.205078, 4227.179199, 4186.153809, 4176.922852, 4172.820313, 4203.589844, 3539.000000, 8264.000000, 8157.000000, 0.000000, 0.000000, 0.000000, -20994.000000, 58.461536, 4.000000, 4.000000, 4.000000, 4.000000, 4.000000, 4.000000, 4.000000, 4.000000, 4.000000, 4.000000, 4.000000, 4.000000, 4.000000, 4.000000, 4.000000, 4.000000
75.000000, 0.000000, 4225.641113, 4217.948730, 4205.127930, 4203.589844, 4204.615234, 4213.333008, 4200.000000, 4193.333008, 4182.051270, 4216.410156, 4184.102539, 4171.794922, 4181.538574, 4205.641113, 546.000000, 8256.000000, 8152.000000, 0.000000, 0.000000, 0.000000, -20994.000000, 66.153847, 4.000000, 4.000000, 4.000000, 4.000000, 4.000000, 4.000000, 4.000000, 4.000000, 4.000000, 4.000000, 4.000000, 4.000000, 4.000000, 4.000000, 4.000000, 4.000000
76.000000, 0.000000, 4233.333008, 4228.205078, 4199.487305, 4207.179199, 4204.102539, 4202.563965, 4196.410156, 4182.563965, 4172.307617, 4209.743652, 4173.333008, 4168.205078, 4176.922852, 4202.563965, 3479.000000, 8256.000000, 8152.000000, 0.000000, 0.000000, 0.000000, -20994.000000, 73.846153, 4.000000, 4.000000, 4.000000, 4.000000, 4.000000, 4.000000, 4.000000, 4.000000, 4.000000, 4.000000, 4.000000, 4.000000, 4.000000, 4.000000, 4.000000, 4.000000
77.000000, 0.000000, 4228.205078, 4227.179199, 4198.461426, 4207.692383, 4213.333008, 4202.051270, 4202.051270, 4181.025391, 4170.256348, 4216.410156, 4171.794922, 4175.384277, 4167.692383, 4203.589844, 3407.000000, 8245.000000, 8135.000000, 0.000000, 0.000000, 0.000000, -20994.000000, 82.051277, 4.000000, 4.000000, 4.000000, 4.000000, 4.000000, 4.000000, 4.000000, 4.000000, 4.000000, 4.000000, 4.000000, 4.000000, 4.000000, 4.000000, 4.000000, 4.000000
78.000000, 0.000000, 4233.846191, 4232.307617, 4203.589844, 4216.922852, 4208.717773, 4205.641113, 4201.025391, 4182.051270, 4173.333008, 4214.871582, 4178.974121, 4181.538574, 4170.769043, 4203.076660, 3539.000000, 8245.000000, 8135.000000, 0.000000, 0.000000, 0.000000, -20994.000000, 89.743591, 4.000000, 4.000000, 4.000000, 4.000000, 4.000000, 4.000000, 4.000000, 4.000000, 4.000000, 4.000000, 4.000000, 4.000000, 4.000000, 4.000000, 4.000000, 4.000000
79.000000, 0.000000, 4236.410156, 4230.769043, 4201.025391, 4216.410156, 4201.538574, 4202.051270, 4199.487305, 4183.076660, 4169.743652, 4206.153809, 4177.436035, 4176.922852, 4171.794922, 4204.102539, 546.000000, 8234.000000, 8132.000000, 0.000000, 0.000000, 0.000000, -20994.000000, 97.948715, 4.000000, 4.000000, 4.000000, 4.000000, 4.000000, 4.000000, 4.000000, 4.000000, 4.000000, 4.000000, 4.000000, 4.000000, 4.000000, 4.000000, 4.000000, 4.000000
80.000000, 0.000000, 4231.794922, 4220.000000, 4194.871582, 4201.538574, 4200.512695, 4199.487305, 4200.512695, 4183.589844, 4167.692383, 4209.743652, 4170.769043, 4167.179199, 4162.563965, 4201.538574, 3479.000000, 8234.000000, 8132.000000, 0.000000, 0.000000, 0.000000, -20994.000000, 105.641022, 4.000000, 4.000000, 4.000000, 4.000000, 4.000000, 4.000000, 4.000000, 4.000000, 4.000000, 4.000000, 4.000000, 4.000000, 4.000000, 4.000000, 4.000000, 4.000000
81.000000, 0.000000, 4232.820313, 4221.538574, 4195.897461, 4198.974121, 4189.743652, 4200.512695, 4194.358887, 4182.563965, 4177.948730, 4223.076660, 4174.871582, 4164.102539, 4161.538574, 4201.538574, 3407.000000, 8226.000000, 8130.000000, 0.000000, 0.000000, 0.000000, -20994.000000, 113.846153, 4.000000, 4.000000, 4.000000, 4.000000, 4.000000, 4.000000, 4.000000, 4.000000, 4.000000, 4.000000, 4.000000, 4.000000, 4.000000, 4.000000, 4.000000, 4.000000
82.000000, 0.000000, 4234.358887, 4226.153809, 4197.436035, 4207.692383, 4188.717773, 4202.563965, 4193.333008, 4189.230469, 4187.179199, 4222.051270, 4183.589844, 4166.153809, 4169.230469, 4208.717773, 3539.000000, 8226.000000, 8130.000000, 0.000000, 0.000000, 0.000000, -20994.000000, 121.538460, 4.000000, 4.000000, 4.000000, 4.000000, 4.000000, 4.000000, 4.000000, 4.000000, 4.000000, 4.000000, 4.000000, 4.000000, 4.000000, 4.000000, 4.000000, 4.000000
83.000000, 0.000000, 4235.384277, 4220.512695, 4196.410156, 4205.641113, 4203.589844, 4205.641113, 4204.615234, 4198.974121, 4185.127930, 4209.230469, 4184.615234, 4166.666504, 4170.256348, 4203.589844, 546.000000, 8220.000000, 8129.000000, 0.000000, 0.000000, 0.000000, -20994.000000, 129.230759, 4.000000, 4.000000, 4.000000, 4.000000, 4.000000, 4.000000, 4.000000, 4.000000, 4.000000, 4.000000, 4.000000, 4.000000, 4.000000, 4.000000, 4.000000, 4.000000
84.000000, 0.000000, 4231.281738, 4214.358887, 4195.384277, 4203.076660, 4202.563965, 4205.127930, 4208.717773, 4201.025391, 4190.256348, 4217.948730, 4185.127930, 4170.769043, 4168.205078, 4200.512695, 3479.000000, 8220.000000, 8129.000000, 0.000000, 0.000000, 0.000000, -20994.000000, 136.923080, 4.000000, 4.000000, 4.000000, 4.000000, 4.000000, 4.000000, 4.000000, 4.000000, 4.000000, 4.000000, 4.000000, 4.000000, 4.000000, 4.000000, 4.000000, 4.000000
85.000000, 0.000000, 4236.922852, 4220.512695, 4198.974121, 4210.256348, 4199.487305, 4202.563965, 4198.974121, 4201.025391, 4200.512695, 4229.743652, 4185.641113, 4177.436035, 4173.333008, 4204.102539, 3407.000000, 8217.000000, 8137.000000, 0.000000, 0.000000, 0.000000, -20994.000000, 145.128204, 4.000000, 4.000000, 4.000000, 4.000000, 4.000000, 4.000000, 4.000000, 4.000000, 4.000000, 4.000000, 4.000000, 4.000000, 4.000000, 4.000000, 4.000000, 4.000000
86.000000, 0.000000, 4247.179199, 4226.666504, 4206.666504, 4217.436035, 4204.102539, 4204.615234, 4195.897461, 4198.461426, 4193.846191, 4224.102539, 4187.692383, 4183.589844, 4182.563965, 4203.076660, 3539.000000, 8217.000000, 8137.000000, 0.000000, 0.000000, 0.000000, -20994.000000, 152.820511, 4.000000, 4.000000, 4.000000, 4.000000, 4.000000, 4.000000, 4.000000, 4.000000, 4.000000, 4.000000, 4.000000, 4.000000, 4.000000, 4.000000, 4.000000, 4.000000
87.000000, 0.000000, 4238.974121, 4222.563965, 4211.281738, 4214.358887, 4191.794922, 4204.102539, 4200.000000, 4194.358887, 4185.641113, 4220.000000, 4194.358887, 4185.127930, 4183.589844, 4203.589844, 546.000000, 8208.000000, 8148.000000, 0.000000, 0.000000, 0.000000, -20994.000000, 161.025635, 4.000000, 4.000000, 4.000000, 4.000000, 4.000000, 4.000000, 4.000000, 4.000000, 4.000000, 4.000000, 4.000000, 4.000000, 4.000000, 4.000000, 4.000000, 4.000000
88.000000, 0.000000, 4235.384277, 4219.487305, 4207.692383, 4205.641113, 4186.153809, 4199.487305, 4200.000000, 4198.461426, 4193.333008, 4229.230469, 4200.000000, 4182.563965, 4184.102539, 4203.589844, 3479.000000, 8208.000000, 8148.000000, 0.000000, 0.000000, 0.000000, -20994.000000, 168.717941, 4.000000, 4.000000, 4.000000, 4.000000, 4.000000, 4.000000, 4.000000, 4.000000, 4.000000, 4.000000, 4.000000, 4.000000, 4.000000, 4.000000, 4.000000, 4.000000
89.000000, 0.000000, 4236.410156, 4222.563965, 4200.000000, 4203.589844, 4203.589844, 4200.512695, 4201.025391, 4205.641113, 4207.179199, 4242.051270, 4201.025391, 4186.153809, 4193.846191, 4206.666504, 3407.000000, 8205.000000, 8156.000000, 0.000000, 0.000000, 0.000000, -20994.000000, 176.923065, 4.000000, 4.000000, 4.000000, 4.000000, 4.000000, 4.000000, 4.000000, 4.000000, 4.000000, 4.000000, 4.000000, 4.000000, 4.000000, 4.000000, 4.000000, 4.000000
90.000000, 0.000000, 4233.846191, 4222.051270, 4198.974121, 4205.127930, 4207.179199, 4203.076660, 4203.589844, 4208.205078, 4211.281738, 4244.615234, 4202.563965, 4192.307617, 4200.000000, 4207.692383, 3539.000000, 8205.000000, 8156.000000, 0.000000, 0.000000, 0.000000, -20994.000000, 184.615387, 4.000000, 4.000000, 4.000000, 4.000000, 4.000000, 4.000000, 4.000000, 4.000000, 4.000000, 4.000000, 4.000000, 4.000000, 4.000000, 4.000000, 4.000000, 4.000000
91.000000, 0.000000, 4234.358887, 4218.974121, 4202.563965, 4202.563965, 4197.948730, 4202.051270, 4201.538574, 4207.179199, 4202.051270, 4242.051270, 4199.487305, 4185.127930, 4194.358887, 4203.589844, 546.000000, 8202.000000, 8176.000000, 0.000000, 0.000000, 0.000000, -20994.000000, 192.307693, 4.000000, 4.000000, 4.000000, 4.000000, 4.000000, 4.000000, 4.000000, 4.000000, 4.000000, 4.000000, 4.000000, 4.000000, 4.000000, 4.000000, 4.000000, 4.000000
92.000000, 0.000000, 4230.769043, 4216.922852, 4197.436035, 4197.948730, 4191.281738, 4203.076660, 4205.641113, 4204.102539, 4193.333008, 4240.000000, 4187.692383, 4176.410156, 4185.641113, 4204.615234, 3479.000000, 8202.000000, 8176.000000, 0.000000, 0.000000, 0.000000, -20994.000000, 200.512817, 4.000000, 4.000000, 4.000000, 4.000000, 4.000000, 4.000000, 4.000000, 4.000000, 4.000000, 4.000000, 4.000000, 4.000000, 4.000000, 4.000000, 4.000000, 4.000000
93.000000, 0.000000, 4229.230469, 4214.871582, 4189.743652, 4196.922852, 4184.102539, 4202.563965, 4208.205078, 4196.410156, 4196.410156, 4237.948730, 4180.000000, 4175.384277, 4178.461426, 4201.538574, 3407.000000, 8204.000000, 8177.000000, 0.000000, 0.000000, 0.000000, -20994.000000, 208.205124, 4.000000, 4.000000, 4.000000, 4.000000, 4.000000, 4.000000, 4.000000, 4.000000, 4.000000, 4.000000, 4.000000, 4.000000, 4.000000, 4.000000, 4.000000, 4.000000
94.000000, 0.000000, 4228.717773, 4220.000000, 4193.846191, 4198.461426, 4190.769043, 4204.615234, 4208.717773, 4197.436035, 4204.615234, 4240.000000, 4185.127930, 4178.974121, 4178.974121, 4202.563965, 3539.000000, 8204.000000, 8177.000000, 0.000000, 0.000000, 0.000000, -20994.000000, 215.897430, 4.000000, 4.000000, 4.000000, 4.000000, 4.000000, 4.000000, 4.000000, 4.000000, 4.000000, 4.000000, 4.000000, 4.000000, 4.000000, 4.000000, 4.000000, 4.000000
95.000000, 0.000000, 4233.333008, 4230.769043, 4204.615234, 4204.615234, 4209.230469, 4217.436035, 4213.333008, 4199.487305, 4200.000000, 4247.179199, 4190.256348, 4184.615234, 4186.153809, 4207.179199, 546.000000, 8205.000000, 8177.000000, 0.000000, 0.000000, 0.000000, -20994.000000, 224.102554, 4.000000, 4.000000, 4.000000, 4.000000, 4.000000, 4.000000, 4.000000, 4.000000, 4.000000, 4.000000, 4.000000, 4.000000, 4.000000, 4.000000, 4.000000, 4.000000
96.000000, 0.000000, 4236.922852, 4232.307617, 4204.615234, 4207.692383, 4198.461426, 4217.948730, 4211.281738, 4184.102539, 4187.692383, 4252.307617, 4183.076660, 4183.589844, 4184.102539, 4201.025391, 3479.000000, 8205.000000, 8177.000000, 0.000000, 0.000000, 0.000000, -20994.000000, 231.794861, 4.000000, 4.000000, 4.000000, 4.000000, 4.000000, 4.000000, 4.000000, 4.000000, 4.000000, 4.000000, 4.000000, 4.000000, 4.000000, 4.000000, 4.000000, 4.000000
97.000000, 0.000000, 4228.205078, 4226.153809, 4200.512695, 4205.127930, 4178.974121, 4202.563965, 4201.538574, 4166.666504, 4181.538574, 4247.692383, 4177.948730, 4178.461426, 4173.333008, 4199.487305, 3407.000000, 8214.000000, 8180.000000, 0.000000, 0.000000, 0.000000, -20994.000000, 240.000000, 4.000000, 4.000000, 4.000000, 4.000000, 4.000000, 4.000000, 4.000000, 4.000000, 4.000000, 4.000000, 4.000000, 4.000000, 4.000000, 4.000000, 4.000000, 4.000000
98.000000, 0.000000, 4229.230469, 4228.205078, 4203.589844, 4207.692383, 4191.794922, 4198.974121, 4198.461426, 4165.641113, 4183.589844, 4244.102539, 4177.948730, 4177.948730, 4172.307617, 4200.512695, 3539.000000, 8214.000000, 8180.000000, 0.000000, 0.000000, 0.000000, -20994.000000, 247.692307, 4.000000, 4.000000, 4.000000, 4.000000, 4.000000, 4.000000, 4.000000, 4.000000, 4.000000, 4.000000, 4.000000, 4.000000, 4.000000, 4.000000, 4.000000, 4.000000
99.000000, 0.000000, 4230.256348, 4229.230469, 4203.076660, 4211.794922, 4208.205078, 4205.641113, 4197.948730, 4171.794922, 4185.127930, 4238.461426, 4176.410156, 4176.922852, 4174.358887, 4198.461426, 546.000000, 8224.000000, 8181.000000, 0.000000, 0.000000, 0.000000, -20994.000000, 255.897430, 4.000000, 4.000000, 4.000000, 4.000000, 4.000000, 4.000000, 4.000000, 4.000000, 4.000000, 4.000000, 4.000000, 4.000000, 4.000000, 4.000000, 4.000000, 4.000000
100.000000, 0.000000, 4223.589844, 4222.563965, 4196.410156, 4204.615234, 4199.487305, 4203.589844, 4197.948730, 4170.769043, 4182.563965, 4229.743652, 4177.948730, 4170.256348, 4167.692383, 4200.512695, 3479.000000, 8224.000000, 8181.000000, 0.000000, 0.000000, 0.000000, -20994.000000, 263.589752, 4.000000, 4.000000, 4.000000, 4.000000, 4.000000, 4.000000, 4.000000, 4.000000, 4.000000, 4.000000, 4.000000, 4.000000, 4.000000, 4.000000, 4.000000, 4.000000
101.000000, 0.000000, 4226.153809, 4225.127930, 4195.384277, 4200.000000, 4195.384277, 4197.948730, 4192.820313, 4167.692383, 4179.487305, 4236.922852, 4184.102539, 4165.641113, 4167.179199, 4203.076660, 3407.000000, 8257.000000, 8189.000000, 0.000000, 0.000000, 0.000000, -20994.000000, 271.282043, 4.000000, 4.000000, 4.000000, 4.000000, 4.000000, 4.000000, 4.000000, 4.000000, 4.000000, 4.000000, 4.000000, 4.000000, 4.000000, 4.000000, 4.000000, 4.000000
102.000000, 0.000000, 4227.179199, 4230.769043, 4199.487305, 4207.692383, 4200.000000, 4200.000000, 4190.256348, 4173.333008, 4185.127930, 4251.281738, 4186.153809, 4170.256348, 4175.897461, 4207.692383, 3539.000000, 8257.000000, 8189.000000, 0.000000, 0.000000, 0.000000, -20994.000000, 278.974365, 4.000000, 4.000000, 4.000000, 4.000000, 4.000000, 4.000000, 4.000000, 4.000000, 4.000000, 4.000000, 4.000000, 4.000000, 4.000000, 4.000000, 4.000000, 4.000000
103.000000, 0.000000, 4224.615234, 4222.563965, 4203.076660, 4209.230469, 4193.333008, 4204.615234, 4197.436035, 4182.563965, 4194.871582, 4248.717773, 4181.538574, 4175.897461, 4171.281738, 4204.615234, 546.000000, 8271.000000, 8190.000000, 0.000000, 0.000000, 0.000000, -20994.000000, 287.179474, 4.000000, 4.000000, 4.000000, 4.000000, 4.000000, 4.000000, 4.000000, 4.000000, 4.000000, 4.000000, 4.000000, 4.000000, 4.000000, 4.000000, 4.000000, 4.000000
104.000000, 0.000000, 4221.538574, 4216.410156, 4201.538574, 4201.025391, 4184.615234, 4196.410156, 4193.333008, 4178.461426, 4193.333008, 4242.051270, 4182.563965, 4174.871582, 4167.692383, 4201.025391, 3479.000000, 8271.000000, 8190.000000, 0.000000, 0.000000, 0.000000, -20994.000000, 294.871796, 4.000000, 4.000000, 4.000000, 4.000000, 4.000000, 4.000000, 4.000000, 4.000000, 4.000000, 4.000000, 4.000000, 4.000000, 4.000000, 4.000000, 4.000000, 4.000000
105.000000, 0.000000, 4224.615234, 4228.205078, 4194.358887, 4203.076660, 4184.102539, 4185.127930, 4176.410156, 4165.127930, 4182.051270, 4252.820313, 4190.256348, 4174.358887, 4187.692383, 4206.666504, 3407.000000, 8294.000000, 8196.000000, 0.000000, 0.000000, 0.000000, -20994.000000, 303.076904, 4.000000, 4.000000, 4.000000, 4.000000, 4.000000, 4.000000, 4.000000, 4.000000, 4.000000, 4.000000, 4.000000, 4.000000, 4.000000, 4.000000, 4.000000, 4.000000
106.000000, 0.000000, 4236.922852, 4238.461426, 4197.436035, 4216.410156, 4194.358887, 4193.333008, 4180.000000, 4166.153809, 4182.051270, 4268.205078, 4195.384277, 4181.025391, 4207.692383, 4205.641113, 3539.000000, 8294.000000, 8196.000000, 0.000000, 0.000000, 0.000000, -20994.000000, 310.769226, 4.000000, 4.000000, 4.000000, 4.000000, 4.000000, 4.000000, 4.000000, 4.000000, 4.000000, 4.000000, 4.000000, 4.000000, 4.000000, 4.000000, 4.000000, 4.000000
107.000000, 0.000000, 4232.820313, 4231.281738, 4200.512695, 4217.948730, 4198.461426, 4204.615234, 4192.307617, 4172.307617, 4188.205078, 4268.717773, 4195.384277, 4180.512695, 4203.589844, 4204.102539, 546.000000, 8321.000000, 8193.000000, 0.000000, 0.000000, 0.000000, -20994.000000, 318.461517, 4.000000, 4.000000, 4.000000, 4.000000, 4.000000, 4.000000, 4.000000, 4.000000, 4.000000, 4.000000, 4.000000, 4.000000, 4.000000, 4.000000, 4.000000, 4.000000
108.000000, 0.000000, 4220.000000, 4221.025391, 4191.281738, 4205.641113, 4182.563965, 4196.410156, 4183.589844, 4168.717773, 4186.666504, 4259.487305, 4189.743652, 4167.692383, 4189.230469, 4202.051270, 3479.000000, 8321.000000, 8193.000000, 0.000000, 0.000000, 0.000000, -20994.000000, 326.666656, 4.000000, 4.000000, 4.000000, 4.000000, 4.000000, 4.000000, 4.000000, 4.000000, 4.000000, 4.000000, 4.000000, 4.000000, 4.000000, 4.000000, 4.000000, 4.000000
109.000000, 0.000000, 4216.410156, 4223.076660, 4190.769043, 4201.538574, 4184.102539, 4196.922852, 4180.512695, 4169.230469, 4190.256348, 4253.846191, 4189.743652, 4168.205078, 4191.281738, 4202.563965, 3407.000000, 8318.000000, 8189.000000, 0.000000, 0.000000, 0.000000, -20994.000000, 334.358978, 4.000000, 4.000000, 4.000000, 4.000000, 4.000000, 4.000000, 4.000000, 4.000000, 4.000000, 4.000000, 4.000000, 4.000000, 4.000000, 4.000000, 4.000000, 4.000000
110.000000, 0.000000, 4216.922852, 4226.153809, 4197.948730, 4206.153809, 4207.179199, 4210.256348, 4194.358887, 4179.487305, 4200.512695, 4255.384277, 4195.384277, 4181.025391, 4197.436035, 4209.230469, 3539.000000, 8318.000000, 8189.000000, 0.000000, 0.000000, 0.000000, -20994.000000, 342.051270, 4.000000, 4.000000, 4.000000, 4.000000, 4.000000, 4.000000, 4.000000, 4.000000, 4.000000, 4.000000, 4.000000, 4.000000, 4.000000, 4.000000, 4.000000, 4.000000
111.000000, 0.000000, 4218.461426, 4219.487305, 4196.922852, 4206.666504, 4209.230469, 4208.205078, 4197.948730, 4186.666504, 4203.589844, 4267.692383, 4198.974121, 4184.615234, 4195.897461, 4206.153809, 546.000000, 8313.000000, 8193.000000, 0.000000, 0.000000, 0.000000, -20994.000000, 350.256409, 4.000000, 4.000000, 4.000000, 4.000000, 4.000000, 4.000000, 4.000000, 4.000000, 4.000000, 4.000000, 4.000000, 4.000000, 4.000000, 4.000000, 4.000000, 4.000000
112.000000, 0.000000, 4213.333008, 4217.948730, 4194.871582, 4200.000000, 4188.717773, 4198.974121, 4192.820313, 4188.205078, 4202.051270, 4281.025391, 4196.922852, 4184.615234, 4197.436035, 4204.615234, 3479.000000, 8313.000000, 8193.000000, 0.000000, 0.000000, 0.000000, -20994.000000, 357.948700, 4.000000, 4.000000, 4.000000, 4.000000, 4.000000, 4.000000, 4.000000, 4.000000, 4.000000, 4.000000, 4.000000, 4.000000, 4.000000, 4.000000, 4.000000, 4.000000
113.000000, 0.000000, 4213.846191, 4224.102539, 4197.948730, 4201.538574, 4179.487305, 4199.487305, 4186.153809, 4181.025391, 4196.922852, 4274.358887, 4190.256348, 4183.589844, 4198.461426, 4206.153809, 3407.000000, 8304.000000, 8187.000000, 0.000000, 0.000000, 0.000000, -20994.000000, 365.641022, 4.000000, 4.000000, 4.000000, 4.000000, 4.000000, 4.000000, 4.000000, 4.000000, 4.000000, 4.000000, 4.000000, 4.000000, 4.000000, 4.000000, 4.000000, 4.000000
114.000000, 0.000000, 4217.948730, 4220.512695, 4198.461426, 4210.769043, 4190.256348, 4202.051270, 4185.127930, 4173.333008, 4190.769043, 4256.410156, 4185.641113, 4180.000000, 4194.358887, 4204.615234, 3539.000000, 8304.000000, 8187.000000, 0.000000, 0.000000, 0.000000, -20994.000000, 373.333313, 4.000000, 4.000000, 4.000000, 4.000000, 4.000000, 4.000000, 4.000000, 4.000000, 4.000000, 4.000000, 4.000000, 4.000000, 4.000000, 4.000000, 4.000000, 4.000000
115.000000, 0.000000, 4211.794922, 4213.333008, 4196.410156, 4206.666504, 4201.025391, 4198.974121, 4187.179199, 4173.846191, 4184.102539, 4245.127930, 4181.538574, 4176.922852, 4188.717773, 4207.179199, 546.000000, 8279.000000, 8184.000000, 0.000000, 0.000000, 0.000000, -20994.000000, 381.538452, 4.000000, 4.000000, 4.000000, 4.000000, 4.000000, 4.000000, 4.000000, 4.000000, 4.000000, 4.000000, 4.000000, 4.000000, 4.000000, 4.000000, 4.000000, 4.000000
116.000000, 0.000000, 4213.846191, 4217.948730, 4202.051270, 4202.051270, 4203.589844, 4198.974121, 4186.153809, 4178.461426, 4183.589844, 4236.410156, 4182.051270, 4177.948730, 4188.717773, 4204.615234, 3479.000000, 8279.000000, 8184.000000, 0.000000, 0.000000, 0.000000, -20994.000000, 389.230774, 4.000000, 4.000000, 4.000000, 4.000000, 4.000000, 4.000000, 4.000000, 4.000000, 4.000000, 4.000000, 4.000000, 4.000000, 4.000000, 4.000000, 4.000000, 4.000000
117.000000, 0.000000, 4210.256348, 4218.461426, 4208.205078, 4208.205078, 4198.461426, 4200.512695, 4186.153809, 4184.615234, 4191.281738, 4222.051270, 4185.641113, 4184.615234, 4190.256348, 4202.563965, 3407.000000, 8266.000000, 8185.000000, 0.000000, 0.000000, 0.000000, -20994.000000, 397.435883, 4.000000, 4.000000, 4.000000, 4.000000, 4.000000, 4.000000, 4.000000, 4.000000, 4.000000, 4.000000, 4.000000, 4.000000, 4.000000, 4.000000, 4.000000, 4.000000
118.000000, 0.000000, 4207.179199, 4217.436035, 4205.127930, 4207.692383, 4190.256348, 4190.769043, 4187.179199, 4187.179199, 4198.461426, 4207.179199, 4183.589844, 4184.615234, 4187.692383, 4203.589844, 3539.000000, 8266.000000, 8185.000000, 0.000000, 0.000000, 0.000000, -20994.000000, 405.128204, 4.000000, 4.000000, 4.000000, 4.000000, 4.000000, 4.000000, 4.000000, 4.000000, 4.000000, 4.000000, 4.000000, 4.000000, 4.000000, 4.000000, 4.000000, 4.000000
119.000000, 0.000000, 4210.256348, 4224.615234, 4202.051270, 4201.538574, 4193.333008, 4184.615234, 4188.205078, 4187.692383, 4199.487305, 4207.179199, 4181.025391, 4179.487305, 4187.179199, 4202.563965, 546.000000, 8253.000000, 8180.000000, 0.000000, 0.000000, 0.000000, -20994.000000, 412.820496, 4.000000, 4.000000, 4.000000, 4.000000, 4.000000, 4.000000, 4.000000, 4.000000, 4.000000, 4.000000, 4.000000, 4.000000, 4.000000, 4.000000, 4.000000, 4.000000
120.000000, 0.000000, 4205.641113, 4233.333008, 4205.127930, 4203.589844, 4198.974121, 4194.871582, 4193.333008, 4193.333008, 4198.974121, 4218.974121, 4185.127930, 4187.692383, 4192.307617, 4205.641113, 3479.000000, 8253.000000, 8180.000000, 0.000000, 0.000000, 0.000000, -20994.000000, 421.025635, 4.000000, 4.000000, 4.000000, 4.000000, 4.000000, 4.000000, 4.000000, 4.000000, 4.000000, 4.000000, 4.000000, 4.000000, 4.000000, 4.000000, 4.000000, 4.000000
121.000000, 0.000000, 4207.692383, 4235.897461, 4208.717773, 4205.127930, 4186.666504, 4203.589844, 4198.974121, 4201.025391, 4205.641113, 4225.641113, 4195.384277, 4196.922852, 4202.563965, 4205.127930, 3407.000000, 8231.000000, 8175.000000, 0.000000, 0.000000, 0.000000, -20994.000000, 428.717926, 4.000000, 4.000000, 4.000000, 4.000000, 4.000000, 4.000000, 4.000000, 4.000000, 4.000000, 4.000000, 4.000000, 4.000000, 4.000000, 4.000000, 4.000000, 4.000000
122.000000, 0.000000, 4213.333008, 4239.487305, 4210.769043, 4210.256348, 4184.615234, 4202.051270, 4202.563965, 4205.127930, 4212.820313, 4227.692383, 4207.179199, 4197.436035, 4211.794922, 4207.179199, 3539.000000, 8231.000000, 8175.000000, 0.000000, 0.000000, 0.000000, -20994.000000, 436.923065, 4.000000, 4.000000, 4.000000, 4.000000, 4.000000, 4.000000, 4.000000, 4.000000, 4.000000, 4.000000, 4.000000, 4.000000, 4.000000, 4.000000, 4.000000, 4.000000
123.000000, 0.000000, 4214.358887, 4246.153809, 4211.281738, 4220.512695, 4209.743652, 4202.051270, 4202.051270, 4205.127930, 4209.230469, 4229.230469, 4212.307617, 4196.410156, 4217.948730, 4208.717773, 546.000000, 8219.000000, 8174.000000, 0.000000, 0.000000, 0.000000, -20994.000000, 444.615387, 4.000000, 4.000000, 4.000000, 4.000000, 4.000000, 4.000000, 4.000000, 4.000000, 4.000000, 4.000000, 4.000000, 4.000000, 4.000000, 4.000000, 4.000000, 4.000000
124.000000, 0.000000, 4214.871582, 4246.153809, 4203.589844, 4209.743652, 4213.846191, 4200.512695, 4199.487305, 4205.127930, 4205.127930, 4225.127930, 4207.692383, 4193.846191, 4218.461426, 4204.102539, 3479.000000, 8219.000000, 8174.000000, 0.000000, 0.000000, 0.000000, -20994.000000, 452.820496, 4.000000, 4.000000, 4.000000, 4.000000, 4.000000, 4.000000, 4.000000, 4.000000, 4.000000, 4.000000, 4.000000, 4.000000, 4.000000, 4.000000, 4.000000, 4.000000
125.000000, 0.000000, 4214.358887, 4240.512695, 4198.461426, 4200.512695, 4195.897461, 4199.487305, 4201.025391, 4205.641113, 4213.846191, 4223.076660, 4208.717773, 4194.871582, 4216.410156, 4205.127930, 3407.000000, 8200.000000, 8164.000000, 0.000000, 0.000000, 0.000000, -20994.000000, 460.512817, 4.000000, 4.000000, 4.000000, 4.000000, 4.000000, 4.000000, 4.000000, 4.000000, 4.000000, 4.000000, 4.000000, 4.000000, 4.000000, 4.000000, 4.000000, 4.000000
126.000000, 0.000000, 4217.436035, 4235.897461, 4206.666504, 4209.230469, 4202.051270, 4202.051270, 4204.102539, 4206.666504, 4220.512695, 4230.769043, 4213.846191, 4202.563965, 4216.922852, 4205.641113, 3539.000000, 8200.000000, 8164.000000, 0.000000, 0.000000, 0.000000, -20994.000000, 468.205109, 4.000000, 4.000000, 4.000000, 4.000000, 4.000000, 4.000000, 4.000000, 4.000000, 4.000000, 4.000000, 4.000000, 4.000000, 4.000000, 4.000000, 4.000000, 4.000000
127.000000, 0.000000, 4210.256348, 4233.333008, 4206.666504, 4209.230469, 4202.051270, 4200.000000, 4201.538574, 4202.563965, 4209.230469, 4233.333008, 4213.846191, 4203.589844, 4219.487305, 4206.153809, 54.000000, 8201.000000, 8159.000000, 0.000000, 0.000000, 0.000000, -20994.000000, 476.410248, 4.000000, 4.000000, 4.000000, 4.000000, 4.000000, 4.000000, 4.000000, 4.000000, 4.000000, 4.000000, 4.000000, 4.000000, 4.000000, 4.000000, 4.000000, 4.000000
0.000000, 0.000000, 4204.102539, 4234.871582, 4202.563965, 4201.025391, 4185.127930, 4196.922852, 4197.436035, 4197.948730, 4205.641113, 4228.717773, 4213.846191, 4198.461426, 4216.922852, 4206.666504, 3354.000000, 8201.000000, 8159.000000, 0.000000, 0.000000, 0.000000, -20994.000000, 484.102539, 4.000000, 4.000000, 4.000000, 4.000000, 4.000000, 4.000000, 4.000000, 4.000000, 4.000000, 4.000000, 4.000000, 4.000000, 4.000000, 4.000000, 4.000000, 4.000000
1.000000, 0.000000, 4205.127930, 4229.743652, 4210.769043, 4202.051270, 4190.769043, 4203.589844, 4202.051270, 4205.641113, 4219.487305, 4231.281738, 4215.384277, 4204.615234, 4207.692383, 4200.000000, 3511.000000, 8197.000000, 8159.000000, 0.000000, 0.000000, 0.000000, -20994.000000, 492.307678, 4.000000, 4.000000, 4.000000, 4.000000, 4.000000, 4.000000, 4.000000, 4.000000, 4.000000, 4.000000, 4.000000, 4.000000, 4.000000, 4.000000, 4.000000, 4.000000
2.000000, 0.000000, 4202.051270, 4227.179199, 4218.974121, 4207.179199, 4204.102539, 4206.153809, 4203.076660, 4205.127930, 4215.384277, 4235.384277, 4211.794922, 4210.769043, 4205.641113, 4200.512695, 2520.000000, 8197.000000, 8159.000000, 0.000000, 0.000000, 0.000000, -20994.000000, 500.000000, 4.000000, 4.000000, 4.000000, 4.000000, 4.000000, 4.000000, 4.000000, 4.000000, 4.000000, 4.000000, 4.000000, 4.000000, 4.000000, 4.000000, 4.000000, 4.000000
3.000000, 0.000000, 4208.717773, 4242.563965, 4221.025391, 4215.384277, 4202.563965, 4199.487305, 4189.743652, 4187.692383, 4191.794922, 4229.230469, 4205.641113, 4201.538574, 4211.281738, 4204.102539, 2139.000000, 8203.000000, 8161.000000, 0.000000, 0.000000, 0.000000, -20994.000000, 507.692291, 4.000000, 4.000000, 4.000000, 4.000000, 4.000000, 4.000000, 4.000000, 4.000000, 4.000000, 4.000000, 4.000000, 4.000000, 4.000000, 4.000000, 4.000000, 4.000000
4.000000, 0.000000, 4210.769043, 4250.256348, 4220.000000, 4222.051270, 4202.051270, 4197.948730, 4183.076660, 4181.025391, 4187.692383, 4218.974121, 4204.102539, 4191.794922, 4208.205078, 4201.538574, 3531.000000, 8203.000000, 8161.000000, 0.000000, 0.000000, 0.000000, -20994.000000, 515.897400, 4.000000, 4.000000, 4.000000, 4.000000, 4.000000, 4.000000, 4.000000, 4.000000, 4.000000, 4.000000, 4.000000, 4.000000, 4.000000, 4.000000, 4.000000, 4.000000
5.000000, 0.000000, 4195.897461, 4237.436035, 4213.333008, 4214.871582, 4206.666504, 4202.051270, 4195.897461, 4187.692383, 4202.051270, 4215.384277, 4198.461426, 4187.692383, 4194.871582, 4197.436035, 3539.000000, 8206.000000, 8162.000000, 0.000000, 0.000000, 0.000000, -20994.000000, 523.589722, 4.000000, 4.000000, 4.000000, 4.000000, 4.000000, 4.000000, 4.000000, 4.000000, 4.000000, 4.000000, 4.000000, 4.000000, 4.000000, 4.000000, 4.000000, 4.000000
6.000000, 0.000000, 4188.205078, 4227.692383, 4200.512695, 4203.589844, 4203.076660, 4202.051270, 4198.461426, 4188.205078, 4204.102539, 4214.871582, 4188.205078, 4180.512695, 4185.127930, 4193.846191, 3119.000000, 8206.000000, 8162.000000, 0.000000, 0.000000, 0.000000, -20994.000000, 531.282043, 4.000000, 4.000000, 4.000000, 4.000000, 4.000000, 4.000000, 4.000000, 4.000000, 4.000000, 4.000000, 4.000000, 4.000000, 4.000000, 4.000000, 4.000000, 4.000000
7.000000, 0.000000, 4187.179199, 4232.820313, 4195.897461, 4201.538574, 4199.487305, 4200.512695, 4188.205078, 4182.051270, 4197.948730, 4212.820313, 4186.666504, 4177.436035, 4190.769043, 4198.974121, 3511.000000, 8212.000000, 8171.000000, 0.000000, 0.000000, 0.000000, -20994.000000, 539.487183, 4.000000, 4.000000, 4.000000, 4.000000, 4.000000, 4.000000, 4.000000, 4.000000, 4.000000, 4.000000, 4.000000, 4.000000, 4.000000, 4.000000, 4.000000, 4.000000
8.000000, 0.000000, 4191.281738, 4235.384277, 4202.563965, 4205.127930, 4207.692383, 4203.076660, 4191.794922, 4183.589844, 4201.538574, 4217.948730, 4194.871582, 4181.025391, 4198.974121, 4200.000000, 3516.000000, 8212.000000, 8171.000000, 0.000000, 0.000000, 0.000000, -20994.000000, 547.179443, 4.000000, 4.000000, 4.000000, 4.000000, 4.000000, 4.000000, 4.000000, 4.000000, 4.000000, 4.000000, 4.000000, 4.000000, 4.000000, 4.000000, 4.000000, 4.000000
9.000000, 0.000000, 4190.769043, 4229.743652, 4199.487305, 4202.563965, 4201.025391, 4203.076660, 4197.948730, 4187.692383, 4203.589844, 4220.000000, 4190.769043, 4175.897461, 4190.256348, 4195.384277, 3535.000000, 8218.000000, 8171.000000, 0.000000, 0.000000, 0.000000, -20994.000000, 555.384583, 4.000000, 4.000000, 4.000000, 4.000000, 4.000000, 4.000000, 4.000000, 4.000000, 4.000000, 4.000000, 4.000000, 4.000000, 4.000000, 4.000000, 4.000000, 4.000000
10.000000, 0.000000, 4184.615234, 4228.205078, 4194.358887, 4197.948730, 4182.051270, 4200.512695, 4196.410156, 4186.666504, 4200.000000, 4211.794922, 4180.000000, 4170.769043, 4176.922852, 4200.000000, 3539.000000, 8218.000000, 8171.000000, 0.000000, 0.000000, 0.000000, -20994.000000, 563.076904, 4.000000, 4.000000, 4.000000, 4.000000, 4.000000, 4.000000, 4.000000, 4.000000, 4.000000, 4.000000, 4.000000, 4.000000, 4.000000, 4.000000, 4.000000, 4.000000
11.000000, 0.000000, 4190.769043, 4234.871582, 4201.025391, 4201.025391, 4191.794922, 4203.076660, 4197.948730, 4190.769043, 4205.127930, 4218.461426, 4189.743652, 4178.974121, 4186.153809, 4201.025391, 556.000000, 8219.000000, 8177.000000, 0.000000, 0.000000, 0.000000, -20994.000000, 570.769226, 4.000000, 4.000000, 4.000000, 4.000000, 4.000000, 4.000000, 4.000000, 4.000000, 4.000000, 4.000000, 4.000000, 4.000000, 4.000000, 4.000000, 4.000000, 4.000000
12.000000, 0.000000, 4188.717773, 4233.846191, 4204.102539, 4202.563965, 4211.281738, 4202.563965, 4202.051270, 4201.538574, 4207.692383, 4235.897461, 4203.076660, 4187.692383, 4193.333008, 4201.025391, 3476.000000, 8219.000000, 8177.000000, 0.000000, 0.000000, 0.000000, -20994.000000, 578.461548, 4.000000, 4.000000, 4.000000, 4.000000, 4.000000, 4.000000, 4.000000, 4.000000, 4.000000, 4.000000, 4.000000, 4.000000, 4.000000, 4.000000, 4.000000, 4.000000
13.000000, 0.000000, 4183.076660, 4226.666504, 4201.025391, 4198.974121, 4203.076660, 4198.974121, 4201.538574, 4205.641113, 4202.563965, 4234.871582, 4200.512695, 4191.281738, 4186.153809, 4201.025391, 3404.000000, 8213.000000, 8179.000000, 0.000000, 0.000000, 0.000000, -20994.000000, 586.666626, 4.000000, 4.000000, 4.000000, 4.000000, 4.000000, 4.000000, 4.000000, 4.000000, 4.000000, 4.000000, 4.000000, 4.000000, 4.000000, 4.000000, 4.000000, 4.000000
14.000000, 0.000000, 4191.794922, 4226.153809, 4205.641113, 4200.000000, 4197.436035, 4198.461426, 4197.436035, 4195.897461, 4202.051270, 4223.589844, 4197.436035, 4196.410156, 4187.179199, 4200.000000, 3539.000000, 8213.000000, 8179.000000, 0.000000, 0.000000, 0.000000, -20994.000000, 594.358948, 4.000000, 4.000000, 4.000000, 4.000000, 4.000000, 4.000000, 4.000000, 4.000000, 4.000000, 4.000000, 4.000000, 4.000000, 4.000000, 4.000000, 4.000000, 4.000000
15.000000, 0.000000, 4192.820313, 4225.127930, 4207.692383, 4199.487305, 4201.538574, 4192.307617, 4187.692383, 4190.769043, 4203.589844, 4215.384277, 4200.512695, 4193.333008, 4190.769043, 4200.000000, 556.000000, 8210.000000, 8182.000000, 0.000000, 0.000000, 0.000000, -20994.000000, 602.564087, 4.000000, 4.000000, 4.000000, 4.000000, 4.000000, 4.000000, 4.000000, 4.000000, 4.000000, 4.000000, 4.000000, 4.000000, 4.000000, 4.000000, 4.000000, 4.000000
16.000000, 0.000000, 4189.230469, 4218.974121, 4203.589844, 4194.358887, 4184.615234, 4182.563965, 4183.589844, 4195.384277, 4198.461426, 4213.846191, 4199.487305, 4184.102539, 4189.230469, 4197.436035, 0.000000, 8210.000000, 8182.000000, 0.000000, 0.000000, 0.000000, -20994.000000, 610.256409, 4.000000, 4.000000, 4.000000, 4.000000, 4.000000, 4.000000, 4.000000, 4.000000, 4.000000, 4.000000, 4.000000, 4.000000, 4.000000, 4.000000, 4.000000, 4.000000
17.000000, 0.000000, 4191.794922, 4217.948730, 4205.127930, 4197.948730, 4179.487305, 4189.743652, 4195.384277, 4200.000000, 4201.025391, 4223.076660, 4201.538574, 4187.179199, 4197.436035, 4202.051270, 0.000000, 8211.000000, 8185.000000, 0.000000, 0.000000, 0.000000, -20994.000000, 617.948730, 4.000000, 4.000000, 4.000000, 4.000000, 4.000000, 4.000000, 4.000000, 4.000000, 4.000000, 4.000000, 4.000000, 4.000000, 4.000000, 4.000000, 4.000000, 4.000000
18.000000, 0.000000, 4199.487305, 4220.000000, 4206.666504, 4204.615234, 4203.076660, 4202.563965, 4202.051270, 4205.641113, 4209.743652, 4232.820313, 4206.153809, 4197.436035, 4207.179199, 4205.127930, 0.000000, 8211.000000, 8185.000000, 0.000000, 0.000000, 0.000000, -20994.000000, 626.153809, 4.000000, 4.000000, 4.000000, 4.000000, 4.000000, 4.000000, 4.000000, 4.000000, 4.000000, 4.000000, 4.000000, 4.000000, 4.000000, 4.000000, 4.000000, 4.000000
19.000000, 0.000000, 4199.487305, 4217.436035, 4204.102539, 4202.563965, 4209.743652, 4201.025391, 4200.512695, 4210.769043, 4209.230469, 4232.820313, 4208.205078, 4197.948730, 4205.127930, 4203.589844, 0.000000, 8208.000000, 8182.000000, 0.000000, 0.000000, 0.000000, -20994.000000, 633.846130, 4.000000, 4.000000, 4.000000, 4.000000, 4.000000, 4.000000, 4.000000, 4.000000, 4.000000, 4.000000, 4.000000, 4.000000, 4.000000, 4.000000, 4.000000, 4.000000
20.000000, 0.000000, 4192.307617, 4214.871582, 4201.538574, 4198.974121, 4200.512695, 4195.384277, 4199.487305, 4213.333008, 4207.179199, 4232.820313, 4210.769043, 4191.281738, 4208.205078, 4206.153809, 0.000000, 8208.000000, 8182.000000, 0.000000, 0.000000, 0.000000, -20994.000000, 642.051270, 4.000000, 4.000000, 4.000000, 4.000000, 4.000000, 4.000000, 4.000000, 4.000000, 4.000000, 4.000000, 4.000000, 4.000000, 4.000000, 4.000000, 4.000000, 4.000000
21.000000, 0.000000, 4201.025391, 4216.410156, 4201.538574, 4202.563965, 4206.666504, 4197.436035, 4195.897461, 4212.820313, 4213.333008, 4231.281738, 4209.743652, 4188.205078, 4215.384277, 4201.538574, 0.000000, 8198.000000, 8197.000000, 0.000000, 0.000000, 0.000000, -20994.000000, 649.743591, 4.000000, 4.000000, 4.000000, 4.000000, 4.000000, 4.000000, 4.000000, 4.000000, 4.000000, 4.000000, 4.000000, 4.000000, 4.000000, 4.000000, 4.000000, 4.000000
22.000000, 0.000000, 4206.666504, 4217.948730, 4202.051270, 4206.666504, 4218.974121, 4204.615234, 4201.538574, 4213.846191, 4218.461426, 4222.563965, 4207.692383, 4189.743652, 4211.794922, 4200.512695, 0.000000, 8198.000000, 8197.000000, 0.000000, 0.000000, 0.000000, -20994.000000, 657.435852, 4.000000, 4.000000, 4.000000, 4.000000, 4.000000, 4.000000, 4.000000, 4.000000, 4.000000, 4.000000, 4.000000, 4.000000, 4.000000, 4.000000, 4.000000, 4.000000
23.000000, 0.000000, 4199.487305, 4215.384277, 4198.461426, 4203.076660, 4206.666504, 4203.076660, 4203.076660, 4206.666504, 4209.230469, 4212.820313, 4201.538574, 4184.102539, 4201.538574, 4201.538574, 0.000000, 8198.000000, 8202.000000, 0.000000, 0.000000, 0.000000, -20994.000000, 665.640991, 4.000000, 4.000000, 4.000000, 4.000000, 4.000000, 4.000000, 4.000000, 4.000000, 4.000000, 4.000000, 4.000000, 4.000000, 4.000000, 4.000000, 4.000000, 4.000000
24.000000, 0.000000, 4192.307617, 4209.230469, 4193.846191, 4196.922852, 4188.717773, 4194.358887, 4188.205078, 4192.820313, 4198.974121, 4200.000000, 4190.769043, 4177.436035, 4194.871582, 4195.384277, 0.000000, 8198.000000, 8202.000000, 0.000000, 0.000000, 0.000000, -20994.000000, 673.333313, 4.000000, 4.000000, 4.000000, 4.000000, 4.000000, 4.000000, 4.000000, 4.000000, 4.000000, 4.000000, 4.000000, 4.000000, 4.000000, 4.000000, 4.000000, 4.000000
25.000000, 0.000000, 4186.666504, 4204.615234, 4194.358887, 4197.436035, 4201.025391, 4195.897461, 4189.743652, 4194.871582, 4200.000000, 4187.692383, 4184.615234, 4182.563965, 4193.846191, 4198.974121, 0.000000, 8195.000000, 8205.000000, 0.000000, 0.000000, 0.000000, -20994.000000, 681.538452, 4.000000, 4.000000, 4.000000, 4.000000, 4.000000, 4.000000, 4.000000, 4.000000, 4.000000, 4.000000, 4.000000, 4.000000, 4.000000, 4.000000, 4.000000, 4.000000
26.000000, 0.000000, 4191.281738, 4208.205078, 4196.410156, 4200.000000, 4218.461426, 4199.487305, 4198.461426, 4199.487305, 4195.897461, 4185.127930, 4183.589844, 4183.589844, 4190.256348, 4201.538574, 0.000000, 8195.000000, 8205.000000, 0.000000, 0.000000, 0.000000, -20994.000000, 689.230774, 4.000000, 4.000000, 4.000000, 4.000000, 4.000000, 4.000000, 4.000000, 4.000000, 4.000000, 4.000000, 4.000000, 4.000000, 4.000000, 4.000000, 4.000000, 4.000000
27.000000, 0.000000, 4194.358887, 4213.333008, 4198.461426, 4198.461426, 4209.743652, 4190.256348, 4187.179199, 4188.717773, 4185.641113, 4190.769043, 4184.102539, 4178.974121, 4187.692383, 4201.538574, 0.000000, 8195.000000, 8215.000000, 0.000000, 0.000000, 0.000000, -20994.000000, 696.923035, 4.000000, 4.000000, 4.000000, 4.000000, 4.000000, 4.000000, 4.000000, 4.000000, 4.000000, 4.000000, 4.000000, 4.000000, 4.000000, 4.000000, 4.000000, 4.000000
28.000000, 0.000000, 4195.897461, 4212.820313, 4208.205078, 4200.000000, 4203.589844, 4187.692383, 4189.230469, 4182.051270, 4183.076660, 4195.384277, 4187.179199, 4181.025391, 4193.846191, 4203.589844, 0.000000, 8195.000000, 8215.000000, 0.000000, 0.000000, 0.000000, -20994.000000, 705.128174, 4.000000, 4.000000, 4.000000, 4.000000, 4.000000, 4.000000, 4.000000, 4.000000, 4.000000, 4.000000, 4.000000, 4.000000, 4.000000, 4.000000, 4.000000, 4.000000
29.000000, 0.000000, 4202.563965, 4208.205078, 4218.461426, 4202.563965, 4205.641113, 4192.307617, 4202.051270, 4190.769043, 4185.127930, 4193.333008, 4190.256348, 4185.641113, 4200.512695, 4201.538574, 0.000000, 8193.000000, 8225.000000, 0.000000, 0.000000, 0.000000, -20994.000000, 712.820496, 4.000000, 4.000000, 4.000000, 4.000000, 4.000000, 4.000000, 4.000000, 4.000000, 4.000000, 4.000000, 4.000000, 4.000000, 4.000000, 4.000000, 4.000000, 4.000000
30.000000, 0.000000, 4196.922852, 4199.487305, 4213.846191, 4199.487305, 4186.666504, 4183.589844, 4188.205078, 4186.153809, 4181.538574, 4185.127930, 4187.179199, 4190.769043, 4192.307617, 4204.102539, 0.000000, 8193.000000, 8225.000000, 0.000000, 0.000000, 0.000000, -20994.000000, 721.025635, 4.000000, 4.000000, 4.000000, 4.000000, 4.000000, 4.000000, 4.000000, 4.000000, 4.000000, 4.000000, 4.000000, 4.000000, 4.000000, 4.000000, 4.000000, 4.000000
31.000000, 0.000000, 4192.307617, 4196.410156, 4204.615234, 4195.384277, 4176.922852, 4176.922852, 4185.127930, 4175.897461, 4177.948730, 4184.615234, 4182.051270, 4193.846191, 4183.589844, 4204.615234, 0.000000, 8192.000000, 8234.000000, 0.000000, 0.000000, 0.000000, -20994.000000, 728.717957, 4.000000, 4.000000, 4.000000, 4.000000, 4.000000, 4.000000, 4.000000, 4.000000, 4.000000, 4.000000, 4.000000, 4.000000, 4.000000, 4.000000, 4.000000, 4.000000
32.000000, 0.000000, 4194.358887, 4197.948730, 4207.692383, 4196.922852, 4200.512695, 4186.666504, 4200.512695, 4181.538574, 4182.563965, 4193.333008, 4186.666504, 4191.794922, 4192.820313, 4204.615234, 0.000000, 8192.000000, 8234.000000, 0.000000, 0.000000, 0.000000, -20994.000000, 736.410217, 4.000000, 4.000000, 4.000000, 4.000000, 4.000000, 4.000000, 4.000000, 4.000000, 4.000000, 4.000000, 4.000000, 4.000000, 4.000000, 4.000000, 4.000000, 4.000000
33.000000, 0.000000, 4199.487305, 4203.076660, 4217.436035, 4201.025391, 4212.820313, 4189.230469, 4192.820313, 4185.641113, 4192.307617, 4198.461426, 4200.512695, 4192.307617, 4207.179199, 4207.179199, 0.000000, 8192.000000, 8239.000000, 0.000000, 0.000000, 0.000000, -20994.000000, 744.102539, 4.000000, 4.000000, 4.000000, 4.000000, 4.000000, 4.000000, 4.000000, 4.000000, 4.000000, 4.000000, 4.000000, 4.000000, 4.000000, 4.000000, 4.000000, 4.000000
34.000000, 0.000000, 4204.615234, 4207.179199, 4218.974121, 4200.000000, 4203.076660, 4184.615234, 4187.179199, 4188.717773, 4201.538574, 4206.666504, 4212.307617, 4202.051270, 4215.897461, 4204.615234, 0.000000, 8192.000000, 8239.000000, 0.000000, 0.000000, 0.000000, -20994.000000, 752.307678, 4.000000, 4.000000, 4.000000, 4.000000, 4.000000, 4.000000, 4.000000, 4.000000, 4.000000, 4.000000, 4.000000, 4.000000, 4.000000, 4.000000, 4.000000, 4.000000
35.000000, 0.000000, 4202.051270, 4207.692383, 4216.410156, 4198.974121, 4208.205078, 4192.820313, 4203.076660, 4198.461426, 4208.205078, 4220.000000, 4217.436035, 4207.692383, 4220.000000, 4204.615234, 0.000000, 8191.000000, 8243.000000, 0.000000, 0.000000, 0.000000, -20994.000000, 760.000000, 4.000000, 4.000000, 4.000000, 4.000000, 4.000000, 4.000000, 4.000000, 4.000000, 4.000000, 4.000000, 4.000000, 4.000000, 4.000000, 4.000000, 4.000000, 4.000000
36.000000, 0.000000, 4204.615234, 4206.666504, 4215.897461, 4202.563965, 4208.205078, 4202.051270, 4204.102539, 4201.025391, 4207.179199, 4222.051270, 4216.922852, 4202.051270, 4219.487305, 4203.589844, 0.000000, 8191.000000, 8243.000000, 0.000000, 0.000000, 0.000000, -20994.000000, 768.205139, 4.000000, 4.000000, 4.000000, 4.000000, 4.000000, 4.000000, 4.000000, 4.000000, 4.000000, 4.000000, 4.000000, 4.000000, 4.000000, 4.000000, 4.000000, 4.000000
37.000000, 0.000000, 4201.538574, 4200.512695, 4207.692383, 4202.051270, 4188.717773, 4197.436035, 4195.384277, 4201.538574, 4204.615234, 4217.436035, 4210.769043, 4194.871582, 4217.436035, 4202.563965, 0.000000, 8187.000000, 8243.000000, 0.000000, 0.000000, 0.000000, -20994.000000, 775.897400, 4.000000, 4.000000, 4.000000, 4.000000, 4.000000, 4.000000, 4.000000, 4.000000, 4.000000, 4.000000, 4.000000, 4.000000, 4.000000, 4.000000, 4.000000, 4.000000
38.000000, 0.000000, 4193.333008, 4200.512695, 4198.974121, 4196.410156, 4194.358887, 4193.846191, 4198.974121, 4202.563965, 4206.153809, 4215.384277, 4203.589844, 4187.692383, 4215.897461, 4204.615234, 0.000000, 8187.000000, 8243.000000, 0.000000, 0.000000, 0.000000, -20994.000000, 783.589722, 4.000000, 4.000000, 4.000000, 4.000000, 4.000000, 4.000000, 4.000000, 4.000000, 4.000000, 4.000000, 4.000000, 4.000000, 4.000000, 4.000000, 4.000000, 4.000000
39.000000, 0.000000, 4198.461426, 4209.230469, 4201.025391, 4197.436035, 4218.974121, 4200.512695, 4199.487305, 4196.410156, 4204.102539, 4212.820313, 4198.461426, 4178.461426, 4214.358887, 4200.512695, 0.000000, 8188.000000, 8238.000000, 0.000000, 0.000000, 0.000000, -20994.000000, 791.794861, 4.000000, 4.000000, 4.000000, 4.000000, 4.000000, 4.000000, 4.000000, 4.000000, 4.000000, 4.000000, 4.000000, 4.000000, 4.000000, 4.000000, 4.000000, 4.000000
40.000000, 0.000000, 4198.461426, 4209.230469, 4198.974121, 4201.538574, 4221.025391, 4202.051270, 4199.487305, 4196.410156, 4201.025391, 4210.256348, 4195.384277, 4171.794922, 4213.846191, 4200.000000, 0.000000, 8188.000000, 8238.000000, 0.000000, 0.000000, 0.000000, -20994.000000, 799.487183, 4.000000, 4.000000, 4.000000, 4.000000, 4.000000, 4.000000, 4.000000, 4.000000, 4.000000, 4.000000, 4.000000, 4.000000, 4.000000, 4.000000, 4.000000, 4.000000
41.000000, 0.000000, 4194.871582, 4205.127930, 4191.794922, 4196.410156, 4207.179199, 4200.512695, 4202.563965, 4200.000000, 4201.538574, 4211.794922, 4193.333008, 4168.205078, 4209.230469, 4203.076660, 0.000000, 8185.000000, 8236.000000, 0.000000, 0.000000, 0.000000, -20994.000000, 807.692261, 4.000000, 4.000000, 4.000000, 4.000000, 4.000000, 4.000000, 4.000000, 4.000000, 4.000000, 4.000000, 4.000000, 4.000000, 4.000000, 4.000000, 4.000000, 4.000000
42.000000, 0.000000, 4192.307617, 4205.641113, 4192.307617, 4190.256348, 4211.281738, 4202.051270, 4201.025391, 4194.871582, 4205.127930, 4215.384277, 4196.922852, 4168.717773, 4205.641113, 4203.589844, 0.000000, 8185.000000, 8236.000000, 0.000000, 0.000000, 0.000000, -20994.000000, 815.384583, 4.000000, 4.000000, 4.000000, 4.000000, 4.000000, 4.000000, 4.000000, 4.000000, 4.000000, 4.000000, 4.000000, 4.000000, 4.000000, 4.000000, 4.000000, 4.000000
43.000000, 0.000000, 4187.692383, 4206.666504, 4193.846191, 4195.897461, 4214.871582, 4199.487305, 4195.897461, 4190.769043, 4203.589844, 4215.897461, 4199.487305, 4173.333008, 4211.281738, 4206.153809, 0.000000, 8183.000000, 8225.000000, 0.000000, 0.000000, 0.000000, -20994.000000, 823.076904, 4.000000, 4.000000, 4.000000, 4.000000, 4.000000, 4.000000, 4.000000, 4.000000, 4.000000, 4.000000, 4.000000, 4.000000, 4.000000, 4.000000, 4.000000, 4.000000
44.000000, 0.000000, 4190.769043, 4209.230469, 4194.871582, 4203.589844, 4203.076660, 4196.922852, 4190.769043, 4191.281738, 4196.410156, 4216.922852, 4201.538574, 4176.922852, 4215.384277, 4201.538574, 0.000000, 8183.000000, 8225.000000, 0.000000, 0.000000, 0.000000, -20994.000000, 831.282043, 4.000000, 4.000000, 4.000000, 4.000000, 4.000000, 4.000000, 4.000000, 4.000000, 4.000000, 4.000000, 4.000000, 4.000000, 4.000000, 4.000000, 4.000000, 4.000000
45.000000, 0.000000, 4189.743652, 4209.230469, 4196.922852, 4202.563965, 4209.230469, 4203.589844, 4195.384277, 4192.307617, 4194.871582, 4215.384277, 4200.000000, 4176.922852, 4208.717773, 4202.051270, 0.000000, 8177.000000, 8200.000000, 0.000000, 0.000000, 0.000000, -20994.000000, 838.974365, 4.000000, 4.000000, 4.000000, 4.000000, 4.000000, 4.000000, 4.000000, 4.000000, 4.000000, 4.000000, 4.000000, 4.000000, 4.000000, 4.000000, 4.000000, 4.000000
46.000000, 0.000000, 4186.153809, 4208.205078, 4196.410156, 4198.974121, 4231.281738, 4212.820313, 4201.538574, 4195.384277, 4196.922852, 4210.256348, 4187.692383, 4170.256348, 4191.281738, 4205.127930, 0.000000, 8177.000000, 8200.000000, 0.000000, 0.000000, 0.000000, -20994.000000, 846.666626, 4.000000, 4.000000, 4.000000, 4.000000, 4.000000, 4.000000, 4.000000, 4.000000, 4.000000, 4.000000, 4.000000, 4.000000, 4.000000, 4.000000, 4.000000, 4.000000
47.000000, 0.000000, 4185.127930, 4218.461426, 4197.436035, 4199.487305, 4230.769043, 4217.948730, 4202.563965, 4201.538574, 4202.051270, 4212.820313, 4181.538574, 4166.666504, 4183.589844, 4201.538574, 0.000000, 8175.000000, 8193.000000, 0.000000, 0.000000, 0.000000, -20994.000000, 854.871765, 4.000000, 4.000000, 4.000000, 4.000000, 4.000000, 4.000000, 4.000000, 4.000000, 4.000000, 4.000000, 4.000000, 4.000000, 4.000000, 4.000000, 4.000000, 4.000000
48.000000, 0.000000, 4180.000000, 4228.717773, 4193.333008, 4197.948730, 4212.307617, 4214.358887, 4207.692383, 4208.205078, 4208.717773, 4220.512695, 4186.666504, 4172.820313, 4186.666504, 4200.512695, 0.000000, 8175.000000, 8193.000000, 0.000000, 0.000000, 0.000000, -20994.000000, 862.564087, 4.000000, 4.000000, 4.000000, 4.000000, 4.000000, 4.000000, 4.000000, 4.000000, 4.000000, 4.000000, 4.000000, 4.000000, 4.000000, 4.000000, 4.000000, 4.000000
49.000000, 0.000000, 4182.051270, 4229.230469, 4188.205078, 4196.922852, 4209.230469, 4206.666504, 4213.846191, 4214.358887, 4215.384277, 4231.281738, 4194.358887, 4178.974121, 4192.820313, 4202.563965, 0.000000, 8171.000000, 8181.000000, 0.000000, 0.000000, 0.000000, -20994.000000, 870.769226, 4.000000, 4.000000, 4.000000, 4.000000, 4.000000, 4.000000, 4.000000, 4.000000, 4.000000, 4.000000, 4.000000, 4.000000, 4.000000, 4.000000, 4.000000, 4.000000
50.000000, 0.000000, 4185.641113, 4237.436035, 4192.820313, 4201.538574, 4218.974121, 4209.743652, 4217.436035, 4218.461426, 4220.000000, 4246.153809, 4206.153809, 4182.051270, 4207.692383, 4209.743652, 0.000000, 8171.000000, 8181.000000, 0.000000, 0.000000, 0.000000, -20994.000000, 878.461487, 4.000000, 4.000000, 4.000000, 4.000000, 4.000000, 4.000000, 4.000000, 4.000000, 4.000000, 4.000000, 4.000000, 4.000000, 4.000000, 4.000000, 4.000000, 4.000000
51.000000, 0.000000, 4193.333008, 4253.846191, 4204.102539, 4206.153809, 4222.051270, 4216.410156, 4214.358887, 4217.436035, 4217.436035, 4252.820313, 4213.333008, 4186.153809, 4223.076660, 4209.743652, 0.000000, 8182.000000, 8154.000000, 0.000000, 0.000000, 0.000000, -20994.000000, 886.153809, 4.000000, 4.000000, 4.000000, 4.000000, 4.000000, 4.000000, 4.000000, 4.000000, 4.000000, 4.000000, 4.000000, 4.000000, 4.000000, 4.000000, 4.000000, 4.000000
52.000000, 0.000000, 4195.384277, 4259.487305, 4207.692383, 4206.666504, 4206.666504, 4208.205078, 4201.538574, 4210.256348, 4208.717773, 4248.717773, 4206.666504, 4187.692383, 4218.461426, 4202.563965, 0.000000, 8182.000000, 8154.000000, 0.000000, 0.000000, 0.000000, -20994.000000, 893.846130, 4.000000, 4.000000, 4.000000, 4.000000, 4.000000, 4.000000, 4.000000, 4.000000, 4.000000, 4.000000, 4.000000, 4.000000, 4.000000, 4.000000, 4.000000, 4.000000
53.000000, 0.000000, 4187.692383, 4258.974121, 4205.641113, 4201.538574, 4193.333008, 4195.897461, 4192.820313, 4197.436035, 4200.000000, 4246.153809, 4200.512695, 4188.717773, 4206.153809, 4204.615234, 0.000000, 8187.000000, 8138.000000, 0.000000, 0.000000, 0.000000, -20994.000000, 902.051270, 4.000000, 4.000000, 4.000000, 4.000000, 4.000000, 4.000000, 4.000000, 4.000000, 4.000000, 4.000000, 4.000000, 4.000000, 4.000000, 4.000000, 4.000000, 4.000000
54.000000, 0.000000, 4194.871582, 4261.538574, 4209.743652, 4201.025391, 4211.794922, 4200.000000, 4200.000000, 4197.436035, 4200.512695, 4254.871582, 4209.743652, 4197.436035, 4214.871582, 4205.641113, 0.000000, 8187.000000, 8138.000000, 0.000000, 0.000000, 0.000000, -20994.000000, 909.743591, 4.000000, 4.000000, 4.000000, 4.000000, 4.000000, 4.000000, 4.000000, 4.000000, 4.000000, 4.000000, 4.000000, 4.000000, 4.000000, 4.000000, 4.000000, 4.000000
55.000000, 0.000000, 4201.538574, 4262.563965, 4216.410156, 4211.281738, 4227.692383, 4204.102539, 4204.615234, 4205.641113, 4208.205078, 4266.153809, 4218.974121, 4205.127930, 4224.615234, 4207.692383, 0.000000, 8205.000000, 8114.000000, 0.000000, 0.000000, 0.000000, -20994.000000, 917.948669, 4.000000, 4.000000, 4.000000, 4.000000, 4.000000, 4.000000, 4.000000, 4.000000, 4.000000, 4.000000, 4.000000, 4.000000, 4.000000, 4.000000, 4.000000, 4.000000
56.000000, 0.000000, 4201.025391, 4262.051270, 4218.974121, 4215.384277, 4216.922852, 4198.974121, 4196.922852, 4203.076660, 4210.256348, 4260.512695, 4215.897461, 4204.102539, 4218.461426, 4209.230469, 0.000000, 8205.000000, 8114.000000, 0.000000, 0.000000, 0.000000, -20994.000000, 925.640991, 4.000000, 4.000000, 4.000000, 4.000000, 4.000000, 4.000000, 4.000000, 4.000000, 4.000000, 4.000000, 4.000000, 4.000000, 4.000000, 4.000000, 4.000000, 4.000000
57.000000, 0.000000, 4196.410156, 4256.922852, 4210.256348, 4205.127930, 4211.281738, 4197.948730, 4195.897461, 4198.461426, 4204.102539, 4249.743652, 4207.179199, 4197.436035, 4214.871582, 4203.589844, 0.000000, 8216.000000, 8100.000000, 0.000000, 0.000000, 0.000000, -20994.000000, 933.333313, 4.000000, 4.000000, 4.000000, 4.000000, 4.000000, 4.000000, 4.000000, 4.000000, 4.000000, 4.000000, 4.000000, 4.000000, 4.000000, 4.000000, 4.000000, 4.000000
58.000000, 0.000000, 4190.256348, 4251.794922, 4200.000000, 4199.487305, 4221.025391, 4201.025391, 4201.025391, 4200.512695, 4200.000000, 4259.487305, 4203.589844, 4190.256348, 4216.410156, 4204.102539, 0.000000, 8216.000000, 8100.000000, 0.000000, 0.000000, 0.000000, -20994.000000, 941.025635, 4.000000, 4.000000, 4.000000, 4.000000, 4.000000, 4.000000, 4.000000, 4.000000, 4.000000, 4.000000, 4.000000, 4.000000, 4.000000, 4.000000, 4.000000, 4.000000
59.000000, 0.000000, 4196.922852, 4249.743652, 4203.076660, 4204.615234, 4218.461426, 4202.051270, 4197.436035, 4204.615234, 4203.589844, 4272.307617, 4206.666504, 4190.256348, 4217.436035, 4207.692383, 0.000000, 8219.000000, 8095.000000, 0.000000, 0.000000, 0.000000, -20994.000000, 949.230774, 4.000000, 4.000000, 4.000000, 4.000000, 4.000000, 4.000000, 4.000000, 4.000000, 4.000000, 4.000000, 4.000000, 4.000000, 4.000000, 4.000000, 4.000000, 4.000000
60.000000, 0.000000, 4197.436035, 4248.717773, 4205.127930, 4204.102539, 4200.512695, 4200.512695, 4189.743652, 4201.538574, 4206.666504, 4268.717773, 4207.179199, 4191.794922, 4220.000000, 4207.179199, 0.000000, 8219.000000, 8095.000000, 0.000000, 0.000000, 0.000000, -20994.000000, 956.923035, 4.000000, 4.000000, 4.000000, 4.000000, 4.000000, 4.000000, 4.000000, 4.000000, 4.000000, 4.000000, 4.000000, 4.000000, 4.000000, 4.000000, 4.000000, 4.000000
61.000000, 0.000000, 4192.820313, 4250.256348, 4203.076660, 4200.512695, 4199.487305, 4198.461426, 4190.256348, 4200.000000, 4208.717773, 4266.153809, 4206.153809, 4186.666504, 4221.025391, 4203.589844, 0.000000, 8221.000000, 8093.000000, 0.000000, 0.000000, 0.000000, -20994.000000, 964.615356, 4.000000, 4.000000, 4.000000, 4.000000, 4.000000, 4.000000, 4.000000, 4.000000, 4.000000, 4.000000, 4.000000, 4.000000, 4.000000, 4.000000, 4.000000, 4.000000
62.000000, 0.000000, 4200.000000, 4249.230469, 4202.563965, 4200.512695, 4218.974121, 4199.487305, 4199.487305, 4205.641113, 4211.794922, 4269.230469, 4206.666504, 4181.025391, 4219.487305, 4200.000000, 0.000000, 8221.000000, 8093.000000, 0.000000, 0.000000, 0.000000, -20994.000000, 972.820496, 4.000000, 4.000000, 4.000000, 4.000000, 4.000000, 4.000000, 4.000000, 4.000000, 4.000000, 4.000000, 4.000000, 4.000000, 4.000000, 4.000000, 4.000000, 4.000000
63.000000, 0.000000, 4196.922852, 4243.076660, 4195.897461, 4200.512695, 4224.615234, 4203.589844, 4204.615234, 4206.153809, 4207.692383, 4263.589844, 4203.076660, 4180.512695, 4218.974121, 4203.589844, 0.000000, 8222.000000, 8098.000000, 0.000000, 0.000000, 0.000000, -20994.000000, 980.512817, 4.000000, 4.000000, 4.000000, 4.000000, 4.000000, 4.000000, 4.000000, 4.000000, 4.000000, 4.000000, 4.000000, 4.000000, 4.000000, 4.000000, 4.000000, 4.000000
64.000000, 0.000000, 4194.358887, 4242.563965, 4191.794922, 4201.025391, 4213.333008, 4204.102539, 4197.436035, 4201.538574, 4203.589844, 4252.820313, 4197.436035, 4178.974121, 4217.948730, 4203.589844, 3354.000000, 8222.000000, 8098.000000, 0.000000, 0.000000, 0.000000, -20994.000000, 988.205078, 4.000000, 4.000000, 4.000000, 4.000000, 4.000000, 4.000000, 4.000000, 4.000000, 4.000000, 4.000000, 4.000000, 4.000000, 4.000000, 4.000000, 4.000000, 4.000000
65.000000, 0.000000, 4197.948730, 4244.615234, 4200.512695, 4204.615234, 4218.974121, 4197.948730, 4187.692383, 4196.922852, 4205.641113, 4247.692383, 4197.948730, 4181.538574, 4216.922852, 4204.102539, 3508.000000, 8200.000000, 8113.000000, 0.000000, 0.000000, 0.000000, -20994.000000, 996.410217, 4.000000, 4.000000, 4.000000, 4.000000, 4.000000, 4.000000, 4.000000, 4.000000, 4.000000, 4.000000, 4.000000, 4.000000, 4.000000, 4.000000, 4.000000, 4.000000
66.000000, 0.000000, 4201.538574, 4244.615234, 4209.743652, 4212.307617, 4233.846191, 4201.025391, 4192.820313, 4197.436035, 4205.127930, 4246.153809, 4208.205078, 4192.307617, 4223.589844, 4210.256348, 2520.000000, 8200.000000, 8113.000000, 0.000000, 0.000000, 0.000000, -20993.000000, 4.102564, 4.000000, 4.000000, 4.000000, 4.000000, 4.000000, 4.000000, 4.000000, 4.000000, 4.000000, 4.000000, 4.000000, 4.000000, 4.000000, 4.000000, 4.000000, 4.000000
67.000000, 0.000000, 4208.205078, 4242.051270, 4212.820313, 4216.410156, 4220.512695, 4213.333008, 4202.563965, 4199.487305, 4201.538574, 4245.641113, 4216.410156, 4198.461426, 4227.692383, 4208.205078, 2139.000000, 8188.000000, 8134.000000, 0.000000, 0.000000, 0.000000, -20993.000000, 12.307692, 4.000000, 4.000000, 4.000000, 4.000000, 4.000000, 4.000000, 4.000000, 4.000000, 4.000000, 4.000000, 4.000000, 4.000000, 4.000000, 4.000000, 4.000000, 4.000000
68.000000, 0.000000, 4205.641113, 4238.461426, 4210.769043, 4208.717773, 4199.487305, 4214.358887, 4202.563965, 4196.922852, 4202.563965, 4240.512695, 4212.307617, 4197.948730, 4224.615234, 4207.692383, 3531.000000, 8188.000000, 8134.000000, 0.000000, 0.000000, 0.000000, -20993.000000, 20.000000, 4.000000, 4.000000, 4.000000, 4.000000, 4.000000, 4.000000, 4.000000, 4.000000, 4.000000, 4.000000, 4.000000, 4.000000, 4.000000, 4.000000, 4.000000, 4.000000
69.000000, 0.000000, 4202.563965, 4233.846191, 4202.563965, 4198.461426, 4205.641113, 4204.615234, 4198.461426, 4186.666504, 4197.436035, 4227.179199, 4201.538574, 4193.333008, 4215.897461, 4206.153809, 3539.000000, 8159.000000, 8159.000000, 0.000000, 0.000000, 0.000000, -20993.000000, 28.205128, 4.000000, 4.000000, 4.000000, 4.000000, 4.000000, 4.000000, 4.000000, 4.000000, 4.000000, 4.000000, 4.000000, 4.000000, 4.000000, 4.000000, 4.000000, 4.000000
70.000000, 0.000000, 4201.538574, 4228.205078, 4195.897461, 4196.922852, 4220.000000, 4201.538574, 4195.897461, 4180.000000, 4185.641113, 4215.897461, 4198.974121, 4188.717773, 4207.179199, 4204.102539, 3124.000000, 8159.000000, 8159.000000, 0.000000, 0.000000, 0.000000, -20993.000000, 35.897434, 4.000000, 4.000000, 4.000000, 4.000000, 4.000000, 4.000000, 4.000000, 4.000000, 4.000000, 4.000000, 4.000000, 4.000000, 4.000000, 4.000000, 4.000000, 4.000000
71.000000, 0.000000, 4202.563965, 4227.692383, 4197.948730, 4202.051270, 4219.487305, 4204.102539, 4196.922852, 4187.692383, 4189.230469, 4212.307617, 4201.025391, 4184.615234, 4208.205078, 4206.153809, 3510.000000, 8149.000000, 8170.000000, 0.000000, 0.000000, 0.000000, -20993.000000, 43.589741, 4.000000, 4.000000, 4.000000, 4.000000, 4.000000, 4.000000, 4.000000, 4.000000, 4.000000, 4.000000, 4.000000, 4.000000, 4.000000, 4.000000, 4.000000, 4.000000
72.000000, 0.000000, 4207.692383, 4230.256348, 4201.538574, 4204.102539, 4216.922852, 4203.589844, 4197.436035, 4196.410156, 4199.487305, 4210.769043, 4200.000000, 4185.127930, 4214.358887, 4203.589844, 3516.000000, 8149.000000, 8170.000000, 0.000000, 0.000000, 0.000000, -20993.000000, 51.282051, 4.000000, 4.000000, 4.000000, 4.000000, 4.000000, 4.000000, 4.000000, 4.000000, 4.000000, 4.000000, 4.000000, 4.000000, 4.000000, 4.000000, 4.000000, 4.000000
73.000000, 0.000000, 4202.051270, 4227.692383, 4201.538574, 4200.000000, 4213.333008, 4204.615234, 4194.871582, 4196.922852, 4200.512695, 4204.615234, 4201.538574, 4187.179199, 4215.384277, 4207.179199, 3532.000000, 8139.000000, 8182.000000, 0.000000, 0.000000, 0.000000, -20993.000000, 59.487179, 4.000000, 4.000000, 4.000000, 4.000000, 4.000000, 4.000000, 4.000000, 4.000000, 4.000000, 4.000000, 4.000000, 4.000000, 4.000000, 4.000000, 4.000000, 4.000000
74.000000, 0.000000, 4196.922852, 4220.000000, 4198.461426, 4198.461426, 4208.717773, 4199.487305, 4191.281738, 4188.717773, 4194.358887, 4195.384277, 4202.051270, 4183.589844, 4209.230469, 4208.717773, 3537.000000, 8139.000000, 8182.000000, 0.000000, 0.000000, 0.000000, -20993.000000, 67.179489, 4.000000, 4.000000, 4.000000, 4.000000, 4.000000, 4.000000, 4.000000, 4.000000, 4.000000, 4.000000, 4.000000, 4.000000, 4.000000, 4.000000, 4.000000, 4.000000
75.000000, 0.000000, 4197.436035, 4213.846191, 4193.846191, 4198.974121, 4203.589844, 4187.179199, 4190.769043, 4182.563965, 4188.205078, 4193.846191, 4199.487305, 4184.615234, 4206.153809, 4201.538574, 551.000000, 8134.000000, 8205.000000, 0.000000, 0.000000, 0.000000, -20993.000000, 75.384613, 4.000000, 4.000000, 4.000000, 4.000000, 4.000000, 4.000000, 4.000000, 4.000000, 4.000000, 4.000000, 4.000000, 4.000000, 4.000000, 4.000000, 4.000000, 4.000000
76.000000, 0.000000, 4197.436035, 4215.384277, 4195.897461, 4200.000000, 4192.820313, 4189.743652, 4195.897461, 4185.127930, 4184.615234, 4197.948730, 4197.948730, 4188.717773, 4203.076660, 4203.076660, 3474.000000, 8134.000000, 8205.000000, 0.000000, 0.000000, 0.000000, -20993.000000, 83.076920, 4.000000, 4.000000, 4.000000, 4.000000, 4.000000, 4.000000, 4.000000, 4.000000, 4.000000, 4.000000, 4.000000, 4.000000, 4.000000, 4.000000, 4.000000, 4.000000
77.000000, 0.000000, 4201.025391, 4220.000000, 4202.563965, 4203.076660, 4194.871582, 4196.410156, 4197.436035, 4182.563965, 4179.487305, 4194.358887, 4195.897461, 4186.666504, 4196.922852, 4204.615234, 3403.000000, 8131.000000, 8219.000000, 0.000000, 0.000000, 0.000000, -20993.000000, 90.769226, 4.000000, 4.000000, 4.000000, 4.000000, 4.000000, 4.000000, 4.000000, 4.000000, 4.000000, 4.000000, 4.000000, 4.000000, 4.000000, 4.000000, 4.000000, 4.000000
78.000000, 0.000000, 4196.410156, 4213.846191, 4203.076660, 4204.102539, 4207.179199, 4190.256348, 4192.307617, 4175.897461, 4178.461426, 4184.615234, 4191.794922, 4184.615234, 4196.410156, 4204.615234, 3537.000000, 8131.000000, 8219.000000, 0.000000, 0.000000, 0.000000, -20993.000000, 98.974358, 4.000000, 4.000000, 4.000000, 4.000000, 4.000000, 4.000000, 4.000000, 4.000000, 4.000000, 4.000000, 4.000000, 4.000000, 4.000000, 4.000000, 4.000000, 4.000000
79.000000, 0.000000, 4191.794922, 4206.666504, 4195.897461, 4197.948730, 4202.563965, 4183.076660, 4184.615234, 4176.410156, 4180.512695, 4176.410156, 4187.692383, 4185.127930, 4193.846191, 4204.102539, 551.000000, 8141.000000, 8233.000000, 0.000000, 0.000000, 0.000000, -20993.000000, 106.666664, 4.000000, 4.000000, 4.000000, 4.000000, 4.000000, 4.000000, 4.000000, 4.000000, 4.000000, 4.000000, 4.000000, 4.000000, 4.000000, 4.000000, 4.000000, 4.000000
80.000000, 0.000000, 4193.333008, 4207.179199, 4189.743652, 4191.794922, 4196.410156, 4186.666504, 4181.538574, 4180.512695, 4182.051270, 4175.384277, 4189.743652, 4183.589844, 4189.743652, 4203.076660, 3474.000000, 8141.000000, 8233.000000, 0.000000, 0.000000, 0.000000, -20993.000000, 114.871796, 4.000000, 4.000000, 4.000000, 4.000000, 4.000000, 4.000000, 4.000000, 4.000000, 4.000000, 4.000000, 4.000000, 4.000000, 4.000000, 4.000000, 4.000000, 4.000000
81.000000, 0.000000, 4191.794922, 4207.179199, 4192.820313, 4197.436035, 4209.743652, 4194.358887, 4191.281738, 4181.538574, 4187.179199, 4180.512695, 4195.384277, 4185.127930, 4192.820313, 4207.179199, 3403.000000, 8148.000000, 8231.000000, 0.000000, 0.000000, 0.000000, -20993.000000, 122.564102, 4.000000, 4.000000, 4.000000, 4.000000, 4.000000, 4.000000, 4.000000, 4.000000, 4.000000, 4.000000, 4.000000, 4.000000, 4.000000, 4.000000, 4.000000, 4.000000
82.000000, 0.000000, 4200.000000, 4210.256348, 4202.051270, 4210.769043, 4226.153809, 4202.563965, 4200.512695, 4187.692383, 4203.589844, 4189.743652, 4200.512695, 4188.717773, 4202.563965, 4205.641113, 3537.000000, 8148.000000, 8231.000000, 0.000000, 0.000000, 0.000000, -20993.000000, 130.256409, 4.000000, 4.000000, 4.000000, 4.000000, 4.000000, 4.000000, 4.000000, 4.000000, 4.000000, 4.000000, 4.000000, 4.000000, 4.000000, 4.000000, 4.000000, 4.000000
83.000000, 0.000000, 4200.000000, 4212.820313, 4202.051270, 4217.436035, 4217.436035, 4205.641113, 4193.846191, 4196.922852, 4209.230469, 4190.256348, 4203.076660, 4188.717773, 4206.666504, 4204.615234, 551.000000, 8154.000000, 8228.000000, 0.000000, 0.000000, 0.000000, -20993.000000, 138.461533, 4.000000, 4.000000, 4.000000, 4.000000, 4.000000, 4.000000, 4.000000, 4.000000, 4.000000, 4.000000, 4.000000, 4.000000, 4.000000, 4.000000, 4.000000, 4.000000
84.000000, 0.000000, 4193.846191, 4207.179199, 4198.461426, 4213.846191, 4197.948730, 4200.512695, 4189.230469, 4196.922852, 4196.922852, 4182.563965, 4203.589844, 4189.743652, 4205.641113, 4204.615234, 3474.000000, 8154.000000, 8228.000000, 0.000000, 0.000000, 0.000000, -20993.000000, 146.153839, 4.000000, 4.000000, 4.000000, 4.000000, 4.000000, 4.000000, 4.000000, 4.000000, 4.000000, 4.000000, 4.000000, 4.000000, 4.000000, 4.000000, 4.000000, 4.000000
85.000000, 0.000000, 4201.025391, 4203.589844, 4206.666504, 4214.358887, 4208.717773, 4203.589844, 4203.589844, 4207.179199, 4207.179199, 4193.846191, 4210.769043, 4197.948730, 4213.333008, 4203.076660, 3403.000000, 8163.000000, 8215.000000, 0.000000, 0.000000, 0.000000, -20993.000000, 154.358963, 4.000000, 4.000000, 4.000000, 4.000000, 4.000000, 4.000000, 4.000000, 4.000000, 4.000000, 4.000000, 4.000000, 4.000000, 4.000000, 4.000000, 4.000000, 4.000000
86.000000, 0.000000, 4205.641113, 4210.256348, 4217.436035, 4220.000000, 4233.333008, 4206.666504, 4209.743652, 4218.461426, 4227.692383, 4216.410156, 4220.000000, 4212.307617, 4220.512695, 4209.230469, 3537.000000, 8163.000000, 8215.000000, 0.000000, 0.000000, 0.000000, -20993.000000, 162.051285, 4.000000, 4.000000, 4.000000, 4.000000, 4.000000, 4.000000, 4.000000, 4.000000, 4.000000, 4.000000, 4.000000, 4.000000, 4.000000, 4.000000, 4.000000, 4.000000
87.000000, 0.000000, 4207.179199, 4214.871582, 4216.922852, 4221.025391, 4225.127930, 4200.512695, 4197.948730, 4210.769043, 4218.461426, 4220.000000, 4218.974121, 4214.358887, 4218.461426, 4209.743652, 551.000000, 8162.000000, 8199.000000, 0.000000, 0.000000, 0.000000, -20993.000000, 169.743591, 4.000000, 4.000000, 4.000000, 4.000000, 4.000000, 4.000000, 4.000000, 4.000000, 4.000000, 4.000000, 4.000000, 4.000000, 4.000000, 4.000000, 4.000000, 4.000000
88.000000, 0.000000, 4203.076660, 4207.692383, 4214.358887, 4216.922852, 4211.794922, 4196.410156, 4198.461426, 4199.487305, 4201.538574, 4214.358887, 4216.922852, 4206.666504, 4218.974121, 4205.641113, 3474.000000, 8162.000000, 8199.000000, 0.000000, 0.000000, 0.000000, -20993.000000, 177.948715, 4.000000, 4.000000, 4.000000, 4.000000, 4.000000, 4.000000, 4.000000, 4.000000, 4.000000, 4.000000, 4.000000, 4.000000, 4.000000, 4.000000, 4.000000, 4.000000
89.000000, 0.000000, 4201.538574, 4205.641113, 4217.436035, 4220.000000, 4214.358887, 4195.897461, 4202.563965, 4200.000000, 4206.666504, 4218.974121, 4225.127930, 4208.717773, 4226.153809, 4204.615234, 3403.000000, 8161.000000, 8164.000000, 0.000000, 0.000000, 0.000000, -20993.000000, 185.641022, 4.000000, 4.000000, 4.000000, 4.000000, 4.000000, 4.000000, 4.000000, 4.000000, 4.000000, 4.000000, 4.000000, 4.000000, 4.000000, 4.000000, 4.000000, 4.000000
90.000000, 0.000000, 4208.717773, 4208.717773, 4220.512695, 4229.743652, 4211.281738, 4195.384277, 4192.307617, 4203.076660, 4219.487305, 4225.127930, 4237.948730, 4221.025391, 4234.871582, 4203.589844, 3537.000000, 8161.000000, 8164.000000, 0.000000, 0.000000, 0.000000, -20993.000000, 193.333328, 4.000000, 4.000000, 4.000000, 4.000000, 4.000000, 4.000000, 4.000000, 4.000000, 4.000000, 4.000000, 4.000000, 4.000000, 4.000000, 4.000000, 4.000000, 4.000000
91.000000, 0.000000, 4206.153809, 4209.230469, 4219.487305, 4229.743652, 4212.820313, 4197.436035, 4188.205078, 4206.153809, 4218.461426, 4225.641113, 4234.871582, 4223.076660, 4234.358887, 4206.666504, 551.000000, 8167.000000, 8151.000000, 0.000000, 0.000000, 0.000000, -20993.000000, 201.538452, 4.000000, 4.000000, 4.000000, 4.000000, 4.000000, 4.000000, 4.000000, 4.000000, 4.000000, 4.000000, 4.000000, 4.000000, 4.000000, 4.000000, 4.000000, 4.000000
92.000000, 0.000000, 4197.948730, 4203.589844, 4215.897461, 4217.436035, 4220.512695, 4201.025391, 4195.897461, 4213.333008, 4214.358887, 4220.000000, 4219.487305, 4208.717773, 4223.589844, 4202.563965, 3474.000000, 8167.000000, 8151.000000, 0.000000, 0.000000, 0.000000, -20993.000000, 209.230759, 4.000000, 4.000000, 4.000000, 4.000000, 4.000000, 4.000000, 4.000000, 4.000000, 4.000000, 4.000000, 4.000000, 4.000000, 4.000000, 4.000000, 4.000000, 4.000000
93.000000, 0.000000, 4192.820313, 4200.000000, 4211.281738, 4212.820313, 4216.410156, 4202.563965, 4206.153809, 4220.000000, 4219.487305, 4216.922852, 4215.897461, 4200.512695, 4216.922852, 4200.000000, 3403.000000, 8180.000000, 8118.000000, 0.000000, 0.000000, 0.000000, -20993.000000, 217.435898, 4.000000, 4.000000, 4.000000, 4.000000, 4.000000, 4.000000, 4.000000, 4.000000, 4.000000, 4.000000, 4.000000, 4.000000, 4.000000, 4.000000, 4.000000, 4.000000
94.000000, 0.000000, 4193.846191, 4201.025391, 4206.153809, 4215.384277, 4208.717773, 4202.051270, 4206.666504, 4218.974121, 4220.512695, 4221.538574, 4218.974121, 4201.025391, 4216.410156, 4206.153809, 3537.000000, 8180.000000, 8118.000000, 0.000000, 0.000000, 0.000000, -20993.000000, 225.128204, 4.000000, 4.000000, 4.000000, 4.000000, 4.000000, 4.000000, 4.000000, 4.000000, 4.000000, 4.000000, 4.000000, 4.000000, 4.000000, 4.000000, 4.000000, 4.000000
95.000000, 0.000000, 4192.307617, 4198.974121, 4205.127930, 4215.384277, 4208.717773, 4202.563965, 4198.974121, 4211.281738, 4215.897461, 4222.051270, 4217.948730, 4196.922852, 4215.384277, 4204.615234, 551.000000, 8190.000000, 8111.000000, 0.000000, 0.000000, 0.000000, -20993.000000, 232.820511, 4.000000, 4.000000, 4.000000, 4.000000, 4.000000, 4.000000, 4.000000, 4.000000, 4.000000, 4.000000, 4.000000, 4.000000, 4.000000, 4.000000, 4.000000, 4.000000
96.000000, 0.000000, 4180.512695, 4194.871582, 4203.076660, 4214.358887, 4203.589844, 4197.948730, 4188.717773, 4205.127930, 4215.897461, 4214.871582, 4219.487305, 4195.384277, 4213.846191, 4203.589844, 3474.000000, 8190.000000, 8111.000000, 0.000000, 0.000000, 0.000000, -20993.000000, 241.025635, 4.000000, 4.000000, 4.000000, 4.000000, 4.000000, 4.000000, 4.000000, 4.000000, 4.000000, 4.000000, 4.000000, 4.000000, 4.000000, 4.000000, 4.000000, 4.000000
97.000000, 0.000000, 4181.538574, 4190.769043, 4194.871582, 4208.717773, 4193.846191, 4188.717773, 4182.051270, 4201.538574, 4212.820313, 4214.358887, 4213.333008, 4192.820313, 4209.743652, 4199.487305, 3403.000000, 8192.000000, 8107.000000, 0.000000, 0.000000, 0.000000, -20993.000000, 249.230759, 4.000000, 4.000000, 4.000000, 4.000000, 4.000000, 4.000000, 4.000000, 4.000000, 4.000000, 4.000000, 4.000000, 4.000000, 4.000000, 4.000000, 4.000000, 4.000000
98.000000, 0.000000, 4183.589844, 4188.205078, 4188.205078, 4200.000000, 4198.461426, 4187.692383, 4189.230469, 4202.051270, 4207.179199, 4225.641113, 4206.153809, 4186.666504, 4204.102539, 4195.384277, 3537.000000, 8192.000000, 8107.000000, 0.000000, 0.000000, 0.000000, -20993.000000, 256.923065, 4.000000, 4.000000, 4.000000, 4.000000, 4.000000, 4.000000, 4.000000, 4.000000, 4.000000, 4.000000, 4.000000, 4.000000, 4.000000, 4.000000, 4.000000, 4.000000
99.000000, 0.000000, 4177.436035, 4188.717773, 4186.153809, 4198.974121, 4211.281738, 4199.487305, 4202.051270, 4205.641113, 4214.358887, 4231.794922, 4210.256348, 4186.153809, 4202.051270, 4201.025391, 551.000000, 8211.000000, 8105.000000, 0.000000, 0.000000, 0.000000, -20993.000000, 264.615387, 4.000000, 4.000000, 4.000000, 4.000000, 4.000000, 4.000000, 4.000000, 4.000000, 4.000000, 4.000000, 4.000000, 4.000000, 4.000000, 4.000000, 4.000000, 4.000000
100.000000, 0.000000, 4174.871582, 4187.179199, 4186.153809, 4199.487305, 4210.256348, 4205.641113, 4203.076660, 4202.563965, 4221.538574, 4227.179199, 4209.230469, 4189.230469, 4200.000000, 4202.563965, 3474.000000, 8211.000000, 8105.000000, 0.000000, 0.000000, 0.000000, -20993.000000, 272.307678, 4.000000, 4.000000, 4.000000, 4.000000, 4.000000, 4.000000, 4.000000, 4.000000, 4.000000, 4.000000, 4.000000, 4.000000, 4.000000, 4.000000, 4.000000, 4.000000
101.000000, 0.000000, 4172.307617, 4184.102539, 4188.717773, 4195.897461, 4197.948730, 4200.512695, 4199.487305, 4195.897461, 4210.256348, 4217.948730, 4205.127930, 4193.333008, 4201.025391, 4204.102539, 3403.000000, 8217.000000, 8118.000000, 0.000000, 0.000000, 0.000000, -20993.000000, 280.512817, 4.000000, 4.000000, 4.000000, 4.000000, 4.000000, 4.000000, 4.000000, 4.000000, 4.000000, 4.000000, 4.000000, 4.000000, 4.000000, 4.000000, 4.000000, 4.000000
102.000000, 0.000000, 4181.025391, 4187.692383, 4201.025391, 4201.538574, 4199.487305, 4197.436035, 4196.410156, 4192.307617, 4199.487305, 4211.794922, 4212.307617, 4204.615234, 4206.153809, 4204.102539, 3537.000000, 8217.000000, 8118.000000, 0.000000, 0.000000, 0.000000, -20993.000000, 288.205109, 4.000000, 4.000000, 4.000000, 4.000000, 4.000000, 4.000000, 4.000000, 4.000000, 4.000000, 4.000000, 4.000000, 4.000000, 4.000000, 4.000000, 4.000000, 4.000000
103.000000, 0.000000, 4187.692383, 4193.333008, 4212.820313, 4213.846191, 4207.179199, 4197.948730, 4190.256348, 4196.410156, 4201.538574, 4214.358887, 4217.436035, 4210.769043, 4207.179199, 4203.589844, 551.000000, 8234.000000, 8131.000000, 0.000000, 0.000000, 0.000000, -20993.000000, 295.897430, 4.000000, 4.000000, 4.000000, 4.000000, 4.000000, 4.000000, 4.000000, 4.000000, 4.000000, 4.000000, 4.000000, 4.000000, 4.000000, 4.000000, 4.000000, 4.000000
104.000000, 0.000000, 4179.487305, 4191.281738, 4211.281738, 4212.307617, 4198.461426, 4197.436035, 4188.717773, 4201.025391, 4208.717773, 4223.589844, 4213.846191, 4203.076660, 4208.717773, 4206.153809, 3474.000000, 8234.000000, 8131.000000, 0.000000, 0.000000, 0.000000, -20993.000000, 304.102570, 4.000000, 4.000000, 4.000000, 4.000000, 4.000000, 4.000000, 4.000000, 4.000000, 4.000000, 4.000000, 4.000000, 4.000000, 4.000000, 4.000000, 4.000000, 4.000000
105.000000, 0.000000, 4183.589844, 4186.666504, 4205.641113, 4202.563965, 4196.410156, 4199.487305, 4196.410156, 4204.615234, 4216.410156, 4235.384277, 4213.333008, 4197.948730, 4216.410156, 4202.051270, 3403.000000, 8243.000000, 8139.000000, 0.000000, 0.000000, 0.000000, -20993.000000, 311.794861, 4.000000, 4.000000, 4.000000, 4.000000, 4.000000, 4.000000, 4.000000, 4.000000, 4.000000, 4.000000, 4.000000, 4.000000, 4.000000, 4.000000, 4.000000, 4.000000
106.000000, 0.000000, 4183.589844, 4184.102539, 4200.512695, 4201.025391, 4209.230469, 4201.025391, 4200.512695, 4207.692383, 4216.410156, 4243.589844, 4206.666504, 4191.794922, 4212.820313, 4200.512695, 3537.000000, 8243.000000, 8139.000000, 0.000000, 0.000000, 0.000000, -20993.000000, 319.487183, 4.000000, 4.000000, 4.000000, 4.000000, 4.000000, 4.000000, 4.000000, 4.000000, 4.000000, 4.000000, 4.000000, 4.000000, 4.000000, 4.000000, 4.000000, 4.000000
107.000000, 0.000000, 4177.948730, 4189.230469, 4197.948730, 4201.025391, 4210.769043, 4200.000000, 4199.487305, 4213.333008, 4211.794922, 4244.102539, 4192.820313, 4178.461426, 4197.948730, 4200.512695, 551.000000, 8248.000000, 8150.000000, 0.000000, 0.000000, 0.000000, -20993.000000, 327.179474, 4.000000, 4.000000, 4.000000, 4.000000, 4.000000, 4.000000, 4.000000, 4.000000, 4.000000, 4.000000, 4.000000, 4.000000, 4.000000, 4.000000, 4.000000, 4.000000
108.000000, 0.000000, 4177.436035, 4194.871582, 4204.615234, 4198.461426, 4208.717773, 4202.051270, 4202.563965, 4219.487305, 4215.897461, 4246.153809, 4194.358887, 4182.563965, 4200.512695, 4200.512695, 3474.000000, 8248.000000, 8150.000000, 0.000000, 0.000000, 0.000000, -20993.000000, 335.384613, 4.000000, 4.000000, 4.000000, 4.000000, 4.000000, 4.000000, 4.000000, 4.000000, 4.000000, 4.000000, 4.000000, 4.000000, 4.000000, 4.000000, 4.000000, 4.000000
109.000000, 0.000000, 4179.487305, 4192.820313, 4211.281738, 4200.000000, 4207.692383, 4202.563965, 4205.127930, 4215.384277, 4215.384277, 4255.384277, 4203.589844, 4200.000000, 4208.717773, 4204.615234, 3403.000000, 8259.000000, 8180.000000, 0.000000, 0.000000, 0.000000, -20993.000000, 343.076904, 4.000000, 4.000000, 4.000000, 4.000000, 4.000000, 4.000000, 4.000000, 4.000000, 4.000000, 4.000000, 4.000000, 4.000000, 4.000000, 4.000000, 4.000000, 4.000000
110.000000, 0.000000, 4182.051270, 4186.666504, 4213.333008, 4202.563965, 4187.692383, 4193.846191, 4197.948730, 4203.076660, 4201.538574, 4255.897461, 4204.615234, 4202.563965, 4202.051270, 4203.589844, 3537.000000, 8259.000000, 8180.000000, 0.000000, 0.000000, 0.000000, -20993.000000, 350.769226, 4.000000, 4.000000, 4.000000, 4.000000, 4.000000, 4.000000, 4.000000, 4.000000, 4.000000, 4.000000, 4.000000, 4.000000, 4.000000, 4.000000, 4.000000, 4.000000
111.000000, 0.000000, 4179.487305, 4187.179199, 4210.769043, 4202.051270, 4180.512695, 4191.281738, 4193.846191, 4201.538574, 4197.948730, 4252.820313, 4207.692383, 4201.025391, 4205.641113, 4205.127930, 551.000000, 8254.000000, 8193.000000, 0.000000, 0.000000, 0.000000, -20993.000000, 358.974365, 4.000000, 4.000000, 4.000000, 4.000000, 4.000000, 4.000000, 4.000000, 4.000000, 4.000000, 4.000000, 4.000000, 4.000000, 4.000000, 4.000000, 4.000000, 4.000000
112.000000, 0.000000, 4180.000000, 4193.333008, 4207.692383, 4203.076660, 4207.179199, 4196.922852, 4200.000000, 4209.743652, 4201.538574, 4255.897461, 4213.333008, 4203.589844, 4215.384277, 4204.615234, 3474.000000, 8254.000000, 8193.000000, 0.000000, 0.000000, 0.000000, -20993.000000, 366.666656, 4.000000, 4.000000, 4.000000, 4.000000, 4.000000, 4.000000, 4.000000, 4.000000, 4.000000, 4.000000, 4.000000, 4.000000, 4.000000, 4.000000, 4.000000, 4.000000
113.000000, 0.000000, 4175.897461, 4187.692383, 4201.025391, 4201.025391, 4211.794922, 4196.922852, 4196.410156, 4205.127930, 4194.871582, 4254.358887, 4206.153809, 4192.307617, 4206.153809, 4200.000000, 3403.000000, 8252.000000, 8219.000000, 0.000000, 0.000000, 0.000000, -20993.000000, 374.358978, 4.000000, 4.000000, 4.000000, 4.000000, 4.000000, 4.000000, 4.000000, 4.000000, 4.000000, 4.000000, 4.000000, 4.000000, 4.000000, 4.000000, 4.000000, 4.000000
114.000000, 0.000000, 4169.230469, 4182.563965, 4193.846191, 4197.948730, 4195.384277, 4194.871582, 4190.256348, 4196.410156, 4196.922852, 4256.410156, 4197.436035, 4180.512695, 4194.871582, 4203.076660, 3537.000000, 8252.000000, 8219.000000, 0.000000, 0.000000, 0.000000, -20993.000000, 382.051270, 4.000000, 4.000000, 4.000000, 4.000000, 4.000000, 4.000000, 4.000000, 4.000000, 4.000000, 4.000000, 4.000000, 4.000000, 4.000000, 4.000000, 4.000000, 4.000000
115.000000, 0.000000, 4178.461426, 4192.820313, 4198.461426, 4202.563965, 4204.615234, 4198.974121, 4197.436035, 4203.076660, 4215.897461, 4274.358887, 4202.051270, 4191.794922, 4201.538574, 4204.615234, 551.000000, 8246.000000, 8236.000000, 0.000000, 0.000000, 0.000000, -20993.000000, 390.256409, 4.000000, 4.000000, 4.000000, 4.000000, 4.000000, 4.000000, 4.000000, 4.000000, 4.000000, 4.000000, 4.000000, 4.000000, 4.000000, 4.000000, 4.000000, 4.000000
116.000000, 0.000000, 4178.461426, 4197.948730, 4209.230469, 4203.589844, 4219.487305, 4207.692383, 4206.666504, 4211.794922, 4221.538574, 4285.127930, 4207.179199, 4204.615234, 4209.743652, 4204.615234, 3474.000000, 8246.000000, 8236.000000, 0.000000, 0.000000, 0.000000, -20993.000000, 398.461517, 4.000000, 4.000000, 4.000000, 4.000000, 4.000000, 4.000000, 4.000000, 4.000000, 4.000000, 4.000000, 4.000000, 4.000000, 4.000000, 4.000000, 4.000000, 4.000000
117.000000, 0.000000, 4174.358887, 4190.769043, 4214.871582, 4200.512695, 4210.769043, 4212.307617, 4211.281738, 4211.794922, 4217.436035, 4277.948730, 4208.717773, 4201.025391, 4208.717773, 4203.589844, 3403.000000, 8245.000000, 8242.000000, 0.000000, 0.000000, 0.000000, -20993.000000, 406.153839, 4.000000, 4.000000, 4.000000, 4.000000, 4.000000, 4.000000, 4.000000, 4.000000, 4.000000, 4.000000, 4.000000, 4.000000, 4.000000, 4.000000, 4.000000, 4.000000
118.000000, 0.000000, 4178.461426, 4185.127930, 4211.281738, 4202.563965, 4193.846191, 4208.717773, 4209.230469, 4205.641113, 4216.410156, 4264.615234, 4207.179199, 4197.948730, 4206.153809, 4202.563965, 3537.000000, 8245.000000, 8242.000000, 0.000000, 0.000000, 0.000000, -20993.000000, 414.358978, 4.000000, 4.000000, 4.000000, 4.000000, 4.000000, 4.000000, 4.000000, 4.000000, 4.000000, 4.000000, 4.000000, 4.000000, 4.000000, 4.000000, 4.000000, 4.000000
119.000000, 0.000000, 4171.281738, 4185.641113, 4202.563965, 4200.512695, 4189.230469, 4198.974121, 4205.127930, 4202.051270, 4206.153809, 4249.743652, 4200.512695, 4200.000000, 4201.025391, 4205.127930, 551.000000, 8245.000000, 8249.000000, 0.000000, 0.000000, 0.000000, -20993.000000, 422.051270, 4.000000, 4.000000, 4.000000, 4.000000, 4.000000, 4.000000, 4.000000, 4.000000, 4.000000, 4.000000, 4.000000, 4.000000, 4.000000, 4.000000, 4.000000, 4.000000
120.000000, 0.000000, 4169.230469, 4185.641113, 4202.563965, 4194.358887, 4202.563965, 4202.563965, 4210.256348, 4212.820313, 4198.461426, 4246.153809, 4200.000000, 4200.512695, 4197.436035, 4203.589844, 3474.000000, 8245.000000, 8249.000000, 0.000000, 0.000000, 0.000000, -20993.000000, 430.256409, 4.000000, 4.000000, 4.000000, 4.000000, 4.000000, 4.000000, 4.000000, 4.000000, 4.000000, 4.000000, 4.000000, 4.000000, 4.000000, 4.000000, 4.000000, 4.000000
121.000000, 0.000000, 4171.281738, 4185.127930, 4207.692383, 4197.948730, 4211.281738, 4212.820313, 4217.948730, 4218.974121, 4208.205078, 4254.871582, 4206.666504, 4203.076660, 4201.538574, 4205.641113, 3403.000000, 8243.000000, 8246.000000, 0.000000, 0.000000, 0.000000, -20993.000000, 437.948700, 4.000000, 4.000000, 4.000000, 4.000000, 4.000000, 4.000000, 4.000000, 4.000000, 4.000000, 4.000000, 4.000000, 4.000000, 4.000000, 4.000000, 4.000000, 4.000000
122.000000, 0.000000, 4168.717773, 4185.127930, 4205.127930, 4201.025391, 4203.076660, 4208.717773, 4210.769043, 4214.358887, 4213.333008, 4245.127930, 4205.641113, 4205.127930, 4205.127930, 4208.205078, 3537.000000, 8243.000000, 8246.000000, 0.000000, 0.000000, 0.000000, -20993.000000, 446.153839, 4.000000, 4.000000, 4.000000, 4.000000, 4.000000, 4.000000, 4.000000, 4.000000, 4.000000, 4.000000, 4.000000, 4.000000, 4.000000, 4.000000, 4.000000, 4.000000
123.000000, 0.000000, 4170.256348, 4183.076660, 4204.102539, 4198.974121, 4203.589844, 4201.538574, 4203.589844, 4212.307617, 4206.153809, 4233.846191, 4205.127930, 4205.127930, 4203.589844, 4203.589844, 551.000000, 8250.000000, 8241.000000, 0.000000, 0.000000, 0.000000, -20993.000000, 453.846130, 4.000000, 4.000000, 4.000000, 4.000000, 4.000000, 4.000000, 4.000000, 4.000000, 4.000000, 4.000000, 4.000000, 4.000000, 4.000000, 4.000000, 4.000000, 4.000000
124.000000, 0.000000, 4167.179199, 4184.102539, 4207.179199, 4201.025391, 4198.974121, 4200.000000, 4203.589844, 4207.692383, 4202.051270, 4242.051270, 4207.692383, 4204.615234, 4200.512695, 4204.615234, 3474.000000, 8250.000000, 8241.000000, 0.000000, 0.000000, 0.000000, -20993.000000, 462.051270, 4.000000, 4.000000, 4.000000, 4.000000, 4.000000, 4.000000, 4.000000, 4.000000, 4.000000, 4.000000, 4.000000, 4.000000, 4.000000, 4.000000, 4.000000, 4.000000
125.000000, 0.000000, 4165.127930, 4186.666504, 4208.717773, 4204.615234, 4182.563965, 4201.025391, 4205.127930, 4204.102539, 4205.641113, 4242.563965, 4203.589844, 4201.025391, 4197.436035, 4204.102539, 3403.000000, 8257.000000, 8232.000000, 0.000000, 0.000000, 0.000000, -20993.000000, 469.743591, 4.000000, 4.000000, 4.000000, 4.000000, 4.000000, 4.000000, 4.000000, 4.000000, 4.000000, 4.000000, 4.000000, 4.000000, 4.000000, 4.000000, 4.000000, 4.000000
126.000000, 0.000000, 4167.179199, 4186.153809, 4212.307617, 4208.205078, 4194.358887, 4207.692383, 4212.820313, 4215.384277, 4212.307617, 4237.948730, 4207.179199, 4201.025391, 4203.589844, 4204.615234, 3537.000000, 8257.000000, 8232.000000, 0.000000, 0.000000, 0.000000, -20993.000000, 477.948700, 4.000000, 4.000000, 4.000000, 4.000000, 4.000000, 4.000000, 4.000000, 4.000000, 4.000000, 4.000000, 4.000000, 4.000000, 4.000000, 4.000000, 4.000000, 4.000000
127.000000, 0.000000, 4172.820313, 4188.717773, 4215.384277, 4214.871582, 4222.563965, 4215.384277, 4214.871582, 4223.589844, 4218.461426, 4245.127930, 4218.461426, 4205.127930, 4216.410156, 4207.179199, 54.000000, 8260.000000, 8212.000000, 0.000000, 0.000000, 0.000000, -20993.000000, 486.153839, 4.000000, 4.000000, 4.000000, 4.000000, 4.000000, 4.000000, 4.000000, 4.000000, 4.000000, 4.000000, 4.000000, 4.000000, 4.000000, 4.000000, 4.000000, 4.000000
0.000000, 0.000000, 4176.410156, 4195.897461, 4211.794922, 4213.846191, 4222.563965, 4216.922852, 4212.307617, 4208.717773, 4215.384277, 4238.461426, 4217.948730, 4200.000000, 4216.410156, 4204.102539, 3356.000000, 8260.000000, 8212.000000, 0.000000, 0.000000, 0.000000, -20993.000000, 493.846130, 4.000000, 4.000000, 4.000000, 4.000000, 4.000000, 4.000000, 4.000000, 4.000000, 4.000000, 4.000000, 4.000000, 4.000000, 4.000000, 4.000000, 4.000000, 4.000000
1.000000, 0.000000, 4167.179199, 4194.358887, 4207.692383, 4204.615234, 4207.692383, 4211.794922, 4217.436035, 4197.436035, 4211.281738, 4213.846191, 4206.153809, 4190.769043, 4203.589844, 4206.153809, 3507.000000, 8264.000000, 8208.000000, 0.000000, 0.000000, 0.000000, -20993.000000, 502.051270, 4.000000, 4.000000, 4.000000, 4.000000, 4.000000, 4.000000, 4.000000, 4.000000, 4.000000, 4.000000, 4.000000, 4.000000, 4.000000, 4.000000, 4.000000, 4.000000
2.000000, 0.000000, 4162.563965, 4186.153809, 4208.717773, 4203.076660, 4206.153809, 4205.127930, 4215.897461, 4207.692383, 4214.358887, 4208.205078, 4198.461426, 4188.717773, 4198.974121, 4204.615234, 2531.000000, 8264.000000, 8208.000000, 0.000000, 0.000000, 0.000000, -20993.000000, 509.743591, 4.000000, 4.000000, 4.000000, 4.000000, 4.000000, 4.000000, 4.000000, 4.000000, 4.000000, 4.000000, 4.000000, 4.000000, 4.000000, 4.000000, 4.000000, 4.000000
3.000000, 0.000000, 4157.436035, 4182.051270, 4203.076660, 4201.025391, 4197.948730, 4199.487305, 4202.563965, 4216.410156, 4218.461426, 4218.461426, 4198.974121, 4188.717773, 4202.563965, 4200.000000, 2141.000000, 8275.000000, 8200.000000, 0.000000, 0.000000, 0.000000, -20993.000000, 517.948730, 4.000000, 4.000000, 4.000000, 4.000000, 4.000000, 4.000000, 4.000000, 4.000000, 4.000000, 4.000000, 4.000000, 4.000000, 4.000000, 4.000000, 4.000000, 4.000000
4.000000, 0.000000, 4148.717773, 4177.948730, 4196.410156, 4188.205078, 4188.205078, 4201.025391, 4202.563965, 4216.410156, 4217.948730, 4215.897461, 4198.461426, 4189.230469, 4196.922852, 4204.102539, 3531.000000, 8275.000000, 8200.000000, 0.000000, 0.000000, 0.000000, -20993.000000, 525.640991, 4.000000, 4.000000, 4.000000, 4.000000, 4.000000, 4.000000, 4.000000, 4.000000, 4.000000, 4.000000, 4.000000, 4.000000, 4.000000, 4.000000, 4.000000, 4.000000
5.000000, 0.000000, 4157.948730, 4177.948730, 4201.025391, 4186.666504, 4195.897461, 4204.102539, 4212.820313, 4217.948730, 4216.922852, 4212.307617, 4200.512695, 4193.846191, 4197.436035, 4204.615234, 3540.000000, 8275.000000, 8159.000000, 0.000000, 0.000000, 0.000000, -20993.000000, 533.846130, 4.000000, 4.000000, 4.000000, 4.000000, 4.000000, 4.000000, 4.000000, 4.000000, 4.000000, 4.000000, 4.000000, 4.000000, 4.000000, 4.000000, 4.000000, 4.000000
6.000000, 0.000000, 4165.641113, 4185.127930, 4202.051270, 4198.974121, 4210.769043, 4206.153809, 4210.256348, 4217.948730, 4216.410156, 4218.461426, 4209.743652, 4201.025391, 4211.794922, 4203.589844, 3126.000000, 8275.000000, 8159.000000, 0.000000, 0.000000, 0.000000, -20993.000000, 541.538452, 4.000000, 4.000000, 4.000000, 4.000000, 4.000000, 4.000000, 4.000000, 4.000000, 4.000000, 4.000000, 4.000000, 4.000000, 4.000000, 4.000000, 4.000000, 4.000000
7.000000, 0.000000, 4160.000000, 4189.230469, 4194.358887, 4197.436035, 4214.358887, 4212.820313, 4200.512695, 4215.384277, 4215.384277, 4227.692383, 4211.281738, 4196.410156, 4212.307617, 4201.538574, 3506.000000, 8278.000000, 8148.000000, 0.000000, 0.000000, 0.000000, -20993.000000, 549.743591, 4.000000, 4.000000, 4.000000, 4.000000, 4.000000, 4.000000, 4.000000, 4.000000, 4.000000, 4.000000, 4.000000, 4.000000, 4.000000, 4.000000, 4.000000, 4.000000
8.000000, 0.000000, 4153.846191, 4185.641113, 4191.794922, 4190.769043, 4201.538574, 4213.333008, 4199.487305, 4220.000000, 4223.076660, 4230.769043, 4203.589844, 4185.127930, 4201.538574, 4202.051270, 3516.000000, 8278.000000, 8148.000000, 0.000000, 0.000000, 0.000000, -20993.000000, 557.948730, 4.000000, 4.000000, 4.000000, 4.000000, 4.000000, 4.000000, 4.000000, 4.000000, 4.000000, 4.000000, 4.000000, 4.000000, 4.000000, 4.000000, 4.000000, 4.000000
9.000000, 0.000000, 4155.897461, 4185.127930, 4198.461426, 4197.948730, 4192.820313, 4206.153809, 4207.179199, 4218.461426, 4225.127930, 4225.641113, 4198.461426, 4188.205078, 4203.076660, 4206.666504, 3535.000000, 8277.000000, 8124.000000, 0.000000, 0.000000, 0.000000, -20993.000000, 565.640991, 4.000000, 4.000000, 4.000000, 4.000000, 4.000000, 4.000000, 4.000000, 4.000000, 4.000000, 4.000000, 4.000000, 4.000000, 4.000000, 4.000000, 4.000000, 4.000000
10.000000, 0.000000, 4164.615234, 4187.179199, 4204.102539, 4202.563965, 4204.615234, 4206.153809, 4211.281738, 4212.820313, 4219.487305, 4225.641113, 4202.051270, 4196.410156, 4209.230469, 4203.589844, 3677.000000, 8277.000000, 8124.000000, 0.000000, 0.000000, 0.000000, -20993.000000, 573.333313, 4.000000, 4.000000, 4.000000, 4.000000, 4.000000, 4.000000, 4.000000, 4.000000, 4.000000, 4.000000, 4.000000, 4.000000, 4.000000, 4.000000, 4.000000, 4.000000
11.000000, 0.000000, 4162.051270, 4186.666504, 4201.538574, 4198.461426, 4219.487305, 4214.871582, 4215.384277, 4225.641113, 4224.615234, 4232.820313, 4210.256348, 4198.461426, 4207.692383, 4201.538574, 552.000000, 8271.000000, 8119.000000, 0.000000, 0.000000, 0.000000, -20993.000000, 581.538452, 4.000000, 4.000000, 4.000000, 4.000000, 4.000000, 4.000000, 4.000000, 4.000000, 4.000000, 4.000000, 4.000000, 4.000000, 4.000000, 4.000000, 4.000000, 4.000000
12.000000, 0.000000, 4159.487305, 4187.179199, 4202.051270, 4200.512695, 4217.948730, 4220.512695, 4222.563965, 4234.871582, 4230.769043, 4233.846191, 4209.230469, 4196.410156, 4203.076660, 4201.025391, 3474.000000, 8271.000000, 8119.000000, 0.000000, 0.000000, 0.000000, -20993.000000, 589.230774, 4.000000, 4.000000, 4.000000, 4.000000, 4.000000, 4.000000, 4.000000, 4.000000, 4.000000, 4.000000, 4.000000, 4.000000, 4.000000, 4.000000, 4.000000, 4.000000
13.000000, 0.000000, 4165.127930, 4190.769043, 4202.051270, 4202.563965, 4212.307617, 4219.487305, 4227.179199, 4231.281738, 4230.769043, 4231.794922, 4204.102539, 4195.384277, 4205.127930, 4200.512695, 3401.000000, 8269.000000, 8122.000000, 0.000000, 0.000000, 0.000000, -20993.000000, 597.435913, 4.000000, 4.000000, 4.000000, 4.000000, 4.000000, 4.000000, 4.000000, 4.000000, 4.000000, 4.000000, 4.000000, 4.000000, 4.000000, 4.000000, 4.000000, 4.000000
14.000000, 0.000000, 4165.127930, 4191.794922, 4195.897461, 4200.512695, 4217.948730, 4220.512695, 4230.769043, 4241.025391, 4232.307617, 4238.461426, 4209.743652, 4197.948730, 4214.871582, 4203.589844, 3677.000000, 8269.000000, 8122.000000, 0.000000, 0.000000, 0.000000, -20993.000000, 605.128174, 4.000000, 4.000000, 4.000000, 4.000000, 4.000000, 4.000000, 4.000000, 4.000000, 4.000000, 4.000000, 4.000000, 4.000000, 4.000000, 4.000000, 4.000000, 4.000000
15.000000, 0.000000, 4168.717773, 4188.717773, 4194.871582, 4202.051270, 4223.589844, 4221.025391, 4228.205078, 4248.205078, 4231.794922, 4248.717773, 4220.512695, 4200.000000, 4221.538574, 4201.538574, 552.000000, 8245.000000, 8130.000000, 0.000000, 0.000000, 0.000000, -20993.000000, 613.333313, 4.000000, 4.000000, 4.000000, 4.000000, 4.000000, 4.000000, 4.000000, 4.000000, 4.000000, 4.000000, 4.000000, 4.000000, 4.000000, 4.000000, 4.000000, 4.000000
16.000000, 0.000000, 4168.717773, 4185.127930, 4200.000000, 4200.512695, 4208.717773, 4215.384277, 4221.025391, 4237.948730, 4226.153809, 4248.717773, 4217.948730, 4201.025391, 4219.487305, 4203.076660, 0.000000, 8245.000000, 8130.000000, 0.000000, 0.000000, 0.000000, -20993.000000, 621.025635, 4.000000, 4.000000, 4.000000, 4.000000, 4.000000, 4.000000, 4.000000, 4.000000, 4.000000, 4.000000, 4.000000, 4.000000, 4.000000, 4.000000, 4.000000, 4.000000
17.000000, 0.000000, 4175.384277, 4187.692383, 4211.794922, 4202.563965, 4200.512695, 4214.871582, 4220.000000, 4230.769043, 4224.102539, 4240.512695, 4213.846191, 4206.153809, 4222.563965, 4208.717773, 0.000000, 8239.000000, 8129.000000, 0.000000, 0.000000, 0.000000, -20993.000000, 629.230774, 4.000000, 4.000000, 4.000000, 4.000000, 4.000000, 4.000000, 4.000000, 4.000000, 4.000000, 4.000000, 4.000000, 4.000000, 4.000000, 4.000000, 4.000000, 4.000000
18.000000, 0.000000, 4185.641113, 4195.384277, 4220.000000, 4209.743652, 4215.897461, 4213.846191, 4213.846191, 4227.179199, 4222.563965, 4236.410156, 4220.000000, 4217.436035, 4233.333008, 4206.666504, 0.000000, 8239.000000, 8129.000000, 0.000000, 0.000000, 0.000000, -20993.000000, 636.923035, 4.000000, 4.000000, 4.000000, 4.000000, 4.000000, 4.000000, 4.000000, 4.000000, 4.000000, 4.000000, 4.000000, 4.000000, 4.000000, 4.000000, 4.000000, 4.000000
19.000000, 0.000000, 4182.051270, 4197.436035, 4215.384277, 4208.205078, 4224.102539, 4205.641113, 4202.563965, 4215.384277, 4216.410156, 4234.871582, 4222.563965, 4218.974121, 4235.384277, 4205.127930, 0.000000, 8215.000000, 8140.000000, 0.000000, 0.000000, 0.000000, -20993.000000, 645.128174, 4.000000, 4.000000, 4.000000, 4.000000, 4.000000, 4.000000, 4.000000, 4.000000, 4.000000, 4.000000, 4.000000, 4.000000, 4.000000, 4.000000, 4.000000, 4.000000
20.000000, 0.000000, 4185.127930, 4196.410156, 4212.307617, 4203.589844, 4220.000000, 4207.179199, 4203.589844, 4214.871582, 4218.461426, 4234.871582, 4221.025391, 4213.333008, 4229.743652, 4204.102539, 0.000000, 8215.000000, 8140.000000, 0.000000, 0.000000, 0.000000, -20993.000000, 652.820496, 4.000000, 4.000000, 4.000000, 4.000000, 4.000000, 4.000000, 4.000000, 4.000000, 4.000000, 4.000000, 4.000000, 4.000000, 4.000000, 4.000000, 4.000000, 4.000000
21.000000, 0.000000, 4185.641113, 4192.307617, 4214.358887, 4202.563965, 4212.307617, 4215.897461, 4209.743652, 4223.589844, 4222.563965, 4235.897461, 4218.974121, 4211.794922, 4225.127930, 4206.153809, 0.000000, 8204.000000, 8150.000000, 0.000000, 0.000000, 0.000000, -20993.000000, 661.025635, 4.000000, 4.000000, 4.000000, 4.000000, 4.000000, 4.000000, 4.000000, 4.000000, 4.000000, 4.000000, 4.000000, 4.000000, 4.000000, 4.000000, 4.000000, 4.000000
22.000000, 0.000000, 4183.589844, 4188.717773, 4209.230469, 4200.512695, 4202.563965, 4212.820313, 4208.205078, 4220.512695, 4217.948730, 4229.743652, 4215.897461, 4208.717773, 4221.025391, 4206.666504, 0.000000, 8204.000000, 8150.000000, 0.000000, 0.000000, 0.000000, -20993.000000, 668.717957, 4.000000, 4.000000, 4.000000, 4.000000, 4.000000, 4.000000, 4.000000, 4.000000, 4.000000, 4.000000, 4.000000, 4.000000, 4.000000, 4.000000, 4.000000, 4.000000
23.000000, 0.000000, 4185.641113, 4186.153809, 4203.076660, 4200.000000, 4206.666504, 4211.281738, 4210.769043, 4217.436035, 4217.948730, 4221.538574, 4213.846191, 4201.538574, 4220.000000, 4203.589844, 0.000000, 8177.000000, 8159.000000, 0.000000, 0.000000, 0.000000, -20993.000000, 676.410217, 4.000000, 4.000000, 4.000000, 4.000000, 4.000000, 4.000000, 4.000000, 4.000000, 4.000000, 4.000000, 4.000000, 4.000000, 4.000000, 4.000000, 4.000000, 4.000000
24.000000, 0.000000, 4181.025391, 4183.589844, 4205.127930, 4203.076660, 4223.076660, 4218.974121, 4213.846191, 4217.948730, 4223.076660, 4224.615234, 4211.794922, 4197.436035, 4219.487305, 4206.666504, 0.000000, 8177.000000, 8159.000000, 0.000000, 0.000000, 0.000000, -20993.000000, 684.615356, 4.000000, 4.000000, 4.000000, 4.000000, 4.000000, 4.000000, 4.000000, 4.000000, 4.000000, 4.000000, 4.000000, 4.000000, 4.000000, 4.000000, 4.000000, 4.000000
25.000000, 0.000000, 4181.025391, 4182.051270, 4204.615234, 4202.051270, 4221.025391, 4213.333008, 4206.153809, 4215.897461, 4215.897461, 4223.076660, 4205.641113, 4190.769043, 4212.307617, 4204.615234, 0.000000, 8170.000000, 8163.000000, 0.000000, 0.000000, 0.000000, -20993.000000, 692.307678, 4.000000, 4.000000, 4.000000, 4.000000, 4.000000, 4.000000, 4.000000, 4.000000, 4.000000, 4.000000, 4.000000, 4.000000, 4.000000, 4.000000, 4.000000, 4.000000
26.000000, 0.000000, 4180.000000, 4182.051270, 4195.897461, 4197.948730, 4212.820313, 4206.153809, 4201.025391, 4216.922852, 4206.153809, 4209.230469, 4199.487305, 4184.102539, 4201.538574, 4201.538574, 0.000000, 8170.000000, 8163.000000, 0.000000, 0.000000, 0.000000, -20993.000000, 700.000000, 4.000000, 4.000000, 4.000000, 4.000000, 4.000000, 4.000000, 4.000000, 4.000000, 4.000000, 4.000000, 4.000000, 4.000000, 4.000000, 4.000000, 4.000000, 4.000000
27.000000, 0.000000, 4179.487305, 4184.615234, 4189.743652, 4196.922852, 4213.333008, 4212.307617, 4202.563965, 4215.384277, 4211.794922, 4206.153809, 4202.563965, 4188.205078, 4203.589844, 4204.102539, 0.000000, 8174.000000, 8165.000000, 0.000000, 0.000000, 0.000000, -20993.000000, 708.205139, 4.000000, 4.000000, 4.000000, 4.000000, 4.000000, 4.000000, 4.000000, 4.000000, 4.000000, 4.000000, 4.000000, 4.000000, 4.000000, 4.000000, 4.000000, 4.000000
28.000000, 0.000000, 4187.692383, 4185.641113, 4195.897461, 4201.025391, 4206.153809, 4215.897461, 4205.641113, 4211.794922, 4220.512695, 4216.410156, 4213.333008, 4198.974121, 4216.410156, 4205.127930, 0.000000, 8174.000000, 8165.000000, 0.000000, 0.000000, 0.000000, -20993.000000, 715.897400, 4.000000, 4.000000, 4.000000, 4.000000, 4.000000, 4.000000, 4.000000, 4.000000, 4.000000, 4.000000, 4.000000, 4.000000, 4.000000, 4.000000, 4.000000, 4.000000
29.000000, 0.000000, 4188.205078, 4187.692383, 4205.641113, 4204.102539, 4205.127930, 4215.897461, 4214.871582, 4215.897461, 4219.487305, 4221.538574, 4220.000000, 4204.102539, 4222.051270, 4209.743652, 0.000000, 8166.000000, 8174.000000, 0.000000, 0.000000, 0.000000, -20993.000000, 724.102539, 4.000000, 4.000000, 4.000000, 4.000000, 4.000000, 4.000000, 4.000000, 4.000000, 4.000000, 4.000000, 4.000000, 4.000000, 4.000000, 4.000000, 4.000000, 4.000000
30.000000, 0.000000, 4187.692383, 4188.205078, 4206.153809, 4201.538574, 4218.974121, 4220.000000, 4221.538574, 4217.948730, 4213.846191, 4217.948730, 4216.922852, 4200.000000, 4217.436035, 4206.153809, 0.000000, 8166.000000, 8174.000000, 0.000000, 0.000000, 0.000000, -20993.000000, 731.794861, 4.000000, 4.000000, 4.000000, 4.000000, 4.000000, 4.000000, 4.000000, 4.000000, 4.000000, 4.000000, 4.000000, 4.000000, 4.000000, 4.000000, 4.000000, 4.000000
31.000000, 0.000000, 4190.769043, 4186.153809, 4208.205078, 4202.051270, 4227.179199, 4221.538574, 4220.000000, 4214.871582, 4216.922852, 4211.281738, 4215.384277, 4201.538574, 4217.436035, 4203.076660, 0.000000, 8178.000000, 8178.000000, 0.000000, 0.000000, 0.000000, -20993.000000, 739.487183, 4.000000, 4.000000, 4.000000, 4.000000, 4.000000, 4.000000, 4.000000, 4.000000, 4.000000, 4.000000, 4.000000, 4.000000, 4.000000, 4.000000, 4.000000, 4.000000
32.000000, 0.000000, 4192.307617, 4186.666504, 4214.358887, 4204.102539, 4221.538574, 4216.410156, 4215.897461, 4219.487305, 4223.076660, 4202.051270, 4215.384277, 4205.641113, 4220.000000, 4208.717773, 0.000000, 8178.000000, 8178.000000, 0.000000, 0.000000, 0.000000, -20993.000000, 747.692261, 4.000000, 4.000000, 4.000000, 4.000000, 4.000000, 4.000000, 4.000000, 4.000000, 4.000000, 4.000000, 4.000000, 4.000000, 4.000000, 4.000000, 4.000000, 4.000000
33.000000, 0.000000, 4192.307617, 4186.666504, 4208.205078, 4203.076660, 4215.384277, 4214.871582, 4216.410156, 4223.076660, 4220.512695, 4203.076660, 4205.641113, 4198.974121, 4213.333008, 4205.641113, 0.000000, 8187.000000, 8188.000000, 0.000000, 0.000000, 0.000000, -20993.000000, 755.897400, 4.000000, 4.000000, 4.000000, 4.000000, 4.000000, 4.000000, 4.000000, 4.000000, 4.000000, 4.000000, 4.000000, 4.000000, 4.000000, 4.000000, 4.000000, 4.000000
34.000000, 0.000000, 4187.692383, 4184.615234, 4198.974121, 4203.076660, 4221.025391, 4218.461426, 4221.025391, 4218.974121, 4215.384277, 4214.358887, 4198.461426, 4194.358887, 4205.127930, 4202.563965, 0.000000, 8187.000000, 8188.000000, 0.000000, 0.000000, 0.000000, -20993.000000, 763.589722, 4.000000, 4.000000, 4.000000, 4.000000, 4.000000, 4.000000, 4.000000, 4.000000, 4.000000, 4.000000, 4.000000, 4.000000, 4.000000, 4.000000, 4.000000, 4.000000
35.000000, 0.000000, 4188.205078, 4185.641113, 4200.512695, 4199.487305, 4217.948730, 4214.358887, 4214.871582, 4219.487305, 4218.974121, 4220.000000, 4200.000000, 4197.436035, 4202.563965, 4202.051270, 0.000000, 8195.000000, 8186.000000, 0.000000, 0.000000, 0.000000, -20993.000000, 771.282043, 4.000000, 4.000000, 4.000000, 4.000000, 4.000000, 4.000000, 4.000000, 4.000000, 4.000000, 4.000000, 4.000000, 4.000000, 4.000000, 4.000000, 4.000000, 4.000000
36.000000, 0.000000, 4181.025391, 4183.589844, 4198.461426, 4186.153809, 4198.974121, 4205.127930, 4203.076660, 4222.051270, 4220.000000, 4217.436035, 4196.922852, 4192.820313, 4202.051270, 4199.487305, 0.000000, 8195.000000, 8186.000000, 0.000000, 0.000000, 0.000000, -20993.000000, 778.974365, 4.000000, 4.000000, 4.000000, 4.000000, 4.000000, 4.000000, 4.000000, 4.000000, 4.000000, 4.000000, 4.000000, 4.000000, 4.000000, 4.000000, 4.000000, 4.000000
37.000000, 0.000000, 4173.846191, 4179.487305, 4193.333008, 4183.589844, 4199.487305, 4207.692383, 4207.692383, 4216.922852, 4212.307617, 4211.281738, 4191.281738, 4189.230469, 4197.948730, 4201.025391, 0.000000, 8201.000000, 8188.000000, 0.000000, 0.000000, 0.000000, -20993.000000, 787.179443, 4.000000, 4.000000, 4.000000, 4.000000, 4.000000, 4.000000, 4.000000, 4.000000, 4.000000, 4.000000, 4.000000, 4.000000, 4.000000, 4.000000, 4.000000, 4.000000
38.000000, 0.000000, 4183.589844, 4180.000000, 4199.487305, 4196.410156, 4224.102539, 4217.948730, 4217.948730, 4214.871582, 4214.358887, 4220.000000, 4197.948730, 4198.461426, 4200.000000, 4202.563965, 0.000000, 8201.000000, 8188.000000, 0.000000, 0.000000, 0.000000, -20993.000000, 794.871765, 4.000000, 4.000000, 4.000000, 4.000000, 4.000000, 4.000000, 4.000000, 4.000000, 4.000000, 4.000000, 4.000000, 4.000000, 4.000000, 4.000000, 4.000000, 4.000000
39.000000, 0.000000, 4184.102539, 4183.589844, 4201.538574, 4197.436035, 4229.230469, 4216.922852, 4215.384277, 4220.000000, 4225.127930, 4234.871582, 4203.076660, 4206.153809, 4209.230469, 4206.666504, 0.000000, 8199.000000, 8187.000000, 0.000000, 0.000000, 0.000000, -20993.000000, 803.076904, 4.000000, 4.000000, 4.000000, 4.000000, 4.000000, 4.000000, 4.000000, 4.000000, 4.000000, 4.000000, 4.000000, 4.000000, 4.000000, 4.000000, 4.000000, 4.000000
40.000000, 0.000000, 4184.615234, 4183.589844, 4199.487305, 4186.666504, 4218.974121, 4213.333008, 4214.871582, 4219.487305, 4224.615234, 4234.358887, 4201.025391, 4206.666504, 4215.384277, 4206.153809, 0.000000, 8199.000000, 8187.000000, 0.000000, 0.000000, 0.000000, -20993.000000, 810.769226, 4.000000, 4.000000, 4.000000, 4.000000, 4.000000, 4.000000, 4.000000, 4.000000, 4.000000, 4.000000, 4.000000, 4.000000, 4.000000, 4.000000, 4.000000, 4.000000
41.000000, 0.000000, 4189.230469, 4183.076660, 4203.589844, 4188.717773, 4211.794922, 4214.358887, 4214.871582, 4213.846191, 4214.358887, 4231.794922, 4205.641113, 4206.666504, 4216.410156, 4203.076660, 0.000000, 8202.000000, 8187.000000, 0.000000, 0.000000, 0.000000, -20993.000000, 818.461548, 4.000000, 4.000000, 4.000000, 4.000000, 4.000000, 4.000000, 4.000000, 4.000000, 4.000000, 4.000000, 4.000000, 4.000000, 4.000000, 4.000000, 4.000000, 4.000000
42.000000, 0.000000, 4189.743652, 4185.127930, 4208.205078, 4198.461426, 4201.538574, 4212.820313, 4208.717773, 4210.256348, 4216.410156, 4240.000000, 4209.743652, 4204.615234, 4215.384277, 4204.102539, 0.000000, 8202.000000, 8187.000000, 0.000000, 0.000000, 0.000000, -20993.000000, 826.666626, 4.000000, 4.000000, 4.000000, 4.000000, 4.000000, 4.000000, 4.000000, 4.000000, 4.000000, 4.000000, 4.000000, 4.000000, 4.000000, 4.000000, 4.000000, 4.000000
43.000000, 0.000000, 4198.461426, 4185.641113, 4206.666504, 4203.589844, 4210.769043, 4213.846191, 4211.794922, 4215.384277, 4229.743652, 4243.589844, 4206.666504, 4201.025391, 4220.000000, 4204.615234, 0.000000, 8198.000000, 8194.000000, 0.000000, 0.000000, 0.000000, -20993.000000, 834.358948, 4.000000, 4.000000, 4.000000, 4.000000, 4.000000, 4.000000, 4.000000, 4.000000, 4.000000, 4.000000, 4.000000, 4.000000, 4.000000, 4.000000, 4.000000, 4.000000
44.000000, 0.000000, 4196.410156, 4184.102539, 4200.512695, 4197.948730, 4231.281738, 4220.000000, 4221.538574, 4221.025391, 4228.205078, 4231.794922, 4202.563965, 4191.794922, 4216.922852, 4206.666504, 0.000000, 8198.000000, 8194.000000, 0.000000, 0.000000, 0.000000, -20993.000000, 842.564087, 4.000000, 4.000000, 4.000000, 4.000000, 4.000000, 4.000000, 4.000000, 4.000000, 4.000000, 4.000000, 4.000000, 4.000000, 4.000000, 4.000000, 4.000000, 4.000000
45.000000, 0.000000, 4189.743652, 4184.102539, 4198.974121, 4187.692383, 4220.000000, 4215.897461, 4215.384277, 4214.871582, 4213.846191, 4220.512695, 4194.871582, 4180.000000, 4202.051270, 4202.051270, 0.000000, 8197.000000, 8192.000000, 0.000000, 0.000000, 0.000000, -20993.000000, 850.256409, 4.000000, 4.000000, 4.000000, 4.000000, 4.000000, 4.000000, 4.000000, 4.000000, 4.000000, 4.000000, 4.000000, 4.000000, 4.000000, 4.000000, 4.000000, 4.000000
46.000000, 0.000000, 4193.846191, 4183.589844, 4200.000000, 4188.717773, 4203.589844, 4206.153809, 4210.256348, 4207.179199, 4213.333008, 4218.974121, 4192.307617, 4183.589844, 4200.000000, 4196.922852, 0.000000, 8197.000000, 8192.000000, 0.000000, 0.000000, 0.000000, -20993.000000, 857.948669, 4.000000, 4.000000, 4.000000, 4.000000, 4.000000, 4.000000, 4.000000, 4.000000, 4.000000, 4.000000, 4.000000, 4.000000, 4.000000, 4.000000, 4.000000, 4.000000
47.000000, 0.000000, 4194.871582, 4181.025391, 4202.051270, 4197.436035, 4208.205078, 4205.641113, 4216.922852, 4208.717773, 4218.974121, 4222.563965, 4197.948730, 4190.256348, 4208.717773, 4203.589844, 0.000000, 8188.000000, 8192.000000, 0.000000, 0.000000, 0.000000, -20993.000000, 866.153809, 4.000000, 4.000000, 4.000000, 4.000000, 4.000000, 4.000000, 4.000000, 4.000000, 4.000000, 4.000000, 4.000000, 4.000000, 4.000000, 4.000000, 4.000000, 4.000000
48.000000, 0.000000, 4198.461426, 4184.615234, 4202.051270, 4197.948730, 4204.102539, 4208.205078, 4212.820313, 4212.820313, 4213.333008, 4230.256348, 4202.051270, 4183.589844, 4209.743652, 4205.127930, 0.000000, 8188.000000, 8192.000000, 0.000000, 0.000000, 0.000000, -20993.000000, 873.846130, 4.000000, 4.000000, 4.000000, 4.000000, 4.000000, 4.000000, 4.000000, 4.000000, 4.000000, 4.000000, 4.000000, 4.000000, 4.000000, 4.000000, 4.000000, 4.000000
49.000000, 0.000000, 4204.102539, 4192.820313, 4199.487305, 4197.436035, 4204.615234, 4203.589844, 4197.948730, 4211.281738, 4211.794922, 4231.794922, 4209.230469, 4184.615234, 4213.333008, 4206.153809, 0.000000, 8176.000000, 8191.000000, 0.000000, 0.000000, 0.000000, -20993.000000, 882.051270, 4.000000, 4.000000, 4.000000, 4.000000, 4.000000, 4.000000, 4.000000, 4.000000, 4.000000, 4.000000, 4.000000, 4.000000, 4.000000, 4.000000, 4.000000, 4.000000
50.000000, 0.000000, 4211.794922, 4194.871582, 4201.025391, 4203.076660, 4221.025391, 4197.436035, 4187.179199, 4203.589844, 4209.230469, 4219.487305, 4215.384277, 4195.384277, 4219.487305, 4205.127930, 0.000000, 8176.000000, 8191.000000, 0.000000, 0.000000, 0.000000, -20993.000000, 889.743591, 4.000000, 4.000000, 4.000000, 4.000000, 4.000000, 4.000000, 4.000000, 4.000000, 4.000000, 4.000000, 4.000000, 4.000000, 4.000000, 4.000000, 4.000000, 4.000000
51.000000, 0.000000, 4208.717773, 4187.179199, 4200.512695, 4199.487305, 4219.487305, 4197.436035, 4184.102539, 4190.256348, 4190.769043, 4202.563965, 4201.538574, 4188.717773, 4202.563965, 4197.436035, 0.000000, 8181.000000, 8188.000000, 0.000000, 0.000000, 0.000000, -20993.000000, 897.948669, 4.000000, 4.000000, 4.000000, 4.000000, 4.000000, 4.000000, 4.000000, 4.000000, 4.000000, 4.000000, 4.000000, 4.000000, 4.000000, 4.000000, 4.000000, 4.000000
52.000000, 0.000000, 4195.897461, 4180.000000, 4199.487305, 4189.743652, 4213.846191, 4206.666504, 4197.948730, 4190.256348, 4182.051270, 4194.871582, 4187.179199, 4181.538574, 4180.000000, 4198.974121, 0.000000, 8181.000000, 8188.000000, 0.000000, 0.000000, 0.000000, -20993.000000, 905.640991, 4.000000, 4.000000, 4.000000, 4.000000, 4.000000, 4.000000, 4.000000, 4.000000, 4.000000, 4.000000, 4.000000, 4.000000, 4.000000, 4.000000, 4.000000, 4.000000
53.000000, 0.000000, 4198.974121, 4180.000000, 4205.127930, 4188.205078, 4217.948730, 4217.948730, 4215.384277, 4209.743652, 4200.000000, 4202.563965, 4197.948730, 4190.256348, 4186.666504, 4203.589844, 0.000000, 8177.000000, 8179.000000, 0.000000, 0.000000, 0.000000, -20993.000000, 913.333313, 4.000000, 4.000000, 4.000000, 4.000000, 4.000000, 4.000000, 4.000000, 4.000000, 4.000000, 4.000000, 4.000000, 4.000000, 4.000000, 4.000000, 4.000000, 4.000000
54.000000, 0.000000, 4200.000000, 4176.922852, 4202.051270, 4187.692383, 4204.102539, 4214.871582, 4212.307617, 4223.076660, 4221.538574, 4223.076660, 4210.769043, 4195.384277, 4203.076660, 4207.179199, 0.000000, 8177.000000, 8179.000000, 0.000000, 0.000000, 0.000000, -20993.000000, 921.025635, 4.000000, 4.000000, 4.000000, 4.000000, 4.000000, 4.000000, 4.000000, 4.000000, 4.000000, 4.000000, 4.000000, 4.000000, 4.000000, 4.000000, 4.000000, 4.000000
55.000000, 0.000000, 4196.922852, 4175.897461, 4188.205078, 4183.589844, 4191.794922, 4203.076660, 4201.025391, 4211.281738, 4217.436035, 4233.846191, 4206.153809, 4186.666504, 4202.563965, 4206.153809, 0.000000, 8177.000000, 8176.000000, 0.000000, 0.000000, 0.000000, -20993.000000, 929.230774, 4.000000, 4.000000, 4.000000, 4.000000, 4.000000, 4.000000, 4.000000, 4.000000, 4.000000, 4.000000, 4.000000, 4.000000, 4.000000, 4.000000, 4.000000, 4.000000
56.000000, 0.000000, 4204.615234, 4183.589844, 4189.230469, 4184.615234, 4209.743652, 4201.538574, 4200.000000, 4192.307617, 4201.538574, 4222.563965, 4200.512695, 4182.051270, 4198.461426, 4198.974121, 0.000000, 8177.000000, 8176.000000, 0.000000, 0.000000, 0.000000, -20993.000000, 937.435852, 4.000000, 4.000000, 4.000000, 4.000000, 4.000000, 4.000000, 4.000000, 4.000000, 4.000000, 4.000000, 4.000000, 4.000000, 4.000000, 4.000000, 4.000000, 4.000000
57.000000, 0.000000, 4207.692383, 4188.717773, 4198.461426, 4190.256348, 4221.538574, 4202.051270, 4195.897461, 4185.127930, 4199.487305, 4214.358887, 4203.076660, 4190.769043, 4203.076660, 4201.025391, 0.000000, 8187.000000, 8172.000000, 0.000000, 0.000000, 0.000000, -20993.000000, 945.128174, 4.000000, 4.000000, 4.000000, 4.000000, 4.000000, 4.000000, 4.000000, 4.000000, 4.000000, 4.000000, 4.000000, 4.000000, 4.000000, 4.000000, 4.000000, 4.000000
58.000000, 0.000000, 4209.230469, 4187.179199, 4198.461426, 4190.256348, 4211.794922, 4202.051270, 4189.743652, 4186.153809, 4199.487305, 4215.897461, 4202.051270, 4195.897461, 4203.076660, 4205.127930, 0.000000, 8187.000000, 8172.000000, 0.000000, 0.000000, 0.000000, -20993.000000, 952.820496, 4.000000, 4.000000, 4.000000, 4.000000, 4.000000, 4.000000, 4.000000, 4.000000, 4.000000, 4.000000, 4.000000, 4.000000, 4.000000, 4.000000, 4.000000, 4.000000
59.000000, 0.000000, 4205.641113, 4183.076660, 4192.307617, 4185.127930, 4201.538574, 4204.102539, 4195.897461, 4186.666504, 4192.820313, 4215.897461, 4201.538574, 4191.794922, 4200.000000, 4204.615234, 0.000000, 8184.000000, 8169.000000, 0.000000, 0.000000, 0.000000, -20993.000000, 961.025635, 4.000000, 4.000000, 4.000000, 4.000000, 4.000000, 4.000000, 4.000000, 4.000000, 4.000000, 4.000000, 4.000000, 4.000000, 4.000000, 4.000000, 4.000000, 4.000000
60.000000, 0.000000, 4205.641113, 4184.615234, 4189.743652, 4182.051270, 4198.461426, 4202.051270, 4195.897461, 4184.102539, 4191.281738, 4227.692383, 4204.615234, 4192.820313, 4201.538574, 4204.102539, 0.000000, 8184.000000, 8169.000000, 0.000000, 0.000000, 0.000000, -20993.000000, 968.717896, 4.000000, 4.000000, 4.000000, 4.000000, 4.000000, 4.000000, 4.000000, 4.000000, 4.000000, 4.000000, 4.000000, 4.000000, 4.000000, 4.000000, 4.000000, 4.000000
61.000000, 0.000000, 4215.897461, 4188.717773, 4197.948730, 4188.205078, 4207.179199, 4199.487305, 4185.127930, 4190.256348, 4197.948730, 4247.692383, 4205.641113, 4200.000000, 4207.692383, 4203.589844, 0.000000, 8183.000000, 8165.000000, 0.000000, 0.000000, 0.000000, -20993.000000, 976.923035, 4.000000, 4.000000, 4.000000, 4.000000, 4.000000, 4.000000, 4.000000, 4.000000, 4.000000, 4.000000, 4.000000, 4.000000, 4.000000, 4.000000, 4.000000, 4.000000
62.000000, 0.000000, 4220.000000, 4189.230469, 4206.666504, 4198.461426, 4219.487305, 4205.127930, 4188.205078, 4200.000000, 4206.666504, 4253.333008, 4210.256348, 4206.153809, 4215.384277, 4207.179199, 0.000000, 8183.000000, 8165.000000, 0.000000, 0.000000, 0.000000, -20993.000000, 984.615356, 4.000000, 4.000000, 4.000000, 4.000000, 4.000000, 4.000000, 4.000000, 4.000000, 4.000000, 4.000000, 4.000000, 4.000000, 4.000000, 4.000000, 4.000000, 4.000000
63.000000, 0.000000, 4225.641113, 4192.307617, 4209.230469, 4202.563965, 4217.948730, 4204.102539, 4198.461426, 4205.641113, 4209.230469, 4249.230469, 4214.871582, 4208.205078, 4220.000000, 4205.641113, 0.000000, 8193.000000, 8158.000000, 0.000000, 0.000000, 0.000000, -20993.000000, 992.307678, 4.000000, 4.000000, 4.000000, 4.000000, 4.000000, 4.000000, 4.000000, 4.000000, 4.000000, 4.000000, 4.000000, 4.000000, 4.000000, 4.000000, 4.000000, 4.000000
64.000000, 0.000000, 4228.205078, 4196.410156, 4210.256348, 4200.000000, 4214.871582, 4199.487305, 4200.000000, 4213.333008, 4206.153809, 4249.743652, 4214.358887, 4209.743652, 4218.461426, 4204.615234, 3357.000000, 8193.000000, 8158.000000, 0.000000, 0.000000, 0.000000, -20992.000000, 0.000000, 4.000000, 4.000000, 4.000000, 4.000000, 4.000000, 4.000000, 4.000000, 4.000000, 4.000000, 4.000000, 4.000000, 4.000000, 4.000000, 4.000000, 4.000000, 4.000000
65.000000, 0.000000, 4224.615234, 4193.333008, 4209.743652, 4198.974121, 4216.922852, 4206.666504, 4205.127930, 4220.512695, 4208.717773, 4251.281738, 4213.846191, 4204.615234, 4216.410156, 4208.717773, 3507.000000, 8186.000000, 8158.000000, 0.000000, 0.000000, 0.000000, -20992.000000, 8.205128, 4.000000, 4.000000, 4.000000, 4.000000, 4.000000, 4.000000, 4.000000, 4.000000, 4.000000, 4.000000, 4.000000, 4.000000, 4.000000, 4.000000, 4.000000, 4.000000
66.000000, 0.000000, 4228.717773, 4193.333008, 4205.127930, 4200.000000, 4206.666504, 4214.358887, 4210.256348, 4213.846191, 4216.922852, 4249.743652, 4211.794922, 4199.487305, 4218.461426, 4203.589844, 2525.000000, 8186.000000, 8158.000000, 0.000000, 0.000000, 0.000000, -20992.000000, 15.897435, 4.000000, 4.000000, 4.000000, 4.000000, 4.000000, 4.000000, 4.000000, 4.000000, 4.000000, 4.000000, 4.000000, 4.000000, 4.000000, 4.000000, 4.000000, 4.000000
67.000000, 0.000000, 4227.692383, 4197.948730, 4204.615234, 4201.025391, 4198.461426, 4210.769043, 4206.666504, 4207.692383, 4220.512695, 4250.256348, 4211.794922, 4202.563965, 4221.025391, 4201.538574, 2141.000000, 8192.000000, 8150.000000, 0.000000, 0.000000, 0.000000, -20992.000000, 24.102564, 4.000000, 4.000000, 4.000000, 4.000000, 4.000000, 4.000000, 4.000000, 4.000000, 4.000000, 4.000000, 4.000000, 4.000000, 4.000000, 4.000000, 4.000000, 4.000000
68.000000, 0.000000, 4227.692383, 4192.820313, 4206.153809, 4202.563965, 4207.692383, 4203.589844, 4199.487305, 4209.230469, 4213.333008, 4253.846191, 4212.820313, 4201.025391, 4219.487305, 4203.076660, 3531.000000, 8192.000000, 8150.000000, 0.000000, 0.000000, 0.000000, -20992.000000, 31.794870, 4.000000, 4.000000, 4.000000, 4.000000, 4.000000, 4.000000, 4.000000, 4.000000, 4.000000, 4.000000, 4.000000, 4.000000, 4.000000, 4.000000, 4.000000, 4.000000
69.000000, 0.000000, 4230.769043, 4189.743652, 4202.563965, 4201.025391, 4214.358887, 4201.025391, 4195.384277, 4209.230469, 4206.666504, 4254.358887, 4210.256348, 4198.974121, 4215.897461, 4204.102539, 3540.000000, 8188.000000, 8153.000000, 0.000000, 0.000000, 0.000000, -20992.000000, 40.000000, 4.000000, 4.000000, 4.000000, 4.000000, 4.000000, 4.000000, 4.000000, 4.000000, 4.000000, 4.000000, 4.000000, 4.000000, 4.000000, 4.000000, 4.000000, 4.000000
70.000000, 0.000000, 4230.256348, 4198.461426, 4197.436035, 4196.410156, 4212.820313, 4203.589844, 4195.384277, 4209.743652, 4207.179199, 4249.230469, 4205.641113, 4201.538574, 4213.846191, 4206.666504, 3126.000000, 8188.000000, 8153.000000, 0.000000, 0.000000, 0.000000, -20992.000000, 47.692307, 4.000000, 4.000000, 4.000000, 4.000000, 4.000000, 4.000000, 4.000000, 4.000000, 4.000000, 4.000000, 4.000000, 4.000000, 4.000000, 4.000000, 4.000000, 4.000000
71.000000, 0.000000, 4233.333008, 4201.025391, 4194.871582, 4195.384277, 4212.307617, 4205.641113, 4199.487305, 4212.820313, 4209.230469, 4242.563965, 4207.179199, 4196.922852, 4215.384277, 4203.589844, 3512.000000, 8190.000000, 8153.000000, 0.000000, 0.000000, 0.000000, -20992.000000, 55.897434, 4.000000, 4.000000, 4.000000, 4.000000, 4.000000, 4.000000, 4.000000, 4.000000, 4.000000, 4.000000, 4.000000, 4.000000, 4.000000, 4.000000, 4.000000, 4.000000
72.000000, 0.000000, 4228.205078, 4190.769043, 4194.358887, 4191.794922, 4197.436035, 4202.051270, 4202.051270, 4210.256348, 4203.589844, 4229.230469, 4205.641113, 4193.846191, 4212.307617, 4205.127930, 3518.000000, 8190.000000, 8153.000000, 0.000000, 0.000000, 0.000000, -20992.000000, 63.589741, 4.000000, 4.000000, 4.000000, 4.000000, 4.000000, 4.000000, 4.000000, 4.000000, 4.000000, 4.000000, 4.000000, 4.000000, 4.000000, 4.000000, 4.000000, 4.000000
73.000000, 0.000000, 4223.589844, 4183.076660, 4196.410156, 4181.538574, 4185.127930, 4198.461426, 4197.436035, 4202.051270, 4197.436035, 4217.948730, 4198.974121, 4195.897461, 4202.563965, 4206.666504, 3535.000000, 8188.000000, 8165.000000, 0.000000, 0.000000, 0.000000, -20992.000000, 71.794868, 4.000000, 4.000000, 4.000000, 4.000000, 4.000000, 4.000000, 4.000000, 4.000000, 4.000000, 4.000000, 4.000000, 4.000000, 4.000000, 4.000000, 4.000000, 4.000000
74.000000, 0.000000, 4231.794922, 4190.256348, 4199.487305, 4184.102539, 4203.076660, 4202.051270, 4192.307617, 4199.487305, 4200.000000, 4219.487305, 4200.512695, 4194.358887, 4203.076660, 4205.641113, 3565.000000, 8188.000000, 8165.000000, 0.000000, 0.000000, 0.000000, -20992.000000, 79.487175, 4.000000, 4.000000, 4.000000, 4.000000, 4.000000, 4.000000, 4.000000, 4.000000, 4.000000, 4.000000, 4.000000, 4.000000, 4.000000, 4.000000, 4.000000, 4.000000
75.000000, 0.000000, 4237.436035, 4201.538574, 4198.974121, 4197.948730, 4221.538574, 4205.127930, 4194.358887, 4205.641113, 4202.563965, 4219.487305, 4206.153809, 4194.358887, 4211.281738, 4209.230469, 554.000000, 8189.000000, 8160.000000, 0.000000, 0.000000, 0.000000, -20992.000000, 87.179482, 4.000000, 4.000000, 4.000000, 4.000000, 4.000000, 4.000000, 4.000000, 4.000000, 4.000000, 4.000000, 4.000000, 4.000000, 4.000000, 4.000000, 4.000000, 4.000000
76.000000, 0.000000, 4242.563965, 4208.205078, 4196.410156, 4203.589844, 4218.461426, 4202.563965, 4193.333008, 4216.922852, 4204.615234, 4218.974121, 4205.127930, 4197.948730, 4209.743652, 4208.205078, 3474.000000, 8189.000000, 8160.000000, 0.000000, 0.000000, 0.000000, -20992.000000, 94.871796, 4.000000, 4.000000, 4.000000, 4.000000, 4.000000, 4.000000, 4.000000, 4.000000, 4.000000, 4.000000, 4.000000, 4.000000, 4.000000, 4.000000, 4.000000, 4.000000
77.000000, 0.000000, 4244.102539, 4211.794922, 4191.281738, 4200.000000, 4214.358887, 4201.538574, 4194.871582, 4221.025391, 4206.666504, 4230.769043, 4202.563965, 4198.461426, 4204.102539, 4205.641113, 3405.000000, 8190.000000, 8174.000000, 0.000000, 0.000000, 0.000000, -20992.000000, 103.076920, 4.000000, 4.000000, 4.000000, 4.000000, 4.000000, 4.000000, 4.000000, 4.000000, 4.000000, 4.000000, 4.000000, 4.000000, 4.000000, 4.000000, 4.000000, 4.000000
78.000000, 0.000000, 4251.281738, 4218.461426, 4191.794922, 4201.025391, 4215.897461, 4210.256348, 4202.563965, 4214.358887, 4201.538574, 4234.358887, 4197.948730, 4198.974121, 4201.538574, 4204.615234, 3565.000000, 8190.000000, 8174.000000, 0.000000, 0.000000, 0.000000, -20992.000000, 110.769226, 4.000000, 4.000000, 4.000000, 4.000000, 4.000000, 4.000000, 4.000000, 4.000000, 4.000000, 4.000000, 4.000000, 4.000000, 4.000000, 4.000000, 4.000000, 4.000000
