title:winkLeft9, recorded:16.05.18 20.21.37, timestamp started:2018-05-12T20:28:52.032863+02:00            , sampling:128, subject:Noé, labels:COUNTER INTERPOLATED AF3 F7 F3 FC5 T7 P7 O1 O2 P8 T8 FC6 F4 F8 AF4 RAW_CQ GYROX GYROY MARKER MARKER_HARDWARE SYNC TIME_STAMP_s TIME_STAMP_ms CQ_AF3 CQ_F7 CQ_F3 CQ_FC5 CQ_T7 CQ_P7 CQ_O1 CQ_O2 CQ_P8 CQ_T8 CQ_FC6 CQ_F4 CQ_F8 CQ_AF4 CQ_CMS CQ_DRL, chan:40, samples:7168, units:emotiv
71.000000, 0.000000, 4221.025391, 4160.512695, 4182.051270, 4174.358887, 4188.205078, 4208.717773, 4196.922852, 4209.743652, 4203.589844, 4185.641113, 4194.871582, 4195.897461, 4213.846191, 4202.563965, 3196.000000, 8224.000000, 8151.000000, 0.000000, 0.000000, 0.000000, 17486.000000, 45.128204, 4.000000, 4.000000, 4.000000, 4.000000, 4.000000, 4.000000, 4.000000, 4.000000, 4.000000, 4.000000, 4.000000, 4.000000, 4.000000, 4.000000, 4.000000, 4.000000
72.000000, 0.000000, 4243.589844, 4189.743652, 4193.846191, 4192.307617, 4185.641113, 4206.153809, 4194.871582, 4210.256348, 4211.281738, 4194.871582, 4206.666504, 4208.717773, 4221.538574, 4213.846191, 3525.000000, 8224.000000, 8151.000000, 0.000000, 0.000000, 0.000000, 17486.000000, 52.820511, 4.000000, 4.000000, 4.000000, 4.000000, 4.000000, 4.000000, 4.000000, 4.000000, 4.000000, 4.000000, 4.000000, 4.000000, 4.000000, 4.000000, 4.000000, 4.000000
73.000000, 0.000000, 4247.692383, 4200.000000, 4205.641113, 4201.538574, 4189.743652, 4205.641113, 4199.487305, 4211.794922, 4209.743652, 4190.769043, 4210.256348, 4214.358887, 4221.025391, 4213.333008, 3285.000000, 8215.000000, 8143.000000, 0.000000, 0.000000, 0.000000, 17486.000000, 61.025639, 4.000000, 4.000000, 4.000000, 4.000000, 4.000000, 4.000000, 4.000000, 4.000000, 4.000000, 4.000000, 4.000000, 4.000000, 4.000000, 4.000000, 4.000000, 4.000000
74.000000, 0.000000, 4250.256348, 4207.179199, 4203.589844, 4198.461426, 4189.230469, 4202.051270, 4191.281738, 4214.358887, 4206.666504, 4190.256348, 4200.512695, 4212.820313, 4215.897461, 4203.076660, 3142.000000, 8215.000000, 8143.000000, 0.000000, 0.000000, 0.000000, 17486.000000, 68.717949, 4.000000, 4.000000, 4.000000, 4.000000, 4.000000, 4.000000, 4.000000, 4.000000, 4.000000, 4.000000, 4.000000, 4.000000, 4.000000, 4.000000, 4.000000, 4.000000
75.000000, 0.000000, 4273.846191, 4218.461426, 4199.487305, 4200.512695, 4173.333008, 4198.974121, 4185.641113, 4214.358887, 4205.127930, 4198.461426, 4198.974121, 4222.051270, 4224.102539, 4224.102539, 1713.000000, 8216.000000, 8144.000000, 0.000000, 0.000000, 0.000000, 17486.000000, 76.410255, 4.000000, 4.000000, 4.000000, 4.000000, 4.000000, 4.000000, 4.000000, 4.000000, 4.000000, 4.000000, 4.000000, 4.000000, 4.000000, 4.000000, 4.000000, 4.000000
76.000000, 0.000000, 4288.717773, 4232.307617, 4207.692383, 4213.846191, 4182.051270, 4207.692383, 4199.487305, 4225.127930, 4218.461426, 4212.307617, 4214.358887, 4223.589844, 4237.948730, 4233.333008, 3475.000000, 8216.000000, 8144.000000, 0.000000, 0.000000, 0.000000, 17486.000000, 84.615379, 4.000000, 4.000000, 4.000000, 4.000000, 4.000000, 4.000000, 4.000000, 4.000000, 4.000000, 4.000000, 4.000000, 4.000000, 4.000000, 4.000000, 4.000000, 4.000000
77.000000, 0.000000, 4279.487305, 4237.436035, 4215.384277, 4214.871582, 4202.051270, 4217.948730, 4210.256348, 4236.922852, 4229.230469, 4213.333008, 4215.897461, 4222.563965, 4231.794922, 4218.461426, 2491.000000, 8214.000000, 8153.000000, 0.000000, 0.000000, 0.000000, 17486.000000, 92.307693, 4.000000, 4.000000, 4.000000, 4.000000, 4.000000, 4.000000, 4.000000, 4.000000, 4.000000, 4.000000, 4.000000, 4.000000, 4.000000, 4.000000, 4.000000, 4.000000
78.000000, 0.000000, 4276.922852, 4234.358887, 4218.461426, 4205.641113, 4195.384277, 4215.897461, 4202.563965, 4232.820313, 4227.692383, 4205.127930, 4205.127930, 4220.000000, 4220.000000, 4208.717773, 3142.000000, 8214.000000, 8153.000000, 0.000000, 0.000000, 0.000000, 17486.000000, 100.000000, 4.000000, 4.000000, 4.000000, 4.000000, 4.000000, 4.000000, 4.000000, 4.000000, 4.000000, 4.000000, 4.000000, 4.000000, 4.000000, 4.000000, 4.000000, 4.000000
79.000000, 0.000000, 4278.974121, 4231.281738, 4216.410156, 4203.589844, 4184.615234, 4201.538574, 4189.230469, 4220.000000, 4219.487305, 4201.538574, 4200.000000, 4210.769043, 4215.384277, 4202.563965, 1713.000000, 8220.000000, 8161.000000, 0.000000, 0.000000, 0.000000, 17486.000000, 108.205124, 4.000000, 4.000000, 4.000000, 4.000000, 4.000000, 4.000000, 4.000000, 4.000000, 4.000000, 4.000000, 4.000000, 4.000000, 4.000000, 4.000000, 4.000000, 4.000000
80.000000, 0.000000, 4262.051270, 4223.076660, 4204.615234, 4198.974121, 4183.589844, 4195.384277, 4182.563965, 4214.358887, 4205.641113, 4191.794922, 4195.384277, 4203.589844, 4208.205078, 4202.563965, 3475.000000, 8220.000000, 8161.000000, 0.000000, 0.000000, 0.000000, 17486.000000, 115.897430, 4.000000, 4.000000, 4.000000, 4.000000, 4.000000, 4.000000, 4.000000, 4.000000, 4.000000, 4.000000, 4.000000, 4.000000, 4.000000, 4.000000, 4.000000, 4.000000
81.000000, 0.000000, 4248.717773, 4212.820313, 4195.384277, 4191.281738, 4172.307617, 4199.487305, 4193.846191, 4219.487305, 4198.974121, 4178.461426, 4189.230469, 4198.461426, 4198.461426, 4196.922852, 2491.000000, 8222.000000, 8166.000000, 0.000000, 0.000000, 0.000000, 17486.000000, 124.102562, 4.000000, 4.000000, 4.000000, 4.000000, 4.000000, 4.000000, 4.000000, 4.000000, 4.000000, 4.000000, 4.000000, 4.000000, 4.000000, 4.000000, 4.000000, 4.000000
82.000000, 0.000000, 4250.769043, 4212.820313, 4200.512695, 4196.922852, 4163.589844, 4205.127930, 4202.563965, 4218.461426, 4204.102539, 4178.461426, 4188.205078, 4203.076660, 4197.948730, 4202.051270, 3142.000000, 8222.000000, 8166.000000, 0.000000, 0.000000, 0.000000, 17486.000000, 131.794876, 4.000000, 4.000000, 4.000000, 4.000000, 4.000000, 4.000000, 4.000000, 4.000000, 4.000000, 4.000000, 4.000000, 4.000000, 4.000000, 4.000000, 4.000000, 4.000000
83.000000, 0.000000, 4248.717773, 4216.410156, 4205.641113, 4204.615234, 4183.076660, 4214.358887, 4198.461426, 4205.641113, 4208.717773, 4189.743652, 4183.076660, 4201.538574, 4200.000000, 4204.615234, 1713.000000, 8229.000000, 8181.000000, 0.000000, 0.000000, 0.000000, 17486.000000, 140.000000, 4.000000, 4.000000, 4.000000, 4.000000, 4.000000, 4.000000, 4.000000, 4.000000, 4.000000, 4.000000, 4.000000, 4.000000, 4.000000, 4.000000, 4.000000, 4.000000
84.000000, 0.000000, 4247.692383, 4215.384277, 4199.487305, 4200.512695, 4204.102539, 4217.436035, 4207.692383, 4193.846191, 4202.563965, 4185.127930, 4172.820313, 4193.846191, 4198.461426, 4196.410156, 3475.000000, 8229.000000, 8181.000000, 0.000000, 0.000000, 0.000000, 17486.000000, 147.692307, 4.000000, 4.000000, 4.000000, 4.000000, 4.000000, 4.000000, 4.000000, 4.000000, 4.000000, 4.000000, 4.000000, 4.000000, 4.000000, 4.000000, 4.000000, 4.000000
85.000000, 0.000000, 4247.692383, 4213.333008, 4197.436035, 4197.436035, 4196.922852, 4214.871582, 4214.871582, 4196.410156, 4193.846191, 4176.922852, 4180.000000, 4197.948730, 4199.487305, 4202.563965, 2491.000000, 8238.000000, 8192.000000, 0.000000, 0.000000, 0.000000, 17486.000000, 155.384613, 4.000000, 4.000000, 4.000000, 4.000000, 4.000000, 4.000000, 4.000000, 4.000000, 4.000000, 4.000000, 4.000000, 4.000000, 4.000000, 4.000000, 4.000000, 4.000000
86.000000, 0.000000, 4244.615234, 4208.717773, 4201.538574, 4200.512695, 4189.743652, 4220.000000, 4203.589844, 4207.179199, 4202.051270, 4186.153809, 4190.256348, 4196.410156, 4204.615234, 4200.000000, 3142.000000, 8238.000000, 8192.000000, 0.000000, 0.000000, 0.000000, 17486.000000, 163.589737, 4.000000, 4.000000, 4.000000, 4.000000, 4.000000, 4.000000, 4.000000, 4.000000, 4.000000, 4.000000, 4.000000, 4.000000, 4.000000, 4.000000, 4.000000, 4.000000
87.000000, 0.000000, 4241.025391, 4201.025391, 4198.974121, 4198.974121, 4188.717773, 4223.076660, 4196.922852, 4208.717773, 4208.717773, 4191.794922, 4177.948730, 4193.846191, 4196.410156, 4196.922852, 1713.000000, 8247.000000, 8195.000000, 0.000000, 0.000000, 0.000000, 17486.000000, 171.282043, 4.000000, 4.000000, 4.000000, 4.000000, 4.000000, 4.000000, 4.000000, 4.000000, 4.000000, 4.000000, 4.000000, 4.000000, 4.000000, 4.000000, 4.000000, 4.000000
88.000000, 0.000000, 4234.871582, 4195.897461, 4192.820313, 4192.307617, 4175.897461, 4214.358887, 4205.127930, 4198.974121, 4195.897461, 4178.974121, 4164.615234, 4192.820313, 4184.102539, 4201.538574, 3475.000000, 8247.000000, 8195.000000, 0.000000, 0.000000, 0.000000, 17486.000000, 178.974350, 4.000000, 4.000000, 4.000000, 4.000000, 4.000000, 4.000000, 4.000000, 4.000000, 4.000000, 4.000000, 4.000000, 4.000000, 4.000000, 4.000000, 4.000000, 4.000000
89.000000, 0.000000, 4236.922852, 4195.897461, 4198.974121, 4192.820313, 4175.897461, 4214.358887, 4204.102539, 4200.512695, 4193.846191, 4174.358887, 4177.948730, 4197.948730, 4192.820313, 4200.512695, 2491.000000, 8253.000000, 8201.000000, 0.000000, 0.000000, 0.000000, 17486.000000, 187.179489, 4.000000, 4.000000, 4.000000, 4.000000, 4.000000, 4.000000, 4.000000, 4.000000, 4.000000, 4.000000, 4.000000, 4.000000, 4.000000, 4.000000, 4.000000, 4.000000
90.000000, 0.000000, 4238.974121, 4198.461426, 4202.563965, 4196.922852, 4187.179199, 4213.333008, 4188.205078, 4207.179199, 4202.563965, 4181.025391, 4186.666504, 4206.153809, 4200.000000, 4206.666504, 3142.000000, 8253.000000, 8201.000000, 0.000000, 0.000000, 0.000000, 17486.000000, 194.871796, 4.000000, 4.000000, 4.000000, 4.000000, 4.000000, 4.000000, 4.000000, 4.000000, 4.000000, 4.000000, 4.000000, 4.000000, 4.000000, 4.000000, 4.000000, 4.000000
91.000000, 0.000000, 4234.358887, 4201.025391, 4188.717773, 4197.436035, 4185.127930, 4206.153809, 4186.153809, 4195.897461, 4191.794922, 4180.512695, 4171.794922, 4192.820313, 4190.769043, 4199.487305, 1713.000000, 8252.000000, 8203.000000, 0.000000, 0.000000, 0.000000, 17486.000000, 203.076920, 4.000000, 4.000000, 4.000000, 4.000000, 4.000000, 4.000000, 4.000000, 4.000000, 4.000000, 4.000000, 4.000000, 4.000000, 4.000000, 4.000000, 4.000000, 4.000000
92.000000, 0.000000, 4238.461426, 4202.051270, 4189.230469, 4198.461426, 4191.794922, 4210.769043, 4199.487305, 4188.717773, 4183.076660, 4180.512695, 4168.205078, 4193.333008, 4193.846191, 4199.487305, 3475.000000, 8252.000000, 8203.000000, 0.000000, 0.000000, 0.000000, 17486.000000, 210.769226, 4.000000, 4.000000, 4.000000, 4.000000, 4.000000, 4.000000, 4.000000, 4.000000, 4.000000, 4.000000, 4.000000, 4.000000, 4.000000, 4.000000, 4.000000, 4.000000
93.000000, 0.000000, 4240.512695, 4197.948730, 4201.025391, 4199.487305, 4204.615234, 4223.076660, 4205.641113, 4202.563965, 4197.948730, 4188.205078, 4180.000000, 4207.179199, 4204.102539, 4207.692383, 2491.000000, 8269.000000, 8198.000000, 0.000000, 0.000000, 0.000000, 17486.000000, 218.461533, 4.000000, 4.000000, 4.000000, 4.000000, 4.000000, 4.000000, 4.000000, 4.000000, 4.000000, 4.000000, 4.000000, 4.000000, 4.000000, 4.000000, 4.000000, 4.000000
94.000000, 0.000000, 4236.410156, 4200.512695, 4193.846191, 4197.436035, 4189.743652, 4225.127930, 4200.512695, 4206.153809, 4202.563965, 4188.205078, 4179.487305, 4196.922852, 4201.025391, 4199.487305, 3142.000000, 8269.000000, 8198.000000, 0.000000, 0.000000, 0.000000, 17486.000000, 226.666656, 4.000000, 4.000000, 4.000000, 4.000000, 4.000000, 4.000000, 4.000000, 4.000000, 4.000000, 4.000000, 4.000000, 4.000000, 4.000000, 4.000000, 4.000000, 4.000000
95.000000, 0.000000, 4238.974121, 4208.205078, 4185.641113, 4200.512695, 4175.384277, 4218.461426, 4197.948730, 4194.871582, 4193.846191, 4176.410156, 4173.333008, 4189.743652, 4197.948730, 4204.102539, 1713.000000, 8271.000000, 8191.000000, 0.000000, 0.000000, 0.000000, 17486.000000, 234.358963, 4.000000, 4.000000, 4.000000, 4.000000, 4.000000, 4.000000, 4.000000, 4.000000, 4.000000, 4.000000, 4.000000, 4.000000, 4.000000, 4.000000, 4.000000, 4.000000
96.000000, 0.000000, 4236.922852, 4188.717773, 4195.384277, 4196.922852, 4188.205078, 4220.512695, 4201.538574, 4198.461426, 4203.076660, 4177.436035, 4177.436035, 4192.820313, 4192.307617, 4204.102539, 3475.000000, 8271.000000, 8191.000000, 0.000000, 0.000000, 0.000000, 17486.000000, 242.051270, 4.000000, 4.000000, 4.000000, 4.000000, 4.000000, 4.000000, 4.000000, 4.000000, 4.000000, 4.000000, 4.000000, 4.000000, 4.000000, 4.000000, 4.000000, 4.000000
97.000000, 0.000000, 4227.692383, 4171.794922, 4203.076660, 4187.179199, 4197.436035, 4222.563965, 4198.974121, 4206.666504, 4208.205078, 4179.487305, 4174.871582, 4196.410156, 4184.102539, 4198.974121, 2491.000000, 8281.000000, 8180.000000, 0.000000, 0.000000, 0.000000, 17486.000000, 250.256409, 4.000000, 4.000000, 4.000000, 4.000000, 4.000000, 4.000000, 4.000000, 4.000000, 4.000000, 4.000000, 4.000000, 4.000000, 4.000000, 4.000000, 4.000000, 4.000000
98.000000, 0.000000, 4232.820313, 4201.025391, 4200.512695, 4192.820313, 4198.461426, 4211.794922, 4193.846191, 4198.461426, 4196.410156, 4170.769043, 4170.256348, 4198.974121, 4195.384277, 4207.179199, 3142.000000, 8281.000000, 8180.000000, 0.000000, 0.000000, 0.000000, 17486.000000, 257.948700, 4.000000, 4.000000, 4.000000, 4.000000, 4.000000, 4.000000, 4.000000, 4.000000, 4.000000, 4.000000, 4.000000, 4.000000, 4.000000, 4.000000, 4.000000, 4.000000
99.000000, 0.000000, 4244.615234, 4230.769043, 4198.461426, 4207.692383, 4188.717773, 4198.974121, 4181.025391, 4186.666504, 4187.692383, 4168.717773, 4175.384277, 4196.410156, 4200.512695, 4203.589844, 1713.000000, 8292.000000, 8170.000000, 0.000000, 0.000000, 0.000000, 17486.000000, 266.153839, 4.000000, 4.000000, 4.000000, 4.000000, 4.000000, 4.000000, 4.000000, 4.000000, 4.000000, 4.000000, 4.000000, 4.000000, 4.000000, 4.000000, 4.000000, 4.000000
100.000000, 0.000000, 4243.589844, 4230.769043, 4200.512695, 4212.307617, 4176.922852, 4205.127930, 4171.794922, 4185.127930, 4180.000000, 4167.179199, 4173.333008, 4198.461426, 4187.692383, 4205.641113, 3475.000000, 8292.000000, 8170.000000, 0.000000, 0.000000, 0.000000, 17486.000000, 273.846161, 4.000000, 4.000000, 4.000000, 4.000000, 4.000000, 4.000000, 4.000000, 4.000000, 4.000000, 4.000000, 4.000000, 4.000000, 4.000000, 4.000000, 4.000000, 4.000000
101.000000, 0.000000, 4241.025391, 4241.538574, 4205.127930, 4217.436035, 4191.281738, 4220.000000, 4182.051270, 4182.051270, 4172.820313, 4158.974121, 4164.102539, 4192.307617, 4182.051270, 4205.127930, 2491.000000, 8294.000000, 8161.000000, 0.000000, 0.000000, 0.000000, 17486.000000, 281.538452, 4.000000, 4.000000, 4.000000, 4.000000, 4.000000, 4.000000, 4.000000, 4.000000, 4.000000, 4.000000, 4.000000, 4.000000, 4.000000, 4.000000, 4.000000, 4.000000
102.000000, 0.000000, 4246.153809, 4257.436035, 4201.538574, 4221.538574, 4209.743652, 4214.871582, 4187.179199, 4171.794922, 4167.179199, 4152.307617, 4151.794922, 4185.641113, 4176.922852, 4197.436035, 3142.000000, 8294.000000, 8161.000000, 0.000000, 0.000000, 0.000000, 17486.000000, 289.743591, 4.000000, 4.000000, 4.000000, 4.000000, 4.000000, 4.000000, 4.000000, 4.000000, 4.000000, 4.000000, 4.000000, 4.000000, 4.000000, 4.000000, 4.000000, 4.000000
103.000000, 0.000000, 4238.461426, 4248.717773, 4193.333008, 4213.333008, 4199.487305, 4198.974121, 4177.948730, 4171.794922, 4160.000000, 4151.281738, 4138.461426, 4184.102539, 4165.127930, 4199.487305, 1713.000000, 8296.000000, 8158.000000, 0.000000, 0.000000, 0.000000, 17486.000000, 297.435883, 4.000000, 4.000000, 4.000000, 4.000000, 4.000000, 4.000000, 4.000000, 4.000000, 4.000000, 4.000000, 4.000000, 4.000000, 4.000000, 4.000000, 4.000000, 4.000000
104.000000, 0.000000, 4230.256348, 4247.179199, 4195.384277, 4209.230469, 4190.256348, 4197.948730, 4178.461426, 4182.051270, 4161.538574, 4153.333008, 4144.615234, 4178.974121, 4170.769043, 4197.436035, 3475.000000, 8296.000000, 8158.000000, 0.000000, 0.000000, 0.000000, 17486.000000, 305.641022, 4.000000, 4.000000, 4.000000, 4.000000, 4.000000, 4.000000, 4.000000, 4.000000, 4.000000, 4.000000, 4.000000, 4.000000, 4.000000, 4.000000, 4.000000, 4.000000
105.000000, 0.000000, 4234.871582, 4254.871582, 4203.589844, 4215.384277, 4197.948730, 4207.179199, 4190.256348, 4183.589844, 4169.743652, 4159.487305, 4162.563965, 4190.769043, 4186.666504, 4201.538574, 2491.000000, 8297.000000, 8161.000000, 0.000000, 0.000000, 0.000000, 17486.000000, 313.333313, 4.000000, 4.000000, 4.000000, 4.000000, 4.000000, 4.000000, 4.000000, 4.000000, 4.000000, 4.000000, 4.000000, 4.000000, 4.000000, 4.000000, 4.000000, 4.000000
106.000000, 0.000000, 4232.820313, 4248.205078, 4201.025391, 4217.948730, 4201.025391, 4210.769043, 4190.256348, 4186.153809, 4173.333008, 4165.127930, 4163.589844, 4193.846191, 4184.102539, 4199.487305, 3142.000000, 8297.000000, 8161.000000, 0.000000, 0.000000, 0.000000, 17486.000000, 321.538452, 4.000000, 4.000000, 4.000000, 4.000000, 4.000000, 4.000000, 4.000000, 4.000000, 4.000000, 4.000000, 4.000000, 4.000000, 4.000000, 4.000000, 4.000000, 4.000000
107.000000, 0.000000, 4227.179199, 4241.538574, 4197.436035, 4213.333008, 4191.794922, 4208.717773, 4184.102539, 4200.512695, 4178.461426, 4168.205078, 4160.512695, 4190.256348, 4180.512695, 4194.871582, 1713.000000, 8288.000000, 8155.000000, 0.000000, 0.000000, 0.000000, 17486.000000, 329.230774, 4.000000, 4.000000, 4.000000, 4.000000, 4.000000, 4.000000, 4.000000, 4.000000, 4.000000, 4.000000, 4.000000, 4.000000, 4.000000, 4.000000, 4.000000, 4.000000
108.000000, 0.000000, 4224.102539, 4242.051270, 4201.538574, 4211.794922, 4181.025391, 4212.820313, 4191.794922, 4208.205078, 4188.205078, 4171.281738, 4170.256348, 4199.487305, 4188.205078, 4203.076660, 3475.000000, 8288.000000, 8155.000000, 0.000000, 0.000000, 0.000000, 17486.000000, 337.435883, 4.000000, 4.000000, 4.000000, 4.000000, 4.000000, 4.000000, 4.000000, 4.000000, 4.000000, 4.000000, 4.000000, 4.000000, 4.000000, 4.000000, 4.000000, 4.000000
109.000000, 0.000000, 4223.589844, 4241.025391, 4204.615234, 4214.871582, 4181.538574, 4211.794922, 4206.153809, 4200.000000, 4188.205078, 4172.307617, 4173.333008, 4197.436035, 4189.230469, 4195.897461, 2491.000000, 8282.000000, 8149.000000, 0.000000, 0.000000, 0.000000, 17486.000000, 345.128204, 4.000000, 4.000000, 4.000000, 4.000000, 4.000000, 4.000000, 4.000000, 4.000000, 4.000000, 4.000000, 4.000000, 4.000000, 4.000000, 4.000000, 4.000000, 4.000000
110.000000, 0.000000, 4222.563965, 4234.358887, 4202.563965, 4213.846191, 4192.820313, 4203.589844, 4200.512695, 4195.897461, 4182.563965, 4165.127930, 4165.641113, 4195.897461, 4182.563965, 4195.897461, 3142.000000, 8282.000000, 8149.000000, 0.000000, 0.000000, 0.000000, 17486.000000, 353.333313, 4.000000, 4.000000, 4.000000, 4.000000, 4.000000, 4.000000, 4.000000, 4.000000, 4.000000, 4.000000, 4.000000, 4.000000, 4.000000, 4.000000, 4.000000, 4.000000
111.000000, 0.000000, 4220.000000, 4236.922852, 4201.538574, 4212.820313, 4202.051270, 4205.641113, 4182.051270, 4206.153809, 4187.692383, 4166.153809, 4167.692383, 4199.487305, 4184.102539, 4202.563965, 1713.000000, 8272.000000, 8149.000000, 0.000000, 0.000000, 0.000000, 17486.000000, 361.538452, 4.000000, 4.000000, 4.000000, 4.000000, 4.000000, 4.000000, 4.000000, 4.000000, 4.000000, 4.000000, 4.000000, 4.000000, 4.000000, 4.000000, 4.000000, 4.000000
112.000000, 0.000000, 4224.615234, 4247.692383, 4204.102539, 4216.410156, 4200.000000, 4215.897461, 4187.692383, 4204.102539, 4192.307617, 4176.922852, 4172.307617, 4202.051270, 4189.743652, 4197.948730, 3475.000000, 8272.000000, 8149.000000, 0.000000, 0.000000, 0.000000, 17486.000000, 369.230774, 4.000000, 4.000000, 4.000000, 4.000000, 4.000000, 4.000000, 4.000000, 4.000000, 4.000000, 4.000000, 4.000000, 4.000000, 4.000000, 4.000000, 4.000000, 4.000000
113.000000, 0.000000, 4226.153809, 4246.666504, 4206.153809, 4216.410156, 4191.794922, 4218.974121, 4204.102539, 4187.692383, 4181.538574, 4174.871582, 4168.205078, 4199.487305, 4188.717773, 4202.563965, 2491.000000, 8257.000000, 8143.000000, 0.000000, 0.000000, 0.000000, 17486.000000, 377.435883, 4.000000, 4.000000, 4.000000, 4.000000, 4.000000, 4.000000, 4.000000, 4.000000, 4.000000, 4.000000, 4.000000, 4.000000, 4.000000, 4.000000, 4.000000, 4.000000
114.000000, 0.000000, 4224.102539, 4242.051270, 4209.743652, 4216.922852, 4197.436035, 4217.436035, 4201.538574, 4187.692383, 4180.000000, 4171.281738, 4171.281738, 4192.307617, 4189.743652, 4201.538574, 3142.000000, 8257.000000, 8143.000000, 0.000000, 0.000000, 0.000000, 17486.000000, 385.128204, 4.000000, 4.000000, 4.000000, 4.000000, 4.000000, 4.000000, 4.000000, 4.000000, 4.000000, 4.000000, 4.000000, 4.000000, 4.000000, 4.000000, 4.000000, 4.000000
115.000000, 0.000000, 4227.179199, 4248.717773, 4216.410156, 4221.025391, 4211.281738, 4215.384277, 4193.846191, 4205.127930, 4190.256348, 4182.051270, 4182.051270, 4205.641113, 4195.897461, 4204.615234, 1713.000000, 8245.000000, 8144.000000, 0.000000, 0.000000, 0.000000, 17486.000000, 393.333313, 4.000000, 4.000000, 4.000000, 4.000000, 4.000000, 4.000000, 4.000000, 4.000000, 4.000000, 4.000000, 4.000000, 4.000000, 4.000000, 4.000000, 4.000000, 4.000000
116.000000, 0.000000, 4229.230469, 4256.922852, 4217.948730, 4222.051270, 4208.205078, 4216.922852, 4200.512695, 4213.333008, 4192.820313, 4190.256348, 4187.179199, 4214.871582, 4201.025391, 4209.743652, 3475.000000, 8245.000000, 8144.000000, 0.000000, 0.000000, 0.000000, 17486.000000, 401.025635, 4.000000, 4.000000, 4.000000, 4.000000, 4.000000, 4.000000, 4.000000, 4.000000, 4.000000, 4.000000, 4.000000, 4.000000, 4.000000, 4.000000, 4.000000, 4.000000
117.000000, 0.000000, 4228.717773, 4252.820313, 4217.948730, 4224.615234, 4201.025391, 4227.179199, 4208.717773, 4212.820313, 4195.384277, 4190.769043, 4187.692383, 4208.205078, 4198.461426, 4201.538574, 2491.000000, 8229.000000, 8140.000000, 0.000000, 0.000000, 0.000000, 17486.000000, 409.230774, 4.000000, 4.000000, 4.000000, 4.000000, 4.000000, 4.000000, 4.000000, 4.000000, 4.000000, 4.000000, 4.000000, 4.000000, 4.000000, 4.000000, 4.000000, 4.000000
118.000000, 0.000000, 4226.153809, 4244.615234, 4217.436035, 4228.717773, 4202.563965, 4230.769043, 4207.179199, 4209.230469, 4196.410156, 4182.563965, 4183.076660, 4206.666504, 4190.256348, 4199.487305, 3142.000000, 8229.000000, 8140.000000, 0.000000, 0.000000, 0.000000, 17486.000000, 417.435883, 4.000000, 4.000000, 4.000000, 4.000000, 4.000000, 4.000000, 4.000000, 4.000000, 4.000000, 4.000000, 4.000000, 4.000000, 4.000000, 4.000000, 4.000000, 4.000000
119.000000, 0.000000, 4221.025391, 4241.025391, 4207.179199, 4226.153809, 4193.846191, 4217.436035, 4200.000000, 4194.358887, 4177.436035, 4166.666504, 4173.333008, 4195.897461, 4186.153809, 4195.384277, 1713.000000, 8224.000000, 8136.000000, 0.000000, 0.000000, 0.000000, 17486.000000, 425.128204, 4.000000, 4.000000, 4.000000, 4.000000, 4.000000, 4.000000, 4.000000, 4.000000, 4.000000, 4.000000, 4.000000, 4.000000, 4.000000, 4.000000, 4.000000, 4.000000
120.000000, 0.000000, 4213.846191, 4236.922852, 4196.410156, 4210.769043, 4185.127930, 4209.230469, 4189.230469, 4183.076660, 4161.538574, 4162.051270, 4168.717773, 4185.641113, 4183.589844, 4197.948730, 3475.000000, 8224.000000, 8136.000000, 0.000000, 0.000000, 0.000000, 17486.000000, 433.333313, 4.000000, 4.000000, 4.000000, 4.000000, 4.000000, 4.000000, 4.000000, 4.000000, 4.000000, 4.000000, 4.000000, 4.000000, 4.000000, 4.000000, 4.000000, 4.000000
121.000000, 0.000000, 4209.743652, 4230.256348, 4198.461426, 4201.025391, 4200.000000, 4217.948730, 4181.025391, 4183.589844, 4166.666504, 4165.641113, 4165.127930, 4184.615234, 4174.871582, 4198.974121, 2491.000000, 8213.000000, 8131.000000, 0.000000, 0.000000, 0.000000, 17486.000000, 441.025635, 4.000000, 4.000000, 4.000000, 4.000000, 4.000000, 4.000000, 4.000000, 4.000000, 4.000000, 4.000000, 4.000000, 4.000000, 4.000000, 4.000000, 4.000000, 4.000000
122.000000, 0.000000, 4212.820313, 4223.076660, 4204.615234, 4211.794922, 4216.410156, 4227.179199, 4190.769043, 4187.179199, 4174.358887, 4161.538574, 4156.922852, 4188.717773, 4167.692383, 4191.794922, 3142.000000, 8213.000000, 8131.000000, 0.000000, 0.000000, 0.000000, 17486.000000, 449.230743, 4.000000, 4.000000, 4.000000, 4.000000, 4.000000, 4.000000, 4.000000, 4.000000, 4.000000, 4.000000, 4.000000, 4.000000, 4.000000, 4.000000, 4.000000, 4.000000
123.000000, 0.000000, 4211.794922, 4222.563965, 4205.127930, 4215.384277, 4208.205078, 4224.102539, 4203.076660, 4196.922852, 4183.589844, 4167.692383, 4162.563965, 4203.076660, 4181.538574, 4206.153809, 1713.000000, 8211.000000, 8128.000000, 0.000000, 0.000000, 0.000000, 17486.000000, 456.923065, 4.000000, 4.000000, 4.000000, 4.000000, 4.000000, 4.000000, 4.000000, 4.000000, 4.000000, 4.000000, 4.000000, 4.000000, 4.000000, 4.000000, 4.000000, 4.000000
124.000000, 0.000000, 4210.769043, 4229.743652, 4204.102539, 4204.102539, 4201.025391, 4216.410156, 4192.820313, 4203.076660, 4195.384277, 4188.717773, 4186.153809, 4204.615234, 4203.589844, 4211.281738, 3475.000000, 8211.000000, 8128.000000, 0.000000, 0.000000, 0.000000, 17486.000000, 465.128204, 4.000000, 4.000000, 4.000000, 4.000000, 4.000000, 4.000000, 4.000000, 4.000000, 4.000000, 4.000000, 4.000000, 4.000000, 4.000000, 4.000000, 4.000000, 4.000000
125.000000, 0.000000, 4216.922852, 4231.794922, 4201.538574, 4203.076660, 4196.410156, 4203.589844, 4180.000000, 4200.000000, 4190.256348, 4193.846191, 4200.000000, 4203.589844, 4208.717773, 4203.076660, 2491.000000, 8210.000000, 8127.000000, 0.000000, 0.000000, 0.000000, 17486.000000, 472.820496, 4.000000, 4.000000, 4.000000, 4.000000, 4.000000, 4.000000, 4.000000, 4.000000, 4.000000, 4.000000, 4.000000, 4.000000, 4.000000, 4.000000, 4.000000, 4.000000
126.000000, 0.000000, 4219.487305, 4231.794922, 4205.127930, 4216.410156, 4184.615234, 4195.897461, 4183.589844, 4197.436035, 4186.153809, 4187.692383, 4196.922852, 4206.666504, 4203.589844, 4207.179199, 3142.000000, 8210.000000, 8127.000000, 0.000000, 0.000000, 0.000000, 17486.000000, 481.025635, 4.000000, 4.000000, 4.000000, 4.000000, 4.000000, 4.000000, 4.000000, 4.000000, 4.000000, 4.000000, 4.000000, 4.000000, 4.000000, 4.000000, 4.000000, 4.000000
127.000000, 0.000000, 4221.538574, 4241.538574, 4213.846191, 4227.179199, 4191.794922, 4208.717773, 4187.692383, 4199.487305, 4197.948730, 4195.384277, 4195.897461, 4203.589844, 4203.589844, 4205.641113, 55.000000, 8208.000000, 8134.000000, 0.000000, 0.000000, 0.000000, 17486.000000, 489.230743, 4.000000, 4.000000, 4.000000, 4.000000, 4.000000, 4.000000, 4.000000, 4.000000, 4.000000, 4.000000, 4.000000, 4.000000, 4.000000, 4.000000, 4.000000, 4.000000
0.000000, 0.000000, 4224.615234, 4245.127930, 4213.846191, 4226.153809, 4216.410156, 4216.410156, 4180.512695, 4206.153809, 4202.563965, 4201.538574, 4194.871582, 4207.692383, 4204.615234, 4206.153809, 3501.000000, 8208.000000, 8134.000000, 0.000000, 0.000000, 0.000000, 17486.000000, 496.923065, 4.000000, 4.000000, 4.000000, 4.000000, 4.000000, 4.000000, 4.000000, 4.000000, 4.000000, 4.000000, 4.000000, 4.000000, 4.000000, 4.000000, 4.000000, 4.000000
1.000000, 0.000000, 4227.692383, 4240.512695, 4213.333008, 4221.538574, 4223.589844, 4212.820313, 4177.948730, 4215.384277, 4199.487305, 4201.025391, 4195.897461, 4209.230469, 4203.076660, 4202.563965, 3543.000000, 8212.000000, 8145.000000, 0.000000, 0.000000, 0.000000, 17486.000000, 505.128204, 4.000000, 4.000000, 4.000000, 4.000000, 4.000000, 4.000000, 4.000000, 4.000000, 4.000000, 4.000000, 4.000000, 4.000000, 4.000000, 4.000000, 4.000000, 4.000000
2.000000, 0.000000, 4233.333008, 4238.974121, 4222.051270, 4223.589844, 4213.333008, 4211.794922, 4182.563965, 4220.000000, 4203.589844, 4209.230469, 4202.563965, 4217.948730, 4202.051270, 4203.076660, 2764.000000, 8212.000000, 8145.000000, 0.000000, 0.000000, 0.000000, 17486.000000, 512.820496, 4.000000, 4.000000, 4.000000, 4.000000, 4.000000, 4.000000, 4.000000, 4.000000, 4.000000, 4.000000, 4.000000, 4.000000, 4.000000, 4.000000, 4.000000, 4.000000
3.000000, 0.000000, 4231.794922, 4236.922852, 4224.615234, 4225.127930, 4216.410156, 4211.794922, 4184.615234, 4214.358887, 4207.179199, 4213.333008, 4202.051270, 4223.076660, 4201.538574, 4206.666504, 3577.000000, 8209.000000, 8157.000000, 0.000000, 0.000000, 0.000000, 17486.000000, 521.025635, 4.000000, 4.000000, 4.000000, 4.000000, 4.000000, 4.000000, 4.000000, 4.000000, 4.000000, 4.000000, 4.000000, 4.000000, 4.000000, 4.000000, 4.000000, 4.000000
4.000000, 0.000000, 4223.076660, 4231.281738, 4213.846191, 4217.948730, 4217.436035, 4209.743652, 4186.153809, 4204.102539, 4203.589844, 4202.051270, 4197.436035, 4208.717773, 4198.461426, 4195.897461, 3528.000000, 8209.000000, 8157.000000, 0.000000, 0.000000, 0.000000, 17486.000000, 528.717957, 4.000000, 4.000000, 4.000000, 4.000000, 4.000000, 4.000000, 4.000000, 4.000000, 4.000000, 4.000000, 4.000000, 4.000000, 4.000000, 4.000000, 4.000000, 4.000000
5.000000, 0.000000, 4223.076660, 4228.717773, 4211.281738, 4216.410156, 4203.589844, 4211.281738, 4186.666504, 4200.000000, 4199.487305, 4195.897461, 4194.871582, 4206.666504, 4197.948730, 4198.974121, 3534.000000, 8209.000000, 8161.000000, 0.000000, 0.000000, 0.000000, 17486.000000, 536.923035, 4.000000, 4.000000, 4.000000, 4.000000, 4.000000, 4.000000, 4.000000, 4.000000, 4.000000, 4.000000, 4.000000, 4.000000, 4.000000, 4.000000, 4.000000, 4.000000
6.000000, 0.000000, 4223.589844, 4231.281738, 4212.820313, 4220.512695, 4203.076660, 4213.846191, 4189.743652, 4202.563965, 4203.076660, 4205.127930, 4191.794922, 4206.666504, 4200.512695, 4199.487305, 3360.000000, 8209.000000, 8161.000000, 0.000000, 0.000000, 0.000000, 17486.000000, 545.128174, 4.000000, 4.000000, 4.000000, 4.000000, 4.000000, 4.000000, 4.000000, 4.000000, 4.000000, 4.000000, 4.000000, 4.000000, 4.000000, 4.000000, 4.000000, 4.000000
7.000000, 0.000000, 4216.410156, 4230.769043, 4207.179199, 4215.384277, 4212.820313, 4214.871582, 4192.820313, 4202.563965, 4203.589844, 4206.666504, 4191.281738, 4205.127930, 4195.897461, 4195.384277, 3194.000000, 8208.000000, 8160.000000, 0.000000, 0.000000, 0.000000, 17486.000000, 552.820496, 4.000000, 4.000000, 4.000000, 4.000000, 4.000000, 4.000000, 4.000000, 4.000000, 4.000000, 4.000000, 4.000000, 4.000000, 4.000000, 4.000000, 4.000000, 4.000000
8.000000, 0.000000, 4211.281738, 4222.563965, 4205.127930, 4211.281738, 4212.307617, 4214.871582, 4191.281738, 4202.563965, 4198.461426, 4192.307617, 4194.871582, 4207.179199, 4190.256348, 4204.615234, 3527.000000, 8208.000000, 8160.000000, 0.000000, 0.000000, 0.000000, 17486.000000, 561.025635, 4.000000, 4.000000, 4.000000, 4.000000, 4.000000, 4.000000, 4.000000, 4.000000, 4.000000, 4.000000, 4.000000, 4.000000, 4.000000, 4.000000, 4.000000, 4.000000
9.000000, 0.000000, 4221.025391, 4221.538574, 4212.820313, 4217.436035, 4213.333008, 4217.948730, 4187.692383, 4212.820313, 4206.666504, 4191.794922, 4198.974121, 4207.179199, 4197.948730, 4203.076660, 3452.000000, 8207.000000, 8155.000000, 0.000000, 0.000000, 0.000000, 17486.000000, 568.717957, 4.000000, 4.000000, 4.000000, 4.000000, 4.000000, 4.000000, 4.000000, 4.000000, 4.000000, 4.000000, 4.000000, 4.000000, 4.000000, 4.000000, 4.000000, 4.000000
10.000000, 0.000000, 4225.641113, 4229.743652, 4212.820313, 4221.025391, 4216.922852, 4220.512695, 4186.666504, 4212.820313, 4215.897461, 4205.641113, 4198.461426, 4211.794922, 4202.051270, 4204.102539, 3142.000000, 8207.000000, 8155.000000, 0.000000, 0.000000, 0.000000, 17486.000000, 576.923035, 4.000000, 4.000000, 4.000000, 4.000000, 4.000000, 4.000000, 4.000000, 4.000000, 4.000000, 4.000000, 4.000000, 4.000000, 4.000000, 4.000000, 4.000000, 4.000000
11.000000, 0.000000, 4210.256348, 4225.641113, 4198.974121, 4216.410156, 4202.051270, 4207.179199, 4183.076660, 4195.897461, 4201.025391, 4205.127930, 4190.256348, 4199.487305, 4193.846191, 4200.000000, 1714.000000, 8206.000000, 8153.000000, 0.000000, 0.000000, 0.000000, 17486.000000, 584.615356, 4.000000, 4.000000, 4.000000, 4.000000, 4.000000, 4.000000, 4.000000, 4.000000, 4.000000, 4.000000, 4.000000, 4.000000, 4.000000, 4.000000, 4.000000, 4.000000
12.000000, 0.000000, 4204.615234, 4218.461426, 4193.333008, 4213.333008, 4194.358887, 4198.461426, 4182.051270, 4191.794922, 4187.692383, 4195.384277, 4180.512695, 4187.692383, 4190.256348, 4193.846191, 3476.000000, 8206.000000, 8153.000000, 0.000000, 0.000000, 0.000000, 17486.000000, 592.820496, 4.000000, 4.000000, 4.000000, 4.000000, 4.000000, 4.000000, 4.000000, 4.000000, 4.000000, 4.000000, 4.000000, 4.000000, 4.000000, 4.000000, 4.000000, 4.000000
13.000000, 0.000000, 4215.384277, 4228.205078, 4206.666504, 4217.948730, 4217.436035, 4218.461426, 4189.743652, 4201.538574, 4197.436035, 4197.948730, 4183.076660, 4198.461426, 4192.820313, 4205.641113, 2490.000000, 8203.000000, 8152.000000, 0.000000, 0.000000, 0.000000, 17486.000000, 600.512817, 4.000000, 4.000000, 4.000000, 4.000000, 4.000000, 4.000000, 4.000000, 4.000000, 4.000000, 4.000000, 4.000000, 4.000000, 4.000000, 4.000000, 4.000000, 4.000000
14.000000, 0.000000, 4225.127930, 4237.436035, 4213.846191, 4221.538574, 4224.102539, 4224.102539, 4189.743652, 4202.051270, 4205.127930, 4202.051270, 4191.281738, 4203.076660, 4196.410156, 4202.051270, 3142.000000, 8203.000000, 8152.000000, 0.000000, 0.000000, 0.000000, 17486.000000, 608.717957, 4.000000, 4.000000, 4.000000, 4.000000, 4.000000, 4.000000, 4.000000, 4.000000, 4.000000, 4.000000, 4.000000, 4.000000, 4.000000, 4.000000, 4.000000, 4.000000
15.000000, 0.000000, 4224.615234, 4227.692383, 4205.641113, 4218.461426, 4202.051270, 4203.589844, 4185.127930, 4198.461426, 4200.512695, 4194.358887, 4188.717773, 4204.615234, 4194.871582, 4199.487305, 1714.000000, 8202.000000, 8159.000000, 0.000000, 0.000000, 0.000000, 17486.000000, 616.923035, 4.000000, 4.000000, 4.000000, 4.000000, 4.000000, 4.000000, 4.000000, 4.000000, 4.000000, 4.000000, 4.000000, 4.000000, 4.000000, 4.000000, 4.000000, 4.000000
16.000000, 0.000000, 4214.358887, 4217.436035, 4203.589844, 4214.358887, 4195.384277, 4192.307617, 4184.615234, 4196.410156, 4194.358887, 4192.820313, 4183.076660, 4204.615234, 4189.230469, 4201.025391, 0.000000, 8202.000000, 8159.000000, 0.000000, 0.000000, 0.000000, 17486.000000, 624.615356, 4.000000, 4.000000, 4.000000, 4.000000, 4.000000, 4.000000, 4.000000, 4.000000, 4.000000, 4.000000, 4.000000, 4.000000, 4.000000, 4.000000, 4.000000, 4.000000
17.000000, 0.000000, 4214.871582, 4216.922852, 4213.846191, 4215.384277, 4199.487305, 4198.461426, 4183.589844, 4197.436035, 4197.436035, 4200.000000, 4188.717773, 4204.615234, 4190.769043, 4195.384277, 0.000000, 8204.000000, 8160.000000, 0.000000, 0.000000, 0.000000, 17486.000000, 632.820496, 4.000000, 4.000000, 4.000000, 4.000000, 4.000000, 4.000000, 4.000000, 4.000000, 4.000000, 4.000000, 4.000000, 4.000000, 4.000000, 4.000000, 4.000000, 4.000000
18.000000, 0.000000, 4223.589844, 4213.333008, 4215.384277, 4214.358887, 4194.871582, 4216.922852, 4190.769043, 4208.205078, 4208.205078, 4202.051270, 4198.461426, 4211.281738, 4201.538574, 4203.076660, 0.000000, 8204.000000, 8160.000000, 0.000000, 0.000000, 0.000000, 17486.000000, 640.512817, 4.000000, 4.000000, 4.000000, 4.000000, 4.000000, 4.000000, 4.000000, 4.000000, 4.000000, 4.000000, 4.000000, 4.000000, 4.000000, 4.000000, 4.000000, 4.000000
19.000000, 0.000000, 4221.025391, 4209.230469, 4205.641113, 4206.153809, 4198.461426, 4224.615234, 4201.538574, 4212.820313, 4210.769043, 4205.127930, 4194.358887, 4207.179199, 4204.102539, 4199.487305, 0.000000, 8196.000000, 8163.000000, 0.000000, 0.000000, 0.000000, 17486.000000, 648.717957, 4.000000, 4.000000, 4.000000, 4.000000, 4.000000, 4.000000, 4.000000, 4.000000, 4.000000, 4.000000, 4.000000, 4.000000, 4.000000, 4.000000, 4.000000, 4.000000
20.000000, 0.000000, 4212.307617, 4209.743652, 4202.563965, 4195.897461, 4203.589844, 4207.692383, 4193.846191, 4205.641113, 4195.384277, 4201.025391, 4183.076660, 4206.153809, 4194.871582, 4196.410156, 0.000000, 8196.000000, 8163.000000, 0.000000, 0.000000, 0.000000, 17486.000000, 656.410217, 4.000000, 4.000000, 4.000000, 4.000000, 4.000000, 4.000000, 4.000000, 4.000000, 4.000000, 4.000000, 4.000000, 4.000000, 4.000000, 4.000000, 4.000000, 4.000000
21.000000, 0.000000, 4209.230469, 4208.205078, 4206.153809, 4196.922852, 4195.897461, 4195.897461, 4175.384277, 4195.384277, 4185.641113, 4184.615234, 4181.025391, 4202.563965, 4189.743652, 4199.487305, 0.000000, 8201.000000, 8164.000000, 0.000000, 0.000000, 0.000000, 17486.000000, 664.615356, 4.000000, 4.000000, 4.000000, 4.000000, 4.000000, 4.000000, 4.000000, 4.000000, 4.000000, 4.000000, 4.000000, 4.000000, 4.000000, 4.000000, 4.000000, 4.000000
22.000000, 0.000000, 4213.333008, 4207.692383, 4206.666504, 4208.205078, 4196.922852, 4203.589844, 4167.179199, 4190.256348, 4194.358887, 4183.589844, 4186.153809, 4194.871582, 4194.871582, 4195.384277, 0.000000, 8201.000000, 8164.000000, 0.000000, 0.000000, 0.000000, 17486.000000, 672.820496, 4.000000, 4.000000, 4.000000, 4.000000, 4.000000, 4.000000, 4.000000, 4.000000, 4.000000, 4.000000, 4.000000, 4.000000, 4.000000, 4.000000, 4.000000, 4.000000
23.000000, 0.000000, 4213.846191, 4211.794922, 4203.076660, 4208.717773, 4202.563965, 4209.743652, 4170.256348, 4188.717773, 4196.922852, 4191.281738, 4186.153809, 4200.000000, 4196.922852, 4201.538574, 0.000000, 8203.000000, 8167.000000, 0.000000, 0.000000, 0.000000, 17486.000000, 680.512817, 4.000000, 4.000000, 4.000000, 4.000000, 4.000000, 4.000000, 4.000000, 4.000000, 4.000000, 4.000000, 4.000000, 4.000000, 4.000000, 4.000000, 4.000000, 4.000000
24.000000, 0.000000, 4208.205078, 4209.743652, 4198.974121, 4204.102539, 4186.666504, 4207.692383, 4180.000000, 4186.153809, 4184.102539, 4186.153809, 4178.974121, 4195.384277, 4187.179199, 4196.410156, 0.000000, 8203.000000, 8167.000000, 0.000000, 0.000000, 0.000000, 17486.000000, 688.205139, 4.000000, 4.000000, 4.000000, 4.000000, 4.000000, 4.000000, 4.000000, 4.000000, 4.000000, 4.000000, 4.000000, 4.000000, 4.000000, 4.000000, 4.000000, 4.000000
25.000000, 0.000000, 4203.589844, 4201.538574, 4197.948730, 4205.127930, 4184.102539, 4202.051270, 4184.102539, 4183.076660, 4176.922852, 4181.025391, 4175.384277, 4193.333008, 4186.153809, 4194.871582, 0.000000, 8202.000000, 8164.000000, 0.000000, 0.000000, 0.000000, 17486.000000, 696.410217, 4.000000, 4.000000, 4.000000, 4.000000, 4.000000, 4.000000, 4.000000, 4.000000, 4.000000, 4.000000, 4.000000, 4.000000, 4.000000, 4.000000, 4.000000, 4.000000
26.000000, 0.000000, 4207.692383, 4203.589844, 4197.948730, 4206.666504, 4210.256348, 4198.974121, 4175.897461, 4185.127930, 4183.589844, 4188.205078, 4181.025391, 4195.384277, 4199.487305, 4202.051270, 0.000000, 8202.000000, 8164.000000, 0.000000, 0.000000, 0.000000, 17486.000000, 704.102539, 4.000000, 4.000000, 4.000000, 4.000000, 4.000000, 4.000000, 4.000000, 4.000000, 4.000000, 4.000000, 4.000000, 4.000000, 4.000000, 4.000000, 4.000000, 4.000000
27.000000, 0.000000, 4211.281738, 4202.563965, 4199.487305, 4204.615234, 4214.358887, 4198.974121, 4167.692383, 4187.179199, 4185.641113, 4189.743652, 4186.153809, 4194.871582, 4203.076660, 4197.436035, 0.000000, 8201.000000, 8161.000000, 0.000000, 0.000000, 0.000000, 17486.000000, 711.794861, 4.000000, 4.000000, 4.000000, 4.000000, 4.000000, 4.000000, 4.000000, 4.000000, 4.000000, 4.000000, 4.000000, 4.000000, 4.000000, 4.000000, 4.000000, 4.000000
28.000000, 0.000000, 4207.179199, 4201.538574, 4204.615234, 4201.538574, 4196.410156, 4200.000000, 4171.281738, 4187.692383, 4187.692383, 4185.127930, 4184.102539, 4201.538574, 4196.922852, 4201.538574, 0.000000, 8201.000000, 8161.000000, 0.000000, 0.000000, 0.000000, 17486.000000, 720.000000, 4.000000, 4.000000, 4.000000, 4.000000, 4.000000, 4.000000, 4.000000, 4.000000, 4.000000, 4.000000, 4.000000, 4.000000, 4.000000, 4.000000, 4.000000, 4.000000
29.000000, 0.000000, 4208.717773, 4214.358887, 4206.153809, 4204.102539, 4201.025391, 4203.076660, 4178.461426, 4195.384277, 4203.076660, 4195.897461, 4189.743652, 4205.641113, 4203.076660, 4201.025391, 0.000000, 8206.000000, 8158.000000, 0.000000, 0.000000, 0.000000, 17486.000000, 727.692261, 4.000000, 4.000000, 4.000000, 4.000000, 4.000000, 4.000000, 4.000000, 4.000000, 4.000000, 4.000000, 4.000000, 4.000000, 4.000000, 4.000000, 4.000000, 4.000000
30.000000, 0.000000, 4218.461426, 4220.000000, 4205.641113, 4209.743652, 4202.563965, 4204.615234, 4176.410156, 4205.127930, 4205.641113, 4208.205078, 4200.512695, 4217.436035, 4214.871582, 4203.589844, 0.000000, 8206.000000, 8158.000000, 0.000000, 0.000000, 0.000000, 17486.000000, 735.897400, 4.000000, 4.000000, 4.000000, 4.000000, 4.000000, 4.000000, 4.000000, 4.000000, 4.000000, 4.000000, 4.000000, 4.000000, 4.000000, 4.000000, 4.000000, 4.000000
31.000000, 0.000000, 4221.538574, 4210.769043, 4209.230469, 4210.256348, 4189.743652, 4198.974121, 4171.794922, 4204.615234, 4193.333008, 4208.205078, 4204.102539, 4224.615234, 4213.333008, 4207.692383, 0.000000, 8214.000000, 8162.000000, 0.000000, 0.000000, 0.000000, 17486.000000, 744.102539, 4.000000, 4.000000, 4.000000, 4.000000, 4.000000, 4.000000, 4.000000, 4.000000, 4.000000, 4.000000, 4.000000, 4.000000, 4.000000, 4.000000, 4.000000, 4.000000
32.000000, 0.000000, 4215.897461, 4203.076660, 4211.794922, 4205.127930, 4195.897461, 4202.563965, 4174.871582, 4202.563965, 4194.871582, 4204.102539, 4200.512695, 4214.358887, 4206.666504, 4198.461426, 0.000000, 8214.000000, 8162.000000, 0.000000, 0.000000, 0.000000, 17486.000000, 751.794861, 4.000000, 4.000000, 4.000000, 4.000000, 4.000000, 4.000000, 4.000000, 4.000000, 4.000000, 4.000000, 4.000000, 4.000000, 4.000000, 4.000000, 4.000000, 4.000000
33.000000, 0.000000, 4207.692383, 4198.461426, 4208.717773, 4203.076660, 4203.589844, 4213.333008, 4192.307617, 4200.512695, 4201.538574, 4198.461426, 4191.281738, 4211.281738, 4201.538574, 4201.538574, 0.000000, 8209.000000, 8165.000000, 0.000000, 0.000000, 0.000000, 17486.000000, 759.487183, 4.000000, 4.000000, 4.000000, 4.000000, 4.000000, 4.000000, 4.000000, 4.000000, 4.000000, 4.000000, 4.000000, 4.000000, 4.000000, 4.000000, 4.000000, 4.000000
34.000000, 0.000000, 4207.692383, 4198.974121, 4206.153809, 4204.102539, 4203.589844, 4208.205078, 4198.974121, 4197.948730, 4198.461426, 4197.436035, 4190.769043, 4208.717773, 4201.025391, 4199.487305, 0.000000, 8209.000000, 8165.000000, 0.000000, 0.000000, 0.000000, 17486.000000, 767.179443, 4.000000, 4.000000, 4.000000, 4.000000, 4.000000, 4.000000, 4.000000, 4.000000, 4.000000, 4.000000, 4.000000, 4.000000, 4.000000, 4.000000, 4.000000, 4.000000
35.000000, 0.000000, 4214.871582, 4209.230469, 4207.179199, 4208.205078, 4201.538574, 4200.000000, 4182.051270, 4201.025391, 4203.589844, 4211.794922, 4199.487305, 4210.256348, 4207.179199, 4196.922852, 0.000000, 8214.000000, 8164.000000, 0.000000, 0.000000, 0.000000, 17486.000000, 775.384583, 4.000000, 4.000000, 4.000000, 4.000000, 4.000000, 4.000000, 4.000000, 4.000000, 4.000000, 4.000000, 4.000000, 4.000000, 4.000000, 4.000000, 4.000000, 4.000000
36.000000, 0.000000, 4211.281738, 4213.846191, 4203.076660, 4212.307617, 4190.769043, 4203.076660, 4172.820313, 4203.076660, 4216.410156, 4225.641113, 4205.127930, 4214.358887, 4215.897461, 4206.153809, 0.000000, 8214.000000, 8164.000000, 0.000000, 0.000000, 0.000000, 17486.000000, 783.076904, 4.000000, 4.000000, 4.000000, 4.000000, 4.000000, 4.000000, 4.000000, 4.000000, 4.000000, 4.000000, 4.000000, 4.000000, 4.000000, 4.000000, 4.000000, 4.000000
37.000000, 0.000000, 4209.743652, 4211.794922, 4200.512695, 4212.307617, 4195.384277, 4204.615234, 4181.538574, 4202.051270, 4217.948730, 4223.076660, 4207.692383, 4209.743652, 4217.948730, 4200.512695, 0.000000, 8212.000000, 8174.000000, 0.000000, 0.000000, 0.000000, 17486.000000, 791.282043, 4.000000, 4.000000, 4.000000, 4.000000, 4.000000, 4.000000, 4.000000, 4.000000, 4.000000, 4.000000, 4.000000, 4.000000, 4.000000, 4.000000, 4.000000, 4.000000
38.000000, 0.000000, 4220.512695, 4216.410156, 4209.743652, 4214.358887, 4213.846191, 4204.615234, 4192.820313, 4209.743652, 4216.922852, 4221.538574, 4213.846191, 4215.384277, 4215.897461, 4203.589844, 0.000000, 8212.000000, 8174.000000, 0.000000, 0.000000, 0.000000, 17486.000000, 798.974365, 4.000000, 4.000000, 4.000000, 4.000000, 4.000000, 4.000000, 4.000000, 4.000000, 4.000000, 4.000000, 4.000000, 4.000000, 4.000000, 4.000000, 4.000000, 4.000000
39.000000, 0.000000, 4221.025391, 4222.051270, 4211.794922, 4218.974121, 4210.769043, 4209.230469, 4196.922852, 4216.410156, 4220.512695, 4229.230469, 4219.487305, 4215.897461, 4215.384277, 4206.666504, 0.000000, 8211.000000, 8177.000000, 0.000000, 0.000000, 0.000000, 17486.000000, 807.179443, 4.000000, 4.000000, 4.000000, 4.000000, 4.000000, 4.000000, 4.000000, 4.000000, 4.000000, 4.000000, 4.000000, 4.000000, 4.000000, 4.000000, 4.000000, 4.000000
40.000000, 0.000000, 4216.410156, 4217.436035, 4205.641113, 4217.436035, 4201.538574, 4198.974121, 4192.820313, 4206.666504, 4210.769043, 4226.666504, 4214.871582, 4210.769043, 4214.358887, 4200.512695, 0.000000, 8211.000000, 8177.000000, 0.000000, 0.000000, 0.000000, 17486.000000, 814.871765, 4.000000, 4.000000, 4.000000, 4.000000, 4.000000, 4.000000, 4.000000, 4.000000, 4.000000, 4.000000, 4.000000, 4.000000, 4.000000, 4.000000, 4.000000, 4.000000
41.000000, 0.000000, 4216.922852, 4209.230469, 4207.179199, 4211.794922, 4210.256348, 4186.153809, 4182.563965, 4194.871582, 4198.461426, 4218.461426, 4210.256348, 4210.256348, 4213.846191, 4203.076660, 0.000000, 8216.000000, 8173.000000, 0.000000, 0.000000, 0.000000, 17486.000000, 822.564087, 4.000000, 4.000000, 4.000000, 4.000000, 4.000000, 4.000000, 4.000000, 4.000000, 4.000000, 4.000000, 4.000000, 4.000000, 4.000000, 4.000000, 4.000000, 4.000000
42.000000, 0.000000, 4213.846191, 4207.692383, 4209.743652, 4208.205078, 4203.076660, 4195.897461, 4175.897461, 4197.948730, 4203.076660, 4220.000000, 4210.769043, 4205.641113, 4210.256348, 4200.512695, 0.000000, 8216.000000, 8173.000000, 0.000000, 0.000000, 0.000000, 17486.000000, 830.769226, 4.000000, 4.000000, 4.000000, 4.000000, 4.000000, 4.000000, 4.000000, 4.000000, 4.000000, 4.000000, 4.000000, 4.000000, 4.000000, 4.000000, 4.000000, 4.000000
43.000000, 0.000000, 4206.666504, 4204.102539, 4202.563965, 4200.512695, 4179.487305, 4205.127930, 4175.384277, 4202.051270, 4201.538574, 4216.410156, 4204.615234, 4207.179199, 4203.076660, 4202.563965, 0.000000, 8216.000000, 8171.000000, 0.000000, 0.000000, 0.000000, 17486.000000, 838.461548, 4.000000, 4.000000, 4.000000, 4.000000, 4.000000, 4.000000, 4.000000, 4.000000, 4.000000, 4.000000, 4.000000, 4.000000, 4.000000, 4.000000, 4.000000, 4.000000
44.000000, 0.000000, 4200.512695, 4193.846191, 4197.436035, 4194.871582, 4181.025391, 4200.512695, 4178.461426, 4198.974121, 4195.384277, 4208.205078, 4200.000000, 4201.025391, 4202.051270, 4200.000000, 0.000000, 8216.000000, 8171.000000, 0.000000, 0.000000, 0.000000, 17486.000000, 846.666626, 4.000000, 4.000000, 4.000000, 4.000000, 4.000000, 4.000000, 4.000000, 4.000000, 4.000000, 4.000000, 4.000000, 4.000000, 4.000000, 4.000000, 4.000000, 4.000000
45.000000, 0.000000, 4195.897461, 4183.076660, 4191.794922, 4192.820313, 4193.846191, 4194.358887, 4187.692383, 4201.538574, 4198.461426, 4196.922852, 4198.461426, 4192.820313, 4201.025391, 4194.871582, 0.000000, 8218.000000, 8167.000000, 0.000000, 0.000000, 0.000000, 17486.000000, 854.358948, 4.000000, 4.000000, 4.000000, 4.000000, 4.000000, 4.000000, 4.000000, 4.000000, 4.000000, 4.000000, 4.000000, 4.000000, 4.000000, 4.000000, 4.000000, 4.000000
46.000000, 0.000000, 4188.205078, 4182.563965, 4182.051270, 4188.717773, 4186.153809, 4192.820313, 4188.717773, 4202.051270, 4194.358887, 4187.179199, 4190.256348, 4193.333008, 4198.974121, 4200.512695, 0.000000, 8218.000000, 8167.000000, 0.000000, 0.000000, 0.000000, 17486.000000, 862.564087, 4.000000, 4.000000, 4.000000, 4.000000, 4.000000, 4.000000, 4.000000, 4.000000, 4.000000, 4.000000, 4.000000, 4.000000, 4.000000, 4.000000, 4.000000, 4.000000
47.000000, 0.000000, 4187.179199, 4185.127930, 4180.512695, 4185.641113, 4180.512695, 4198.461426, 4185.641113, 4192.820313, 4186.666504, 4194.358887, 4183.589844, 4190.769043, 4200.512695, 4194.871582, 0.000000, 8209.000000, 8166.000000, 0.000000, 0.000000, 0.000000, 17486.000000, 870.256409, 4.000000, 4.000000, 4.000000, 4.000000, 4.000000, 4.000000, 4.000000, 4.000000, 4.000000, 4.000000, 4.000000, 4.000000, 4.000000, 4.000000, 4.000000, 4.000000
48.000000, 0.000000, 4193.846191, 4181.538574, 4187.179199, 4186.153809, 4193.846191, 4200.000000, 4185.641113, 4187.692383, 4187.692383, 4197.948730, 4186.153809, 4197.436035, 4201.025391, 4197.436035, 0.000000, 8209.000000, 8166.000000, 0.000000, 0.000000, 0.000000, 17486.000000, 877.948669, 4.000000, 4.000000, 4.000000, 4.000000, 4.000000, 4.000000, 4.000000, 4.000000, 4.000000, 4.000000, 4.000000, 4.000000, 4.000000, 4.000000, 4.000000, 4.000000
49.000000, 0.000000, 4194.358887, 4182.051270, 4191.281738, 4192.820313, 4186.666504, 4188.717773, 4176.410156, 4187.179199, 4186.666504, 4189.743652, 4187.179199, 4198.461426, 4202.051270, 4201.538574, 0.000000, 8209.000000, 8169.000000, 0.000000, 0.000000, 0.000000, 17486.000000, 886.153809, 4.000000, 4.000000, 4.000000, 4.000000, 4.000000, 4.000000, 4.000000, 4.000000, 4.000000, 4.000000, 4.000000, 4.000000, 4.000000, 4.000000, 4.000000, 4.000000
50.000000, 0.000000, 4191.281738, 4190.256348, 4193.846191, 4196.410156, 4167.692383, 4178.974121, 4162.563965, 4182.563965, 4186.153809, 4190.769043, 4188.717773, 4194.871582, 4200.000000, 4197.436035, 0.000000, 8209.000000, 8169.000000, 0.000000, 0.000000, 0.000000, 17486.000000, 893.846130, 4.000000, 4.000000, 4.000000, 4.000000, 4.000000, 4.000000, 4.000000, 4.000000, 4.000000, 4.000000, 4.000000, 4.000000, 4.000000, 4.000000, 4.000000, 4.000000
51.000000, 0.000000, 4191.794922, 4196.922852, 4197.948730, 4198.461426, 4182.051270, 4185.127930, 4166.153809, 4185.127930, 4196.922852, 4200.512695, 4197.948730, 4200.512695, 4202.051270, 4206.153809, 0.000000, 8194.000000, 8173.000000, 0.000000, 0.000000, 0.000000, 17486.000000, 901.538452, 4.000000, 4.000000, 4.000000, 4.000000, 4.000000, 4.000000, 4.000000, 4.000000, 4.000000, 4.000000, 4.000000, 4.000000, 4.000000, 4.000000, 4.000000, 4.000000
52.000000, 0.000000, 4198.974121, 4200.000000, 4198.974121, 4203.076660, 4206.666504, 4190.769043, 4174.871582, 4194.358887, 4203.589844, 4206.153809, 4204.615234, 4201.025391, 4213.333008, 4200.512695, 0.000000, 8194.000000, 8173.000000, 0.000000, 0.000000, 0.000000, 17486.000000, 909.230774, 4.000000, 4.000000, 4.000000, 4.000000, 4.000000, 4.000000, 4.000000, 4.000000, 4.000000, 4.000000, 4.000000, 4.000000, 4.000000, 4.000000, 4.000000, 4.000000
53.000000, 0.000000, 4205.641113, 4201.538574, 4193.333008, 4202.563965, 4203.076660, 4184.102539, 4175.384277, 4196.922852, 4198.974121, 4207.179199, 4200.512695, 4202.563965, 4214.871582, 4196.410156, 0.000000, 8186.000000, 8173.000000, 0.000000, 0.000000, 0.000000, 17486.000000, 917.435852, 4.000000, 4.000000, 4.000000, 4.000000, 4.000000, 4.000000, 4.000000, 4.000000, 4.000000, 4.000000, 4.000000, 4.000000, 4.000000, 4.000000, 4.000000, 4.000000
54.000000, 0.000000, 4200.512695, 4199.487305, 4185.641113, 4198.461426, 4189.743652, 4184.102539, 4187.692383, 4195.897461, 4201.025391, 4207.179199, 4198.974121, 4200.000000, 4207.692383, 4201.538574, 0.000000, 8186.000000, 8173.000000, 0.000000, 0.000000, 0.000000, 17486.000000, 925.128174, 4.000000, 4.000000, 4.000000, 4.000000, 4.000000, 4.000000, 4.000000, 4.000000, 4.000000, 4.000000, 4.000000, 4.000000, 4.000000, 4.000000, 4.000000, 4.000000
55.000000, 0.000000, 4196.410156, 4198.974121, 4188.205078, 4201.025391, 4197.436035, 4201.538574, 4198.974121, 4192.820313, 4204.102539, 4208.717773, 4202.051270, 4195.384277, 4207.179199, 4196.922852, 0.000000, 8190.000000, 8168.000000, 0.000000, 0.000000, 0.000000, 17486.000000, 932.820496, 4.000000, 4.000000, 4.000000, 4.000000, 4.000000, 4.000000, 4.000000, 4.000000, 4.000000, 4.000000, 4.000000, 4.000000, 4.000000, 4.000000, 4.000000, 4.000000
56.000000, 0.000000, 4196.922852, 4194.871582, 4191.794922, 4199.487305, 4198.974121, 4207.179199, 4190.256348, 4187.692383, 4201.025391, 4209.230469, 4196.410156, 4197.948730, 4203.076660, 4201.538574, 0.000000, 8190.000000, 8168.000000, 0.000000, 0.000000, 0.000000, 17486.000000, 941.025635, 4.000000, 4.000000, 4.000000, 4.000000, 4.000000, 4.000000, 4.000000, 4.000000, 4.000000, 4.000000, 4.000000, 4.000000, 4.000000, 4.000000, 4.000000, 4.000000
57.000000, 0.000000, 4196.410156, 4189.743652, 4187.692383, 4191.794922, 4185.127930, 4189.743652, 4183.076660, 4185.641113, 4200.000000, 4203.589844, 4191.794922, 4194.358887, 4200.512695, 4201.025391, 0.000000, 8182.000000, 8169.000000, 0.000000, 0.000000, 0.000000, 17486.000000, 948.717896, 4.000000, 4.000000, 4.000000, 4.000000, 4.000000, 4.000000, 4.000000, 4.000000, 4.000000, 4.000000, 4.000000, 4.000000, 4.000000, 4.000000, 4.000000, 4.000000
58.000000, 0.000000, 4197.436035, 4192.820313, 4185.641113, 4193.333008, 4183.589844, 4187.179199, 4190.769043, 4189.743652, 4199.487305, 4203.076660, 4198.974121, 4201.025391, 4208.717773, 4202.563965, 0.000000, 8182.000000, 8169.000000, 0.000000, 0.000000, 0.000000, 17486.000000, 956.410217, 4.000000, 4.000000, 4.000000, 4.000000, 4.000000, 4.000000, 4.000000, 4.000000, 4.000000, 4.000000, 4.000000, 4.000000, 4.000000, 4.000000, 4.000000, 4.000000
59.000000, 0.000000, 4199.487305, 4200.000000, 4193.333008, 4199.487305, 4194.871582, 4203.589844, 4191.794922, 4198.461426, 4199.487305, 4211.794922, 4204.102539, 4207.692383, 4212.820313, 4205.641113, 0.000000, 8187.000000, 8168.000000, 0.000000, 0.000000, 0.000000, 17486.000000, 964.102539, 4.000000, 4.000000, 4.000000, 4.000000, 4.000000, 4.000000, 4.000000, 4.000000, 4.000000, 4.000000, 4.000000, 4.000000, 4.000000, 4.000000, 4.000000, 4.000000
60.000000, 0.000000, 4203.589844, 4204.615234, 4199.487305, 4202.563965, 4201.538574, 4207.692383, 4187.179199, 4203.589844, 4203.589844, 4209.230469, 4203.589844, 4204.615234, 4212.307617, 4200.000000, 0.000000, 8187.000000, 8168.000000, 0.000000, 0.000000, 0.000000, 17486.000000, 972.307678, 4.000000, 4.000000, 4.000000, 4.000000, 4.000000, 4.000000, 4.000000, 4.000000, 4.000000, 4.000000, 4.000000, 4.000000, 4.000000, 4.000000, 4.000000, 4.000000
61.000000, 0.000000, 4201.025391, 4198.461426, 4194.358887, 4205.641113, 4198.974121, 4201.025391, 4190.256348, 4193.846191, 4198.974121, 4190.256348, 4201.538574, 4204.615234, 4212.307617, 4204.615234, 0.000000, 8185.000000, 8166.000000, 0.000000, 0.000000, 0.000000, 17486.000000, 980.000000, 4.000000, 4.000000, 4.000000, 4.000000, 4.000000, 4.000000, 4.000000, 4.000000, 4.000000, 4.000000, 4.000000, 4.000000, 4.000000, 4.000000, 4.000000, 4.000000
62.000000, 0.000000, 4190.256348, 4190.769043, 4183.076660, 4205.641113, 4202.563965, 4200.000000, 4188.717773, 4183.589844, 4187.179199, 4187.179199, 4194.358887, 4195.897461, 4204.102539, 4199.487305, 0.000000, 8185.000000, 8166.000000, 0.000000, 0.000000, 0.000000, 17486.000000, 988.205078, 4.000000, 4.000000, 4.000000, 4.000000, 4.000000, 4.000000, 4.000000, 4.000000, 4.000000, 4.000000, 4.000000, 4.000000, 4.000000, 4.000000, 4.000000, 4.000000
63.000000, 0.000000, 4193.846191, 4192.307617, 4185.127930, 4206.666504, 4199.487305, 4199.487305, 4184.102539, 4182.563965, 4190.256348, 4198.974121, 4192.307617, 4195.897461, 4197.948730, 4197.948730, 0.000000, 8187.000000, 8164.000000, 0.000000, 0.000000, 0.000000, 17486.000000, 995.897400, 4.000000, 4.000000, 4.000000, 4.000000, 4.000000, 4.000000, 4.000000, 4.000000, 4.000000, 4.000000, 4.000000, 4.000000, 4.000000, 4.000000, 4.000000, 4.000000
64.000000, 0.000000, 4204.615234, 4197.948730, 4197.948730, 4213.846191, 4195.897461, 4198.974121, 4186.153809, 4184.615234, 4202.563965, 4203.589844, 4202.563965, 4206.666504, 4205.127930, 4207.692383, 3504.000000, 8187.000000, 8164.000000, 0.000000, 0.000000, 0.000000, 17487.000000, 4.102564, 4.000000, 4.000000, 4.000000, 4.000000, 4.000000, 4.000000, 4.000000, 4.000000, 4.000000, 4.000000, 4.000000, 4.000000, 4.000000, 4.000000, 4.000000, 4.000000
65.000000, 0.000000, 4200.512695, 4198.974121, 4204.102539, 4216.410156, 4205.641113, 4208.717773, 4187.692383, 4189.743652, 4204.102539, 4205.127930, 4205.127930, 4207.179199, 4205.641113, 4201.025391, 3544.000000, 8186.000000, 8160.000000, 0.000000, 0.000000, 0.000000, 17487.000000, 11.794871, 4.000000, 4.000000, 4.000000, 4.000000, 4.000000, 4.000000, 4.000000, 4.000000, 4.000000, 4.000000, 4.000000, 4.000000, 4.000000, 4.000000, 4.000000, 4.000000
66.000000, 0.000000, 4192.307617, 4194.358887, 4202.051270, 4209.743652, 4210.256348, 4211.794922, 4187.179199, 4192.307617, 4197.436035, 4209.743652, 4200.512695, 4210.769043, 4200.512695, 4200.512695, 2759.000000, 8186.000000, 8160.000000, 0.000000, 0.000000, 0.000000, 17487.000000, 20.000000, 4.000000, 4.000000, 4.000000, 4.000000, 4.000000, 4.000000, 4.000000, 4.000000, 4.000000, 4.000000, 4.000000, 4.000000, 4.000000, 4.000000, 4.000000, 4.000000
67.000000, 0.000000, 4195.897461, 4189.230469, 4202.051270, 4206.153809, 4208.717773, 4203.589844, 4186.666504, 4190.256348, 4197.948730, 4209.230469, 4203.076660, 4209.230469, 4207.179199, 4201.538574, 3563.000000, 8187.000000, 8158.000000, 0.000000, 0.000000, 0.000000, 17487.000000, 27.692307, 4.000000, 4.000000, 4.000000, 4.000000, 4.000000, 4.000000, 4.000000, 4.000000, 4.000000, 4.000000, 4.000000, 4.000000, 4.000000, 4.000000, 4.000000, 4.000000
68.000000, 0.000000, 4196.410156, 4187.692383, 4205.127930, 4203.076660, 4200.512695, 4198.974121, 4185.641113, 4188.717773, 4201.025391, 4201.025391, 4205.641113, 4206.666504, 4211.281738, 4200.000000, 3530.000000, 8187.000000, 8158.000000, 0.000000, 0.000000, 0.000000, 17487.000000, 35.897434, 4.000000, 4.000000, 4.000000, 4.000000, 4.000000, 4.000000, 4.000000, 4.000000, 4.000000, 4.000000, 4.000000, 4.000000, 4.000000, 4.000000, 4.000000, 4.000000
69.000000, 0.000000, 4185.641113, 4185.641113, 4203.589844, 4201.538574, 4185.127930, 4200.512695, 4189.743652, 4184.615234, 4195.384277, 4198.461426, 4202.563965, 4207.179199, 4205.127930, 4202.563965, 3530.000000, 8183.000000, 8158.000000, 0.000000, 0.000000, 0.000000, 17487.000000, 44.102562, 4.000000, 4.000000, 4.000000, 4.000000, 4.000000, 4.000000, 4.000000, 4.000000, 4.000000, 4.000000, 4.000000, 4.000000, 4.000000, 4.000000, 4.000000, 4.000000
70.000000, 0.000000, 4186.153809, 4184.615234, 4201.538574, 4203.076660, 4187.179199, 4201.538574, 4198.974121, 4187.692383, 4194.358887, 4203.076660, 4202.563965, 4202.563965, 4200.512695, 4197.436035, 3450.000000, 8183.000000, 8158.000000, 0.000000, 0.000000, 0.000000, 17487.000000, 51.794872, 4.000000, 4.000000, 4.000000, 4.000000, 4.000000, 4.000000, 4.000000, 4.000000, 4.000000, 4.000000, 4.000000, 4.000000, 4.000000, 4.000000, 4.000000, 4.000000
71.000000, 0.000000, 4199.487305, 4190.256348, 4204.615234, 4202.563965, 4208.205078, 4209.230469, 4199.487305, 4198.461426, 4199.487305, 4203.076660, 4205.641113, 4208.717773, 4205.127930, 4205.641113, 3199.000000, 8182.000000, 8150.000000, 0.000000, 0.000000, 0.000000, 17487.000000, 60.000000, 4.000000, 4.000000, 4.000000, 4.000000, 4.000000, 4.000000, 4.000000, 4.000000, 4.000000, 4.000000, 4.000000, 4.000000, 4.000000, 4.000000, 4.000000, 4.000000
72.000000, 0.000000, 4194.871582, 4193.846191, 4204.615234, 4203.076660, 4212.820313, 4212.307617, 4188.717773, 4193.846191, 4197.436035, 4199.487305, 4204.615234, 4207.179199, 4206.666504, 4203.589844, 3537.000000, 8182.000000, 8150.000000, 0.000000, 0.000000, 0.000000, 17487.000000, 67.692307, 4.000000, 4.000000, 4.000000, 4.000000, 4.000000, 4.000000, 4.000000, 4.000000, 4.000000, 4.000000, 4.000000, 4.000000, 4.000000, 4.000000, 4.000000, 4.000000
73.000000, 0.000000, 4177.948730, 4182.051270, 4200.512695, 4200.000000, 4197.436035, 4193.846191, 4184.102539, 4182.051270, 4188.205078, 4195.897461, 4194.871582, 4199.487305, 4195.897461, 4192.307617, 3524.000000, 8179.000000, 8156.000000, 0.000000, 0.000000, 0.000000, 17487.000000, 75.384613, 4.000000, 4.000000, 4.000000, 4.000000, 4.000000, 4.000000, 4.000000, 4.000000, 4.000000, 4.000000, 4.000000, 4.000000, 4.000000, 4.000000, 4.000000, 4.000000
74.000000, 0.000000, 4173.333008, 4176.410156, 4198.974121, 4197.436035, 4195.384277, 4190.256348, 4192.307617, 4186.153809, 4184.615234, 4195.384277, 4184.615234, 4200.512695, 4192.307617, 4201.025391, 3156.000000, 8179.000000, 8156.000000, 0.000000, 0.000000, 0.000000, 17487.000000, 83.589745, 4.000000, 4.000000, 4.000000, 4.000000, 4.000000, 4.000000, 4.000000, 4.000000, 4.000000, 4.000000, 4.000000, 4.000000, 4.000000, 4.000000, 4.000000, 4.000000
75.000000, 0.000000, 4178.461426, 4187.179199, 4195.897461, 4202.563965, 4193.846191, 4208.717773, 4196.922852, 4194.358887, 4194.358887, 4198.974121, 4190.256348, 4198.461426, 4198.974121, 4200.000000, 1717.000000, 8177.000000, 8159.000000, 0.000000, 0.000000, 0.000000, 17487.000000, 91.282051, 4.000000, 4.000000, 4.000000, 4.000000, 4.000000, 4.000000, 4.000000, 4.000000, 4.000000, 4.000000, 4.000000, 4.000000, 4.000000, 4.000000, 4.000000, 4.000000
76.000000, 0.000000, 4172.820313, 4186.666504, 4193.333008, 4203.589844, 4184.102539, 4210.256348, 4193.846191, 4196.922852, 4205.127930, 4197.436035, 4198.461426, 4200.000000, 4202.051270, 4199.487305, 3487.000000, 8177.000000, 8159.000000, 0.000000, 0.000000, 0.000000, 17487.000000, 98.974358, 4.000000, 4.000000, 4.000000, 4.000000, 4.000000, 4.000000, 4.000000, 4.000000, 4.000000, 4.000000, 4.000000, 4.000000, 4.000000, 4.000000, 4.000000, 4.000000
77.000000, 0.000000, 4158.974121, 4175.897461, 4194.871582, 4199.487305, 4192.307617, 4202.051270, 4186.153809, 4193.846191, 4200.512695, 4191.794922, 4192.307617, 4196.922852, 4198.974121, 4198.974121, 2495.000000, 8183.000000, 8156.000000, 0.000000, 0.000000, 0.000000, 17487.000000, 107.179482, 4.000000, 4.000000, 4.000000, 4.000000, 4.000000, 4.000000, 4.000000, 4.000000, 4.000000, 4.000000, 4.000000, 4.000000, 4.000000, 4.000000, 4.000000, 4.000000
78.000000, 0.000000, 4162.051270, 4177.948730, 4194.871582, 4198.461426, 4212.307617, 4205.641113, 4188.717773, 4189.743652, 4191.281738, 4193.846191, 4188.717773, 4198.974121, 4196.410156, 4196.410156, 3156.000000, 8183.000000, 8156.000000, 0.000000, 0.000000, 0.000000, 17487.000000, 114.871796, 4.000000, 4.000000, 4.000000, 4.000000, 4.000000, 4.000000, 4.000000, 4.000000, 4.000000, 4.000000, 4.000000, 4.000000, 4.000000, 4.000000, 4.000000, 4.000000
79.000000, 0.000000, 4172.820313, 4183.076660, 4193.846191, 4201.025391, 4214.871582, 4212.307617, 4202.563965, 4194.358887, 4195.384277, 4204.102539, 4198.461426, 4206.666504, 4200.512695, 4204.615234, 1717.000000, 8180.000000, 8158.000000, 0.000000, 0.000000, 0.000000, 17487.000000, 123.076920, 4.000000, 4.000000, 4.000000, 4.000000, 4.000000, 4.000000, 4.000000, 4.000000, 4.000000, 4.000000, 4.000000, 4.000000, 4.000000, 4.000000, 4.000000, 4.000000
80.000000, 0.000000, 4174.358887, 4181.025391, 4199.487305, 4203.076660, 4206.153809, 4217.436035, 4201.538574, 4201.025391, 4201.025391, 4205.127930, 4204.102539, 4204.102539, 4207.692383, 4199.487305, 3487.000000, 8180.000000, 8158.000000, 0.000000, 0.000000, 0.000000, 17487.000000, 130.769226, 4.000000, 4.000000, 4.000000, 4.000000, 4.000000, 4.000000, 4.000000, 4.000000, 4.000000, 4.000000, 4.000000, 4.000000, 4.000000, 4.000000, 4.000000, 4.000000
81.000000, 0.000000, 4173.846191, 4182.051270, 4203.076660, 4204.102539, 4211.281738, 4218.974121, 4188.717773, 4200.512695, 4196.410156, 4198.974121, 4202.051270, 4210.769043, 4207.692383, 4200.000000, 2495.000000, 8185.000000, 8161.000000, 0.000000, 0.000000, 0.000000, 17487.000000, 138.974350, 4.000000, 4.000000, 4.000000, 4.000000, 4.000000, 4.000000, 4.000000, 4.000000, 4.000000, 4.000000, 4.000000, 4.000000, 4.000000, 4.000000, 4.000000, 4.000000
82.000000, 0.000000, 4173.333008, 4184.102539, 4200.000000, 4202.051270, 4211.794922, 4217.948730, 4197.948730, 4200.000000, 4200.512695, 4203.076660, 4202.563965, 4212.307617, 4202.563965, 4203.076660, 3156.000000, 8185.000000, 8161.000000, 0.000000, 0.000000, 0.000000, 17487.000000, 146.666656, 4.000000, 4.000000, 4.000000, 4.000000, 4.000000, 4.000000, 4.000000, 4.000000, 4.000000, 4.000000, 4.000000, 4.000000, 4.000000, 4.000000, 4.000000, 4.000000
83.000000, 0.000000, 4173.333008, 4174.358887, 4200.000000, 4199.487305, 4196.410156, 4223.589844, 4215.897461, 4201.025391, 4207.692383, 4209.230469, 4201.538574, 4206.153809, 4201.538574, 4196.922852, 1717.000000, 8191.000000, 8157.000000, 0.000000, 0.000000, 0.000000, 17487.000000, 154.871796, 4.000000, 4.000000, 4.000000, 4.000000, 4.000000, 4.000000, 4.000000, 4.000000, 4.000000, 4.000000, 4.000000, 4.000000, 4.000000, 4.000000, 4.000000, 4.000000
84.000000, 0.000000, 4168.717773, 4163.076660, 4199.487305, 4195.897461, 4192.307617, 4225.641113, 4208.717773, 4199.487305, 4197.948730, 4200.512695, 4198.461426, 4208.205078, 4201.538574, 4201.538574, 3487.000000, 8191.000000, 8157.000000, 0.000000, 0.000000, 0.000000, 17487.000000, 162.564102, 4.000000, 4.000000, 4.000000, 4.000000, 4.000000, 4.000000, 4.000000, 4.000000, 4.000000, 4.000000, 4.000000, 4.000000, 4.000000, 4.000000, 4.000000, 4.000000
85.000000, 0.000000, 4162.051270, 4167.692383, 4196.410156, 4193.846191, 4204.615234, 4215.384277, 4197.436035, 4197.948730, 4194.358887, 4195.897461, 4200.512695, 4207.692383, 4199.487305, 4198.974121, 2495.000000, 8200.000000, 8154.000000, 0.000000, 0.000000, 0.000000, 17487.000000, 170.256409, 4.000000, 4.000000, 4.000000, 4.000000, 4.000000, 4.000000, 4.000000, 4.000000, 4.000000, 4.000000, 4.000000, 4.000000, 4.000000, 4.000000, 4.000000, 4.000000
86.000000, 0.000000, 4166.666504, 4177.948730, 4203.076660, 4198.461426, 4206.153809, 4214.358887, 4203.076660, 4203.589844, 4201.025391, 4206.153809, 4203.589844, 4216.410156, 4203.589844, 4201.025391, 3156.000000, 8200.000000, 8154.000000, 0.000000, 0.000000, 0.000000, 17487.000000, 178.461533, 4.000000, 4.000000, 4.000000, 4.000000, 4.000000, 4.000000, 4.000000, 4.000000, 4.000000, 4.000000, 4.000000, 4.000000, 4.000000, 4.000000, 4.000000, 4.000000
87.000000, 0.000000, 4175.897461, 4180.512695, 4209.743652, 4204.102539, 4201.025391, 4213.333008, 4199.487305, 4208.717773, 4194.871582, 4209.230469, 4201.538574, 4216.410156, 4202.563965, 4203.589844, 1717.000000, 8200.000000, 8155.000000, 0.000000, 0.000000, 0.000000, 17487.000000, 186.153839, 4.000000, 4.000000, 4.000000, 4.000000, 4.000000, 4.000000, 4.000000, 4.000000, 4.000000, 4.000000, 4.000000, 4.000000, 4.000000, 4.000000, 4.000000, 4.000000
88.000000, 0.000000, 4179.487305, 4176.922852, 4210.769043, 4203.076660, 4203.076660, 4201.538574, 4189.230469, 4207.179199, 4187.179199, 4199.487305, 4200.512695, 4208.205078, 4195.384277, 4196.922852, 3487.000000, 8200.000000, 8155.000000, 0.000000, 0.000000, 0.000000, 17487.000000, 194.358963, 4.000000, 4.000000, 4.000000, 4.000000, 4.000000, 4.000000, 4.000000, 4.000000, 4.000000, 4.000000, 4.000000, 4.000000, 4.000000, 4.000000, 4.000000, 4.000000
89.000000, 0.000000, 4178.461426, 4173.846191, 4212.820313, 4204.102539, 4194.358887, 4197.948730, 4191.794922, 4204.102539, 4194.358887, 4198.461426, 4199.487305, 4214.358887, 4198.461426, 4203.076660, 2495.000000, 8197.000000, 8156.000000, 0.000000, 0.000000, 0.000000, 17487.000000, 202.051270, 4.000000, 4.000000, 4.000000, 4.000000, 4.000000, 4.000000, 4.000000, 4.000000, 4.000000, 4.000000, 4.000000, 4.000000, 4.000000, 4.000000, 4.000000, 4.000000
90.000000, 0.000000, 4171.794922, 4172.820313, 4209.743652, 4204.615234, 4184.102539, 4201.025391, 4193.333008, 4203.589844, 4198.974121, 4203.589844, 4191.794922, 4208.205078, 4201.538574, 4197.948730, 3156.000000, 8197.000000, 8156.000000, 0.000000, 0.000000, 0.000000, 17487.000000, 210.256409, 4.000000, 4.000000, 4.000000, 4.000000, 4.000000, 4.000000, 4.000000, 4.000000, 4.000000, 4.000000, 4.000000, 4.000000, 4.000000, 4.000000, 4.000000, 4.000000
91.000000, 0.000000, 4167.692383, 4173.333008, 4201.538574, 4201.025391, 4191.794922, 4198.974121, 4182.051270, 4203.076660, 4194.358887, 4198.974121, 4190.256348, 4204.615234, 4197.436035, 4194.871582, 1717.000000, 8199.000000, 8158.000000, 0.000000, 0.000000, 0.000000, 17487.000000, 217.948715, 4.000000, 4.000000, 4.000000, 4.000000, 4.000000, 4.000000, 4.000000, 4.000000, 4.000000, 4.000000, 4.000000, 4.000000, 4.000000, 4.000000, 4.000000, 4.000000
92.000000, 0.000000, 4172.820313, 4174.358887, 4200.512695, 4201.538574, 4200.512695, 4200.512695, 4175.384277, 4202.051270, 4200.000000, 4197.948730, 4196.410156, 4207.692383, 4198.974121, 4202.051270, 3487.000000, 8199.000000, 8158.000000, 0.000000, 0.000000, 0.000000, 17487.000000, 225.641022, 4.000000, 4.000000, 4.000000, 4.000000, 4.000000, 4.000000, 4.000000, 4.000000, 4.000000, 4.000000, 4.000000, 4.000000, 4.000000, 4.000000, 4.000000, 4.000000
93.000000, 0.000000, 4174.358887, 4176.410156, 4199.487305, 4202.563965, 4201.538574, 4201.025391, 4179.487305, 4200.000000, 4205.127930, 4204.102539, 4194.871582, 4199.487305, 4203.076660, 4193.333008, 2495.000000, 8197.000000, 8150.000000, 0.000000, 0.000000, 0.000000, 17487.000000, 233.846146, 4.000000, 4.000000, 4.000000, 4.000000, 4.000000, 4.000000, 4.000000, 4.000000, 4.000000, 4.000000, 4.000000, 4.000000, 4.000000, 4.000000, 4.000000, 4.000000
94.000000, 0.000000, 4162.051270, 4175.897461, 4189.743652, 4196.410156, 4192.820313, 4198.461426, 4190.769043, 4196.922852, 4193.333008, 4201.025391, 4183.589844, 4192.307617, 4195.897461, 4194.358887, 3156.000000, 8197.000000, 8150.000000, 0.000000, 0.000000, 0.000000, 17487.000000, 241.538452, 4.000000, 4.000000, 4.000000, 4.000000, 4.000000, 4.000000, 4.000000, 4.000000, 4.000000, 4.000000, 4.000000, 4.000000, 4.000000, 4.000000, 4.000000, 4.000000
95.000000, 0.000000, 4162.051270, 4183.076660, 4188.205078, 4198.974121, 4187.692383, 4208.205078, 4200.512695, 4197.436035, 4186.153809, 4198.974121, 4182.563965, 4190.769043, 4194.358887, 4198.974121, 1717.000000, 8189.000000, 8144.000000, 0.000000, 0.000000, 0.000000, 17487.000000, 249.743576, 4.000000, 4.000000, 4.000000, 4.000000, 4.000000, 4.000000, 4.000000, 4.000000, 4.000000, 4.000000, 4.000000, 4.000000, 4.000000, 4.000000, 4.000000, 4.000000
96.000000, 0.000000, 4180.000000, 4192.820313, 4198.974121, 4212.820313, 4204.102539, 4221.538574, 4200.512695, 4201.025391, 4195.897461, 4205.127930, 4193.846191, 4201.025391, 4201.538574, 4203.589844, 3487.000000, 8189.000000, 8144.000000, 0.000000, 0.000000, 0.000000, 17487.000000, 257.435883, 4.000000, 4.000000, 4.000000, 4.000000, 4.000000, 4.000000, 4.000000, 4.000000, 4.000000, 4.000000, 4.000000, 4.000000, 4.000000, 4.000000, 4.000000, 4.000000
97.000000, 0.000000, 4180.512695, 4192.820313, 4201.025391, 4216.410156, 4224.615234, 4219.487305, 4200.512695, 4200.512695, 4201.025391, 4206.666504, 4201.025391, 4206.153809, 4204.102539, 4206.153809, 2495.000000, 8185.000000, 8136.000000, 0.000000, 0.000000, 0.000000, 17487.000000, 265.128204, 4.000000, 4.000000, 4.000000, 4.000000, 4.000000, 4.000000, 4.000000, 4.000000, 4.000000, 4.000000, 4.000000, 4.000000, 4.000000, 4.000000, 4.000000, 4.000000
98.000000, 0.000000, 4175.384277, 4192.820313, 4201.025391, 4215.897461, 4221.025391, 4216.922852, 4204.102539, 4203.076660, 4197.436035, 4211.794922, 4205.641113, 4203.076660, 4210.256348, 4198.974121, 3156.000000, 8185.000000, 8136.000000, 0.000000, 0.000000, 0.000000, 17487.000000, 273.333313, 4.000000, 4.000000, 4.000000, 4.000000, 4.000000, 4.000000, 4.000000, 4.000000, 4.000000, 4.000000, 4.000000, 4.000000, 4.000000, 4.000000, 4.000000, 4.000000
99.000000, 0.000000, 4178.461426, 4197.948730, 4203.589844, 4216.922852, 4208.717773, 4220.000000, 4199.487305, 4202.051270, 4194.871582, 4214.358887, 4207.179199, 4207.179199, 4215.384277, 4206.666504, 1717.000000, 8167.000000, 8159.000000, 0.000000, 0.000000, 0.000000, 17487.000000, 281.025635, 4.000000, 4.000000, 4.000000, 4.000000, 4.000000, 4.000000, 4.000000, 4.000000, 4.000000, 4.000000, 4.000000, 4.000000, 4.000000, 4.000000, 4.000000, 4.000000
100.000000, 0.000000, 4168.717773, 4191.794922, 4195.384277, 4211.281738, 4218.974121, 4216.922852, 4199.487305, 4189.230469, 4187.692383, 4197.948730, 4200.512695, 4197.436035, 4202.563965, 4201.538574, 3487.000000, 8167.000000, 8159.000000, 0.000000, 0.000000, 0.000000, 17487.000000, 288.717957, 4.000000, 4.000000, 4.000000, 4.000000, 4.000000, 4.000000, 4.000000, 4.000000, 4.000000, 4.000000, 4.000000, 4.000000, 4.000000, 4.000000, 4.000000, 4.000000
101.000000, 0.000000, 4153.846191, 4176.410156, 4181.538574, 4200.000000, 4223.076660, 4214.871582, 4206.666504, 4186.153809, 4177.436035, 4178.974121, 4182.563965, 4185.127930, 4182.051270, 4185.641113, 2495.000000, 8158.000000, 8164.000000, 0.000000, 0.000000, 0.000000, 17487.000000, 296.923065, 4.000000, 4.000000, 4.000000, 4.000000, 4.000000, 4.000000, 4.000000, 4.000000, 4.000000, 4.000000, 4.000000, 4.000000, 4.000000, 4.000000, 4.000000, 4.000000
102.000000, 0.000000, 4145.641113, 4158.974121, 4176.922852, 4189.230469, 4196.922852, 4219.487305, 4203.589844, 4195.897461, 4178.461426, 4175.897461, 4165.127930, 4182.563965, 4175.897461, 4186.666504, 3156.000000, 8158.000000, 8164.000000, 0.000000, 0.000000, 0.000000, 17487.000000, 304.615387, 4.000000, 4.000000, 4.000000, 4.000000, 4.000000, 4.000000, 4.000000, 4.000000, 4.000000, 4.000000, 4.000000, 4.000000, 4.000000, 4.000000, 4.000000, 4.000000
103.000000, 0.000000, 4140.512695, 4151.281738, 4181.025391, 4187.179199, 4185.127930, 4215.897461, 4199.487305, 4203.076660, 4189.743652, 4183.076660, 4167.692383, 4183.076660, 4184.615234, 4185.127930, 1717.000000, 8154.000000, 8154.000000, 0.000000, 0.000000, 0.000000, 17487.000000, 312.820496, 4.000000, 4.000000, 4.000000, 4.000000, 4.000000, 4.000000, 4.000000, 4.000000, 4.000000, 4.000000, 4.000000, 4.000000, 4.000000, 4.000000, 4.000000, 4.000000
104.000000, 0.000000, 4145.641113, 4158.461426, 4190.769043, 4193.333008, 4198.974121, 4204.615234, 4205.641113, 4202.051270, 4196.922852, 4192.307617, 4182.051270, 4193.333008, 4194.358887, 4192.307617, 3487.000000, 8154.000000, 8154.000000, 0.000000, 0.000000, 0.000000, 17487.000000, 320.512817, 4.000000, 4.000000, 4.000000, 4.000000, 4.000000, 4.000000, 4.000000, 4.000000, 4.000000, 4.000000, 4.000000, 4.000000, 4.000000, 4.000000, 4.000000, 4.000000
105.000000, 0.000000, 4158.974121, 4172.820313, 4197.948730, 4200.000000, 4208.205078, 4200.512695, 4204.102539, 4200.000000, 4201.538574, 4204.102539, 4199.487305, 4196.922852, 4207.179199, 4196.922852, 2495.000000, 8144.000000, 8151.000000, 0.000000, 0.000000, 0.000000, 17487.000000, 328.205109, 4.000000, 4.000000, 4.000000, 4.000000, 4.000000, 4.000000, 4.000000, 4.000000, 4.000000, 4.000000, 4.000000, 4.000000, 4.000000, 4.000000, 4.000000, 4.000000
106.000000, 0.000000, 4167.692383, 4183.589844, 4201.025391, 4200.512695, 4205.641113, 4205.641113, 4191.281738, 4202.563965, 4205.127930, 4212.820313, 4207.692383, 4203.589844, 4213.846191, 4197.948730, 3156.000000, 8144.000000, 8151.000000, 0.000000, 0.000000, 0.000000, 17487.000000, 336.410248, 4.000000, 4.000000, 4.000000, 4.000000, 4.000000, 4.000000, 4.000000, 4.000000, 4.000000, 4.000000, 4.000000, 4.000000, 4.000000, 4.000000, 4.000000, 4.000000
107.000000, 0.000000, 4172.820313, 4190.256348, 4201.025391, 4200.000000, 4207.692383, 4215.384277, 4189.230469, 4202.051270, 4204.102539, 4211.281738, 4207.179199, 4214.358887, 4209.743652, 4210.256348, 1717.000000, 8141.000000, 8152.000000, 0.000000, 0.000000, 0.000000, 17487.000000, 344.102570, 4.000000, 4.000000, 4.000000, 4.000000, 4.000000, 4.000000, 4.000000, 4.000000, 4.000000, 4.000000, 4.000000, 4.000000, 4.000000, 4.000000, 4.000000, 4.000000
108.000000, 0.000000, 4175.897461, 4191.794922, 4203.076660, 4204.102539, 4209.230469, 4217.436035, 4198.974121, 4202.563965, 4203.076660, 4208.717773, 4210.769043, 4209.230469, 4208.205078, 4206.153809, 3487.000000, 8141.000000, 8152.000000, 0.000000, 0.000000, 0.000000, 17487.000000, 351.794861, 4.000000, 4.000000, 4.000000, 4.000000, 4.000000, 4.000000, 4.000000, 4.000000, 4.000000, 4.000000, 4.000000, 4.000000, 4.000000, 4.000000, 4.000000, 4.000000
109.000000, 0.000000, 4176.410156, 4185.641113, 4208.205078, 4205.641113, 4200.000000, 4206.153809, 4202.563965, 4208.717773, 4203.076660, 4210.769043, 4213.846191, 4213.846191, 4210.256348, 4211.281738, 2495.000000, 8134.000000, 8144.000000, 0.000000, 0.000000, 0.000000, 17487.000000, 360.000000, 4.000000, 4.000000, 4.000000, 4.000000, 4.000000, 4.000000, 4.000000, 4.000000, 4.000000, 4.000000, 4.000000, 4.000000, 4.000000, 4.000000, 4.000000, 4.000000
110.000000, 0.000000, 4185.127930, 4188.205078, 4216.922852, 4208.717773, 4196.410156, 4196.410156, 4196.922852, 4215.897461, 4209.743652, 4220.000000, 4216.410156, 4228.205078, 4210.769043, 4229.743652, 3156.000000, 8134.000000, 8144.000000, 0.000000, 0.000000, 0.000000, 17487.000000, 367.692291, 4.000000, 4.000000, 4.000000, 4.000000, 4.000000, 4.000000, 4.000000, 4.000000, 4.000000, 4.000000, 4.000000, 4.000000, 4.000000, 4.000000, 4.000000, 4.000000
111.000000, 0.000000, 4201.025391, 4198.461426, 4223.076660, 4214.871582, 4208.205078, 4198.974121, 4194.358887, 4226.153809, 4222.563965, 4231.794922, 4226.153809, 4235.897461, 4214.358887, 4236.410156, 1717.000000, 8132.000000, 8142.000000, 0.000000, 0.000000, 0.000000, 17487.000000, 375.384613, 4.000000, 4.000000, 4.000000, 4.000000, 4.000000, 4.000000, 4.000000, 4.000000, 4.000000, 4.000000, 4.000000, 4.000000, 4.000000, 4.000000, 4.000000, 4.000000
112.000000, 0.000000, 4188.717773, 4203.589844, 4220.512695, 4218.461426, 4221.538574, 4209.230469, 4201.025391, 4232.820313, 4229.743652, 4236.922852, 4230.769043, 4228.205078, 4221.538574, 4222.563965, 3487.000000, 8132.000000, 8142.000000, 0.000000, 0.000000, 0.000000, 17487.000000, 383.076904, 4.000000, 4.000000, 4.000000, 4.000000, 4.000000, 4.000000, 4.000000, 4.000000, 4.000000, 4.000000, 4.000000, 4.000000, 4.000000, 4.000000, 4.000000, 4.000000
113.000000, 0.000000, 4167.179199, 4204.615234, 4216.410156, 4218.461426, 4220.512695, 4213.846191, 4203.076660, 4227.179199, 4224.615234, 4231.281738, 4222.563965, 4211.281738, 4215.384277, 4194.358887, 2495.000000, 8133.000000, 8139.000000, 0.000000, 0.000000, 0.000000, 17487.000000, 391.282043, 4.000000, 4.000000, 4.000000, 4.000000, 4.000000, 4.000000, 4.000000, 4.000000, 4.000000, 4.000000, 4.000000, 4.000000, 4.000000, 4.000000, 4.000000, 4.000000
114.000000, 0.000000, 4172.820313, 4197.948730, 4216.922852, 4217.436035, 4211.281738, 4207.179199, 4198.461426, 4217.436035, 4216.410156, 4222.563965, 4215.384277, 4214.871582, 4203.076660, 4197.948730, 3156.000000, 8133.000000, 8139.000000, 0.000000, 0.000000, 0.000000, 17487.000000, 398.974335, 4.000000, 4.000000, 4.000000, 4.000000, 4.000000, 4.000000, 4.000000, 4.000000, 4.000000, 4.000000, 4.000000, 4.000000, 4.000000, 4.000000, 4.000000, 4.000000
115.000000, 0.000000, 4174.871582, 4188.205078, 4214.871582, 4210.769043, 4209.230469, 4195.897461, 4202.563965, 4215.384277, 4211.794922, 4217.436035, 4209.230469, 4213.333008, 4198.974121, 4204.615234, 1717.000000, 8144.000000, 8144.000000, 0.000000, 0.000000, 0.000000, 17487.000000, 406.666656, 4.000000, 4.000000, 4.000000, 4.000000, 4.000000, 4.000000, 4.000000, 4.000000, 4.000000, 4.000000, 4.000000, 4.000000, 4.000000, 4.000000, 4.000000, 4.000000
116.000000, 0.000000, 4168.717773, 4187.179199, 4211.794922, 4207.692383, 4201.538574, 4200.512695, 4214.871582, 4223.076660, 4212.820313, 4215.384277, 4206.666504, 4210.769043, 4198.461426, 4194.358887, 3487.000000, 8144.000000, 8144.000000, 0.000000, 0.000000, 0.000000, 17487.000000, 414.358978, 4.000000, 4.000000, 4.000000, 4.000000, 4.000000, 4.000000, 4.000000, 4.000000, 4.000000, 4.000000, 4.000000, 4.000000, 4.000000, 4.000000, 4.000000, 4.000000
117.000000, 0.000000, 4170.769043, 4192.820313, 4214.871582, 4211.281738, 4193.333008, 4209.230469, 4211.794922, 4234.871582, 4220.000000, 4216.410156, 4215.384277, 4222.563965, 4202.563965, 4203.076660, 2495.000000, 8152.000000, 8151.000000, 0.000000, 0.000000, 0.000000, 17487.000000, 422.564087, 4.000000, 4.000000, 4.000000, 4.000000, 4.000000, 4.000000, 4.000000, 4.000000, 4.000000, 4.000000, 4.000000, 4.000000, 4.000000, 4.000000, 4.000000, 4.000000
118.000000, 0.000000, 4176.410156, 4201.025391, 4219.487305, 4217.436035, 4206.666504, 4206.153809, 4199.487305, 4231.281738, 4222.563965, 4221.025391, 4224.102539, 4219.487305, 4208.717773, 4201.538574, 3156.000000, 8152.000000, 8151.000000, 0.000000, 0.000000, 0.000000, 17487.000000, 430.256409, 4.000000, 4.000000, 4.000000, 4.000000, 4.000000, 4.000000, 4.000000, 4.000000, 4.000000, 4.000000, 4.000000, 4.000000, 4.000000, 4.000000, 4.000000, 4.000000
119.000000, 0.000000, 4183.076660, 4210.769043, 4222.563965, 4225.127930, 4218.974121, 4212.820313, 4206.666504, 4217.948730, 4217.436035, 4225.127930, 4226.153809, 4221.538574, 4213.333008, 4202.051270, 1717.000000, 8181.000000, 8169.000000, 0.000000, 0.000000, 0.000000, 17487.000000, 437.948700, 4.000000, 4.000000, 4.000000, 4.000000, 4.000000, 4.000000, 4.000000, 4.000000, 4.000000, 4.000000, 4.000000, 4.000000, 4.000000, 4.000000, 4.000000, 4.000000
120.000000, 0.000000, 4180.000000, 4209.230469, 4221.025391, 4225.641113, 4209.743652, 4223.076660, 4221.025391, 4218.461426, 4211.794922, 4226.153809, 4224.615234, 4226.153809, 4208.717773, 4202.051270, 3487.000000, 8181.000000, 8169.000000, 0.000000, 0.000000, 0.000000, 17487.000000, 446.153839, 4.000000, 4.000000, 4.000000, 4.000000, 4.000000, 4.000000, 4.000000, 4.000000, 4.000000, 4.000000, 4.000000, 4.000000, 4.000000, 4.000000, 4.000000, 4.000000
121.000000, 0.000000, 4171.794922, 4195.384277, 4214.871582, 4217.436035, 4201.025391, 4208.205078, 4208.205078, 4211.794922, 4201.538574, 4218.461426, 4216.922852, 4217.948730, 4197.948730, 4193.846191, 2495.000000, 8197.000000, 8164.000000, 0.000000, 0.000000, 0.000000, 17487.000000, 453.846130, 4.000000, 4.000000, 4.000000, 4.000000, 4.000000, 4.000000, 4.000000, 4.000000, 4.000000, 4.000000, 4.000000, 4.000000, 4.000000, 4.000000, 4.000000, 4.000000
122.000000, 0.000000, 4171.281738, 4192.820313, 4214.871582, 4209.743652, 4210.256348, 4195.897461, 4189.743652, 4198.974121, 4194.871582, 4207.179199, 4211.281738, 4215.384277, 4198.461426, 4202.051270, 3156.000000, 8197.000000, 8164.000000, 1.000000, 2.000000, 0.000000, 17487.000000, 461.538452, 4.000000, 4.000000, 4.000000, 4.000000, 4.000000, 4.000000, 4.000000, 4.000000, 4.000000, 4.000000, 4.000000, 4.000000, 4.000000, 4.000000, 4.000000, 4.000000
123.000000, 0.000000, 4174.358887, 4201.538574, 4213.846191, 4208.717773, 4207.179199, 4207.692383, 4194.358887, 4205.641113, 4201.538574, 4207.179199, 4210.256348, 4213.333008, 4202.051270, 4201.538574, 1717.000000, 8213.000000, 8156.000000, 0.000000, 0.000000, 0.000000, 17487.000000, 469.743591, 4.000000, 4.000000, 4.000000, 4.000000, 4.000000, 4.000000, 4.000000, 4.000000, 4.000000, 4.000000, 4.000000, 4.000000, 4.000000, 4.000000, 4.000000, 4.000000
124.000000, 0.000000, 4169.743652, 4196.922852, 4206.666504, 4209.230469, 4186.666504, 4207.692383, 4200.000000, 4213.846191, 4204.615234, 4211.281738, 4205.641113, 4214.871582, 4196.922852, 4201.025391, 3487.000000, 8213.000000, 8156.000000, 0.000000, 0.000000, 0.000000, 17487.000000, 477.435883, 4.000000, 4.000000, 4.000000, 4.000000, 4.000000, 4.000000, 4.000000, 4.000000, 4.000000, 4.000000, 4.000000, 4.000000, 4.000000, 4.000000, 4.000000, 4.000000
125.000000, 0.000000, 4159.487305, 4185.127930, 4206.666504, 4205.127930, 4188.717773, 4194.871582, 4194.358887, 4211.281738, 4207.179199, 4210.769043, 4203.589844, 4212.307617, 4193.846191, 4201.538574, 2495.000000, 8235.000000, 8159.000000, 0.000000, 0.000000, 0.000000, 17487.000000, 485.128204, 4.000000, 4.000000, 4.000000, 4.000000, 4.000000, 4.000000, 4.000000, 4.000000, 4.000000, 4.000000, 4.000000, 4.000000, 4.000000, 4.000000, 4.000000, 4.000000
126.000000, 0.000000, 4162.051270, 4187.692383, 4214.358887, 4203.076660, 4208.205078, 4203.589844, 4197.948730, 4214.871582, 4217.948730, 4211.794922, 4206.153809, 4208.205078, 4198.461426, 4188.717773, 3156.000000, 8235.000000, 8159.000000, 0.000000, 0.000000, 0.000000, 17487.000000, 492.820496, 4.000000, 4.000000, 4.000000, 4.000000, 4.000000, 4.000000, 4.000000, 4.000000, 4.000000, 4.000000, 4.000000, 4.000000, 4.000000, 4.000000, 4.000000, 4.000000
127.000000, 0.000000, 4170.769043, 4198.461426, 4216.922852, 4211.794922, 4218.461426, 4216.410156, 4206.153809, 4220.000000, 4223.589844, 4220.000000, 4208.205078, 4216.922852, 4201.538574, 4195.384277, 55.000000, 8249.000000, 8150.000000, 0.000000, 0.000000, 0.000000, 17487.000000, 501.025635, 4.000000, 4.000000, 4.000000, 4.000000, 4.000000, 4.000000, 4.000000, 4.000000, 4.000000, 4.000000, 4.000000, 4.000000, 4.000000, 4.000000, 4.000000, 4.000000
0.000000, 0.000000, 4172.820313, 4201.025391, 4216.922852, 4219.487305, 4214.358887, 4211.794922, 4203.589844, 4219.487305, 4224.615234, 4226.153809, 4209.743652, 4214.871582, 4203.076660, 4198.461426, 3504.000000, 8249.000000, 8150.000000, 0.000000, 0.000000, 0.000000, 17487.000000, 509.230743, 4.000000, 4.000000, 4.000000, 4.000000, 4.000000, 4.000000, 4.000000, 4.000000, 4.000000, 4.000000, 4.000000, 4.000000, 4.000000, 4.000000, 4.000000, 4.000000
1.000000, 0.000000, 4174.358887, 4195.384277, 4218.974121, 4214.871582, 4201.538574, 4208.205078, 4199.487305, 4217.436035, 4218.974121, 4218.974121, 4207.179199, 4214.871582, 4198.974121, 4196.410156, 3540.000000, 8255.000000, 8138.000000, 0.000000, 0.000000, 0.000000, 17487.000000, 516.923035, 4.000000, 4.000000, 4.000000, 4.000000, 4.000000, 4.000000, 4.000000, 4.000000, 4.000000, 4.000000, 4.000000, 4.000000, 4.000000, 4.000000, 4.000000, 4.000000
2.000000, 0.000000, 4169.743652, 4195.384277, 4218.461426, 4210.769043, 4193.333008, 4211.794922, 4198.974121, 4206.666504, 4204.615234, 4208.717773, 4203.589844, 4217.948730, 4190.769043, 4198.974121, 2758.000000, 8255.000000, 8138.000000, 0.000000, 0.000000, 0.000000, 17487.000000, 525.128174, 4.000000, 4.000000, 4.000000, 4.000000, 4.000000, 4.000000, 4.000000, 4.000000, 4.000000, 4.000000, 4.000000, 4.000000, 4.000000, 4.000000, 4.000000, 4.000000
3.000000, 0.000000, 4168.205078, 4195.384277, 4215.897461, 4208.717773, 4205.641113, 4214.358887, 4197.948730, 4199.487305, 4205.127930, 4207.692383, 4202.563965, 4213.846191, 4189.743652, 4194.358887, 3556.000000, 8257.000000, 8140.000000, 0.000000, 0.000000, 0.000000, 17487.000000, 532.820496, 4.000000, 4.000000, 4.000000, 4.000000, 4.000000, 4.000000, 4.000000, 4.000000, 4.000000, 4.000000, 4.000000, 4.000000, 4.000000, 4.000000, 4.000000, 4.000000
4.000000, 0.000000, 4171.281738, 4186.666504, 4215.897461, 4202.051270, 4216.922852, 4217.436035, 4203.589844, 4209.230469, 4213.333008, 4209.743652, 4200.512695, 4216.410156, 4193.333008, 4200.512695, 3521.000000, 8257.000000, 8140.000000, 0.000000, 0.000000, 0.000000, 17487.000000, 540.512817, 4.000000, 4.000000, 4.000000, 4.000000, 4.000000, 4.000000, 4.000000, 4.000000, 4.000000, 4.000000, 4.000000, 4.000000, 4.000000, 4.000000, 4.000000, 4.000000
5.000000, 0.000000, 4169.743652, 4184.102539, 4212.820313, 4200.000000, 4208.205078, 4216.922852, 4217.436035, 4217.436035, 4206.666504, 4208.205078, 4198.974121, 4211.794922, 4189.743652, 4197.948730, 3530.000000, 8239.000000, 8118.000000, 0.000000, 0.000000, 0.000000, 17487.000000, 548.717957, 4.000000, 4.000000, 4.000000, 4.000000, 4.000000, 4.000000, 4.000000, 4.000000, 4.000000, 4.000000, 4.000000, 4.000000, 4.000000, 4.000000, 4.000000, 4.000000
6.000000, 0.000000, 4169.230469, 4188.205078, 4210.769043, 4205.127930, 4205.641113, 4212.820313, 4221.538574, 4216.922852, 4202.563965, 4203.076660, 4199.487305, 4211.281738, 4185.641113, 4193.846191, 3450.000000, 8239.000000, 8118.000000, 0.000000, 0.000000, 0.000000, 17487.000000, 556.410217, 4.000000, 4.000000, 4.000000, 4.000000, 4.000000, 4.000000, 4.000000, 4.000000, 4.000000, 4.000000, 4.000000, 4.000000, 4.000000, 4.000000, 4.000000, 4.000000
7.000000, 0.000000, 4170.256348, 4190.256348, 4216.410156, 4210.256348, 4215.384277, 4215.897461, 4207.692383, 4213.846191, 4206.666504, 4204.615234, 4196.922852, 4213.333008, 4188.717773, 4199.487305, 3201.000000, 8232.000000, 8102.000000, 0.000000, 0.000000, 0.000000, 17487.000000, 564.102539, 4.000000, 4.000000, 4.000000, 4.000000, 4.000000, 4.000000, 4.000000, 4.000000, 4.000000, 4.000000, 4.000000, 4.000000, 4.000000, 4.000000, 4.000000, 4.000000
8.000000, 0.000000, 4164.615234, 4187.692383, 4214.871582, 4207.179199, 4212.820313, 4215.384277, 4201.025391, 4207.179199, 4200.512695, 4202.563965, 4189.230469, 4204.102539, 4187.179199, 4190.769043, 3536.000000, 8232.000000, 8102.000000, 0.000000, 0.000000, 0.000000, 17487.000000, 571.794861, 4.000000, 4.000000, 4.000000, 4.000000, 4.000000, 4.000000, 4.000000, 4.000000, 4.000000, 4.000000, 4.000000, 4.000000, 4.000000, 4.000000, 4.000000, 4.000000
9.000000, 0.000000, 4154.871582, 4176.922852, 4201.538574, 4197.948730, 4187.179199, 4196.922852, 4200.000000, 4197.436035, 4184.615234, 4184.102539, 4178.974121, 4199.487305, 4178.974121, 4192.307617, 3536.000000, 8226.000000, 8096.000000, 0.000000, 0.000000, 0.000000, 17487.000000, 580.000000, 4.000000, 4.000000, 4.000000, 4.000000, 4.000000, 4.000000, 4.000000, 4.000000, 4.000000, 4.000000, 4.000000, 4.000000, 4.000000, 4.000000, 4.000000, 4.000000
10.000000, 0.000000, 4158.461426, 4178.461426, 4201.538574, 4200.512695, 4180.000000, 4189.230469, 4190.769043, 4193.846191, 4185.127930, 4182.563965, 4181.538574, 4198.461426, 4186.153809, 4197.436035, 3150.000000, 8226.000000, 8096.000000, 0.000000, 0.000000, 0.000000, 17487.000000, 588.205139, 4.000000, 4.000000, 4.000000, 4.000000, 4.000000, 4.000000, 4.000000, 4.000000, 4.000000, 4.000000, 4.000000, 4.000000, 4.000000, 4.000000, 4.000000, 4.000000
11.000000, 0.000000, 4167.692383, 4190.256348, 4214.358887, 4209.230469, 4207.692383, 4201.538574, 4192.307617, 4198.974121, 4198.974121, 4204.615234, 4194.358887, 4205.641113, 4196.922852, 4196.922852, 1712.000000, 8198.000000, 8074.000000, 0.000000, 0.000000, 0.000000, 17487.000000, 595.897400, 4.000000, 4.000000, 4.000000, 4.000000, 4.000000, 4.000000, 4.000000, 4.000000, 4.000000, 4.000000, 4.000000, 4.000000, 4.000000, 4.000000, 4.000000, 4.000000
12.000000, 0.000000, 4161.538574, 4184.615234, 4210.769043, 4202.563965, 4219.487305, 4201.025391, 4200.512695, 4199.487305, 4198.974121, 4208.717773, 4199.487305, 4210.256348, 4193.333008, 4202.051270, 3486.000000, 8198.000000, 8074.000000, 0.000000, 0.000000, 0.000000, 17487.000000, 603.589722, 4.000000, 4.000000, 4.000000, 4.000000, 4.000000, 4.000000, 4.000000, 4.000000, 4.000000, 4.000000, 4.000000, 4.000000, 4.000000, 4.000000, 4.000000, 4.000000
13.000000, 0.000000, 4159.487305, 4179.487305, 4200.512695, 4199.487305, 4204.102539, 4195.384277, 4196.922852, 4194.358887, 4188.717773, 4195.897461, 4197.436035, 4201.538574, 4190.256348, 4196.410156, 2486.000000, 8185.000000, 8069.000000, 0.000000, 0.000000, 0.000000, 17487.000000, 611.794861, 4.000000, 4.000000, 4.000000, 4.000000, 4.000000, 4.000000, 4.000000, 4.000000, 4.000000, 4.000000, 4.000000, 4.000000, 4.000000, 4.000000, 4.000000, 4.000000
14.000000, 0.000000, 4167.692383, 4190.256348, 4208.717773, 4209.230469, 4203.076660, 4207.179199, 4196.410156, 4200.512695, 4193.333008, 4196.410156, 4194.871582, 4209.230469, 4188.205078, 4197.436035, 3150.000000, 8185.000000, 8069.000000, 0.000000, 0.000000, 0.000000, 17487.000000, 619.487183, 4.000000, 4.000000, 4.000000, 4.000000, 4.000000, 4.000000, 4.000000, 4.000000, 4.000000, 4.000000, 4.000000, 4.000000, 4.000000, 4.000000, 4.000000, 4.000000
15.000000, 0.000000, 4170.769043, 4192.307617, 4216.410156, 4209.743652, 4211.281738, 4209.743652, 4204.102539, 4210.256348, 4207.179199, 4206.666504, 4196.410156, 4214.871582, 4188.717773, 4201.538574, 1712.000000, 8161.000000, 8080.000000, 0.000000, 0.000000, 0.000000, 17487.000000, 627.179443, 4.000000, 4.000000, 4.000000, 4.000000, 4.000000, 4.000000, 4.000000, 4.000000, 4.000000, 4.000000, 4.000000, 4.000000, 4.000000, 4.000000, 4.000000, 4.000000
16.000000, 0.000000, 4170.256348, 4186.153809, 4209.743652, 4201.025391, 4200.512695, 4187.179199, 4201.538574, 4205.641113, 4203.589844, 4202.563965, 4204.102539, 4209.743652, 4201.538574, 4202.051270, 0.000000, 8161.000000, 8080.000000, 0.000000, 0.000000, 0.000000, 17487.000000, 634.871765, 4.000000, 4.000000, 4.000000, 4.000000, 4.000000, 4.000000, 4.000000, 4.000000, 4.000000, 4.000000, 4.000000, 4.000000, 4.000000, 4.000000, 4.000000, 4.000000
17.000000, 0.000000, 4174.358887, 4192.307617, 4205.641113, 4200.000000, 4198.974121, 4174.871582, 4197.948730, 4195.897461, 4192.307617, 4194.358887, 4209.743652, 4211.281738, 4215.384277, 4209.230469, 0.000000, 8156.000000, 8079.000000, 0.000000, 0.000000, 0.000000, 17487.000000, 643.076904, 4.000000, 4.000000, 4.000000, 4.000000, 4.000000, 4.000000, 4.000000, 4.000000, 4.000000, 4.000000, 4.000000, 4.000000, 4.000000, 4.000000, 4.000000, 4.000000
18.000000, 0.000000, 4188.205078, 4200.512695, 4214.871582, 4206.666504, 4203.076660, 4187.179199, 4204.615234, 4200.512695, 4199.487305, 4207.179199, 4217.948730, 4219.487305, 4221.538574, 4205.127930, 0.000000, 8156.000000, 8079.000000, 0.000000, 0.000000, 0.000000, 17487.000000, 650.769226, 4.000000, 4.000000, 4.000000, 4.000000, 4.000000, 4.000000, 4.000000, 4.000000, 4.000000, 4.000000, 4.000000, 4.000000, 4.000000, 4.000000, 4.000000, 4.000000
19.000000, 0.000000, 4204.615234, 4200.512695, 4228.717773, 4211.281738, 4189.230469, 4195.384277, 4216.922852, 4213.846191, 4212.820313, 4226.666504, 4233.846191, 4233.846191, 4230.256348, 4209.230469, 0.000000, 8147.000000, 8062.000000, 0.000000, 0.000000, 0.000000, 17487.000000, 658.974365, 4.000000, 4.000000, 4.000000, 4.000000, 4.000000, 4.000000, 4.000000, 4.000000, 4.000000, 4.000000, 4.000000, 4.000000, 4.000000, 4.000000, 4.000000, 4.000000
20.000000, 0.000000, 4211.794922, 4204.615234, 4228.205078, 4215.384277, 4188.205078, 4189.743652, 4215.384277, 4216.922852, 4216.410156, 4224.102539, 4246.153809, 4231.794922, 4243.076660, 4214.358887, 0.000000, 8147.000000, 8062.000000, 0.000000, 0.000000, 0.000000, 17487.000000, 666.666626, 4.000000, 4.000000, 4.000000, 4.000000, 4.000000, 4.000000, 4.000000, 4.000000, 4.000000, 4.000000, 4.000000, 4.000000, 4.000000, 4.000000, 4.000000, 4.000000
21.000000, 0.000000, 4221.025391, 4215.384277, 4220.512695, 4216.410156, 4209.230469, 4188.205078, 4197.436035, 4214.358887, 4218.974121, 4223.589844, 4249.230469, 4228.205078, 4251.794922, 4212.820313, 0.000000, 8135.000000, 8046.000000, 0.000000, 0.000000, 0.000000, 17487.000000, 674.871765, 4.000000, 4.000000, 4.000000, 4.000000, 4.000000, 4.000000, 4.000000, 4.000000, 4.000000, 4.000000, 4.000000, 4.000000, 4.000000, 4.000000, 4.000000, 4.000000
22.000000, 0.000000, 4236.922852, 4225.641113, 4223.589844, 4214.871582, 4216.410156, 4194.871582, 4198.461426, 4222.051270, 4229.743652, 4240.000000, 4260.512695, 4243.589844, 4263.076660, 4222.563965, 0.000000, 8135.000000, 8046.000000, 0.000000, 0.000000, 0.000000, 17487.000000, 682.564087, 4.000000, 4.000000, 4.000000, 4.000000, 4.000000, 4.000000, 4.000000, 4.000000, 4.000000, 4.000000, 4.000000, 4.000000, 4.000000, 4.000000, 4.000000, 4.000000
23.000000, 0.000000, 4246.666504, 4232.820313, 4234.871582, 4220.000000, 4205.127930, 4206.666504, 4219.487305, 4236.410156, 4238.461426, 4252.307617, 4283.589844, 4251.794922, 4272.820313, 4218.974121, 0.000000, 8124.000000, 8035.000000, 0.000000, 0.000000, 0.000000, 17487.000000, 690.769226, 4.000000, 4.000000, 4.000000, 4.000000, 4.000000, 4.000000, 4.000000, 4.000000, 4.000000, 4.000000, 4.000000, 4.000000, 4.000000, 4.000000, 4.000000, 4.000000
24.000000, 0.000000, 4251.281738, 4232.820313, 4238.461426, 4226.666504, 4203.076660, 4214.871582, 4225.641113, 4237.948730, 4236.410156, 4257.948730, 4293.333008, 4257.436035, 4278.461426, 4219.487305, 0.000000, 8124.000000, 8035.000000, 0.000000, 0.000000, 0.000000, 17487.000000, 698.461548, 4.000000, 4.000000, 4.000000, 4.000000, 4.000000, 4.000000, 4.000000, 4.000000, 4.000000, 4.000000, 4.000000, 4.000000, 4.000000, 4.000000, 4.000000, 4.000000
25.000000, 0.000000, 4249.230469, 4220.512695, 4234.358887, 4219.487305, 4197.948730, 4207.179199, 4208.717773, 4228.717773, 4231.794922, 4254.871582, 4286.666504, 4255.384277, 4271.794922, 4219.487305, 0.000000, 8117.000000, 8019.000000, 0.000000, 0.000000, 0.000000, 17487.000000, 706.666626, 4.000000, 4.000000, 4.000000, 4.000000, 4.000000, 4.000000, 4.000000, 4.000000, 4.000000, 4.000000, 4.000000, 4.000000, 4.000000, 4.000000, 4.000000, 4.000000
26.000000, 0.000000, 4240.000000, 4205.641113, 4231.281738, 4206.666504, 4183.589844, 4192.820313, 4201.538574, 4226.666504, 4231.794922, 4239.487305, 4278.461426, 4245.127930, 4256.410156, 4206.666504, 0.000000, 8117.000000, 8019.000000, 0.000000, 0.000000, 0.000000, 17487.000000, 714.358948, 4.000000, 4.000000, 4.000000, 4.000000, 4.000000, 4.000000, 4.000000, 4.000000, 4.000000, 4.000000, 4.000000, 4.000000, 4.000000, 4.000000, 4.000000, 4.000000
27.000000, 0.000000, 4238.974121, 4209.230469, 4232.820313, 4210.769043, 4191.281738, 4200.000000, 4212.820313, 4233.846191, 4239.487305, 4242.051270, 4280.000000, 4249.743652, 4259.487305, 4213.846191, 0.000000, 8115.000000, 8038.000000, 0.000000, 0.000000, 0.000000, 17487.000000, 722.051270, 4.000000, 4.000000, 4.000000, 4.000000, 4.000000, 4.000000, 4.000000, 4.000000, 4.000000, 4.000000, 4.000000, 4.000000, 4.000000, 4.000000, 4.000000, 4.000000
28.000000, 0.000000, 4241.025391, 4219.487305, 4236.410156, 4219.487305, 4201.538574, 4209.230469, 4220.512695, 4235.384277, 4244.102539, 4267.692383, 4285.127930, 4247.692383, 4265.641113, 4211.281738, 0.000000, 8115.000000, 8038.000000, 0.000000, 0.000000, 0.000000, 17487.000000, 729.743591, 4.000000, 4.000000, 4.000000, 4.000000, 4.000000, 4.000000, 4.000000, 4.000000, 4.000000, 4.000000, 4.000000, 4.000000, 4.000000, 4.000000, 4.000000, 4.000000
29.000000, 0.000000, 4231.794922, 4215.384277, 4232.307617, 4212.820313, 4192.307617, 4195.897461, 4216.410156, 4220.000000, 4232.820313, 4263.076660, 4276.410156, 4240.512695, 4247.692383, 4205.127930, 0.000000, 8131.000000, 8078.000000, 0.000000, 0.000000, 0.000000, 17487.000000, 737.948669, 4.000000, 4.000000, 4.000000, 4.000000, 4.000000, 4.000000, 4.000000, 4.000000, 4.000000, 4.000000, 4.000000, 4.000000, 4.000000, 4.000000, 4.000000, 4.000000
30.000000, 0.000000, 4224.102539, 4212.307617, 4228.717773, 4207.179199, 4192.820313, 4200.000000, 4212.307617, 4210.769043, 4226.666504, 4242.563965, 4265.641113, 4238.974121, 4233.846191, 4206.666504, 0.000000, 8131.000000, 8078.000000, 0.000000, 0.000000, 0.000000, 17487.000000, 745.640991, 4.000000, 4.000000, 4.000000, 4.000000, 4.000000, 4.000000, 4.000000, 4.000000, 4.000000, 4.000000, 4.000000, 4.000000, 4.000000, 4.000000, 4.000000, 4.000000
31.000000, 0.000000, 4222.563965, 4205.641113, 4228.205078, 4208.717773, 4208.717773, 4217.436035, 4215.384277, 4218.461426, 4234.358887, 4244.102539, 4266.666504, 4236.922852, 4237.948730, 4198.974121, 0.000000, 8144.000000, 8086.000000, 0.000000, 0.000000, 0.000000, 17487.000000, 753.333313, 4.000000, 4.000000, 4.000000, 4.000000, 4.000000, 4.000000, 4.000000, 4.000000, 4.000000, 4.000000, 4.000000, 4.000000, 4.000000, 4.000000, 4.000000, 4.000000
32.000000, 0.000000, 4209.743652, 4186.153809, 4220.000000, 4204.102539, 4208.205078, 4207.692383, 4217.436035, 4218.461426, 4227.692383, 4243.076660, 4262.563965, 4234.358887, 4232.307617, 4202.563965, 0.000000, 8144.000000, 8086.000000, 0.000000, 0.000000, 0.000000, 17487.000000, 761.025635, 4.000000, 4.000000, 4.000000, 4.000000, 4.000000, 4.000000, 4.000000, 4.000000, 4.000000, 4.000000, 4.000000, 4.000000, 4.000000, 4.000000, 4.000000, 4.000000
33.000000, 0.000000, 4197.948730, 4181.538574, 4211.281738, 4200.512695, 4203.076660, 4204.102539, 4223.076660, 4217.436035, 4223.589844, 4238.974121, 4253.846191, 4225.641113, 4220.512695, 4200.000000, 0.000000, 8158.000000, 8093.000000, 0.000000, 0.000000, 0.000000, 17487.000000, 769.230774, 4.000000, 4.000000, 4.000000, 4.000000, 4.000000, 4.000000, 4.000000, 4.000000, 4.000000, 4.000000, 4.000000, 4.000000, 4.000000, 4.000000, 4.000000, 4.000000
34.000000, 0.000000, 4195.384277, 4191.281738, 4208.205078, 4203.589844, 4207.692383, 4223.589844, 4234.358887, 4231.281738, 4241.025391, 4247.692383, 4247.692383, 4226.666504, 4216.922852, 4195.384277, 0.000000, 8158.000000, 8093.000000, 0.000000, 0.000000, 0.000000, 17487.000000, 776.923035, 4.000000, 4.000000, 4.000000, 4.000000, 4.000000, 4.000000, 4.000000, 4.000000, 4.000000, 4.000000, 4.000000, 4.000000, 4.000000, 4.000000, 4.000000, 4.000000
35.000000, 0.000000, 4181.025391, 4183.076660, 4201.538574, 4196.922852, 4204.102539, 4228.205078, 4237.436035, 4238.974121, 4240.512695, 4243.589844, 4235.384277, 4222.051270, 4210.256348, 4196.922852, 0.000000, 8192.000000, 8086.000000, 0.000000, 0.000000, 0.000000, 17487.000000, 784.615356, 4.000000, 4.000000, 4.000000, 4.000000, 4.000000, 4.000000, 4.000000, 4.000000, 4.000000, 4.000000, 4.000000, 4.000000, 4.000000, 4.000000, 4.000000, 4.000000
36.000000, 0.000000, 4165.641113, 4167.179199, 4193.846191, 4185.641113, 4202.051270, 4213.846191, 4229.743652, 4227.692383, 4219.487305, 4221.538574, 4222.051270, 4207.179199, 4198.461426, 4191.794922, 0.000000, 8192.000000, 8086.000000, 0.000000, 0.000000, 0.000000, 17487.000000, 792.307678, 4.000000, 4.000000, 4.000000, 4.000000, 4.000000, 4.000000, 4.000000, 4.000000, 4.000000, 4.000000, 4.000000, 4.000000, 4.000000, 4.000000, 4.000000, 4.000000
37.000000, 0.000000, 4166.153809, 4165.127930, 4198.974121, 4185.127930, 4203.076660, 4205.127930, 4217.436035, 4216.922852, 4212.820313, 4213.333008, 4221.025391, 4214.358887, 4196.922852, 4202.051270, 0.000000, 8208.000000, 8064.000000, 0.000000, 0.000000, 0.000000, 17487.000000, 800.512817, 4.000000, 4.000000, 4.000000, 4.000000, 4.000000, 4.000000, 4.000000, 4.000000, 4.000000, 4.000000, 4.000000, 4.000000, 4.000000, 4.000000, 4.000000, 4.000000
38.000000, 0.000000, 4165.127930, 4167.179199, 4203.589844, 4191.794922, 4200.512695, 4204.102539, 4212.820313, 4215.897461, 4217.948730, 4224.615234, 4227.692383, 4220.000000, 4205.641113, 4206.153809, 0.000000, 8208.000000, 8064.000000, 0.000000, 0.000000, 0.000000, 17487.000000, 808.205078, 4.000000, 4.000000, 4.000000, 4.000000, 4.000000, 4.000000, 4.000000, 4.000000, 4.000000, 4.000000, 4.000000, 4.000000, 4.000000, 4.000000, 4.000000, 4.000000
39.000000, 0.000000, 4166.153809, 4170.769043, 4203.076660, 4196.922852, 4206.666504, 4211.794922, 4218.974121, 4226.153809, 4223.076660, 4235.384277, 4230.769043, 4225.641113, 4214.358887, 4203.076660, 0.000000, 8230.000000, 8006.000000, 0.000000, 0.000000, 0.000000, 17487.000000, 815.897400, 4.000000, 4.000000, 4.000000, 4.000000, 4.000000, 4.000000, 4.000000, 4.000000, 4.000000, 4.000000, 4.000000, 4.000000, 4.000000, 4.000000, 4.000000, 4.000000
40.000000, 0.000000, 4169.743652, 4177.436035, 4212.307617, 4201.025391, 4210.769043, 4217.948730, 4223.589844, 4234.358887, 4232.307617, 4239.487305, 4236.410156, 4235.384277, 4220.000000, 4205.641113, 0.000000, 8230.000000, 8006.000000, 0.000000, 0.000000, 0.000000, 17487.000000, 823.589722, 4.000000, 4.000000, 4.000000, 4.000000, 4.000000, 4.000000, 4.000000, 4.000000, 4.000000, 4.000000, 4.000000, 4.000000, 4.000000, 4.000000, 4.000000, 4.000000
41.000000, 0.000000, 4161.538574, 4175.384277, 4216.922852, 4201.538574, 4198.974121, 4207.692383, 4213.846191, 4224.615234, 4230.256348, 4236.922852, 4233.846191, 4227.179199, 4213.333008, 4196.922852, 0.000000, 8227.000000, 7982.000000, 0.000000, 0.000000, 0.000000, 17487.000000, 831.794861, 4.000000, 4.000000, 4.000000, 4.000000, 4.000000, 4.000000, 4.000000, 4.000000, 4.000000, 4.000000, 4.000000, 4.000000, 4.000000, 4.000000, 4.000000, 4.000000
42.000000, 0.000000, 4155.384277, 4167.692383, 4208.717773, 4195.897461, 4189.743652, 4196.922852, 4206.666504, 4213.333008, 4215.897461, 4229.230469, 4222.051270, 4218.974121, 4204.102539, 4201.538574, 0.000000, 8227.000000, 7982.000000, 0.000000, 0.000000, 0.000000, 17487.000000, 839.487183, 4.000000, 4.000000, 4.000000, 4.000000, 4.000000, 4.000000, 4.000000, 4.000000, 4.000000, 4.000000, 4.000000, 4.000000, 4.000000, 4.000000, 4.000000, 4.000000
43.000000, 0.000000, 4156.922852, 4169.743652, 4205.127930, 4197.948730, 4205.127930, 4205.127930, 4216.922852, 4216.410156, 4213.846191, 4230.769043, 4222.051270, 4217.948730, 4208.717773, 4202.563965, 0.000000, 8222.000000, 7959.000000, 0.000000, 0.000000, 0.000000, 17487.000000, 847.179443, 4.000000, 4.000000, 4.000000, 4.000000, 4.000000, 4.000000, 4.000000, 4.000000, 4.000000, 4.000000, 4.000000, 4.000000, 4.000000, 4.000000, 4.000000, 4.000000
44.000000, 0.000000, 4154.871582, 4174.871582, 4207.179199, 4199.487305, 4212.820313, 4211.794922, 4224.615234, 4220.000000, 4221.538574, 4238.461426, 4232.820313, 4223.589844, 4216.410156, 4200.000000, 0.000000, 8222.000000, 7959.000000, 0.000000, 0.000000, 0.000000, 17487.000000, 855.384583, 4.000000, 4.000000, 4.000000, 4.000000, 4.000000, 4.000000, 4.000000, 4.000000, 4.000000, 4.000000, 4.000000, 4.000000, 4.000000, 4.000000, 4.000000, 4.000000
45.000000, 0.000000, 4145.127930, 4172.307617, 4201.025391, 4189.230469, 4201.538574, 4202.563965, 4216.410156, 4214.358887, 4222.051270, 4235.897461, 4235.897461, 4223.589844, 4215.897461, 4206.666504, 0.000000, 8201.000000, 7899.000000, 0.000000, 0.000000, 0.000000, 17487.000000, 863.076904, 4.000000, 4.000000, 4.000000, 4.000000, 4.000000, 4.000000, 4.000000, 4.000000, 4.000000, 4.000000, 4.000000, 4.000000, 4.000000, 4.000000, 4.000000, 4.000000
46.000000, 0.000000, 4138.974121, 4171.794922, 4194.871582, 4186.153809, 4204.102539, 4205.127930, 4216.410156, 4218.974121, 4229.230469, 4237.436035, 4234.358887, 4212.307617, 4216.410156, 4198.461426, 0.000000, 8201.000000, 7899.000000, 0.000000, 0.000000, 0.000000, 17487.000000, 870.769226, 4.000000, 4.000000, 4.000000, 4.000000, 4.000000, 4.000000, 4.000000, 4.000000, 4.000000, 4.000000, 4.000000, 4.000000, 4.000000, 4.000000, 4.000000, 4.000000
47.000000, 0.000000, 4142.563965, 4174.358887, 4196.410156, 4192.820313, 4211.794922, 4217.948730, 4226.666504, 4228.205078, 4236.922852, 4242.051270, 4233.333008, 4214.358887, 4214.358887, 4198.974121, 0.000000, 8186.000000, 7871.000000, 0.000000, 0.000000, 0.000000, 17487.000000, 878.461487, 4.000000, 4.000000, 4.000000, 4.000000, 4.000000, 4.000000, 4.000000, 4.000000, 4.000000, 4.000000, 4.000000, 4.000000, 4.000000, 4.000000, 4.000000, 4.000000
48.000000, 0.000000, 4137.948730, 4169.743652, 4187.179199, 4187.179199, 4204.615234, 4206.666504, 4223.076660, 4219.487305, 4226.153809, 4227.692383, 4221.538574, 4207.692383, 4202.563965, 4196.922852, 0.000000, 8186.000000, 7871.000000, 0.000000, 0.000000, 0.000000, 17487.000000, 886.666626, 4.000000, 4.000000, 4.000000, 4.000000, 4.000000, 4.000000, 4.000000, 4.000000, 4.000000, 4.000000, 4.000000, 4.000000, 4.000000, 4.000000, 4.000000, 4.000000
49.000000, 0.000000, 4129.743652, 4167.179199, 4175.384277, 4180.512695, 4204.102539, 4201.025391, 4214.358887, 4213.846191, 4218.461426, 4218.974121, 4211.281738, 4200.512695, 4199.487305, 4192.307617, 0.000000, 8150.000000, 7828.000000, 0.000000, 0.000000, 0.000000, 17487.000000, 894.358948, 4.000000, 4.000000, 4.000000, 4.000000, 4.000000, 4.000000, 4.000000, 4.000000, 4.000000, 4.000000, 4.000000, 4.000000, 4.000000, 4.000000, 4.000000, 4.000000
50.000000, 0.000000, 4135.384277, 4175.897461, 4180.000000, 4189.230469, 4209.743652, 4221.538574, 4218.974121, 4223.076660, 4226.153809, 4232.820313, 4218.974121, 4209.743652, 4209.230469, 4206.153809, 0.000000, 8150.000000, 7828.000000, 0.000000, 0.000000, 0.000000, 17487.000000, 902.051270, 4.000000, 4.000000, 4.000000, 4.000000, 4.000000, 4.000000, 4.000000, 4.000000, 4.000000, 4.000000, 4.000000, 4.000000, 4.000000, 4.000000, 4.000000, 4.000000
51.000000, 0.000000, 4136.410156, 4171.281738, 4182.563965, 4186.666504, 4191.281738, 4213.846191, 4221.538574, 4218.461426, 4222.051270, 4226.666504, 4220.000000, 4206.153809, 4207.179199, 4201.538574, 0.000000, 8131.000000, 7810.000000, 0.000000, 0.000000, 0.000000, 17487.000000, 910.256409, 4.000000, 4.000000, 4.000000, 4.000000, 4.000000, 4.000000, 4.000000, 4.000000, 4.000000, 4.000000, 4.000000, 4.000000, 4.000000, 4.000000, 4.000000, 4.000000
52.000000, 0.000000, 4124.615234, 4153.333008, 4176.922852, 4170.769043, 4174.871582, 4190.769043, 4217.436035, 4206.666504, 4206.666504, 4208.205078, 4206.666504, 4201.025391, 4197.436035, 4195.384277, 0.000000, 8131.000000, 7810.000000, 0.000000, 0.000000, 0.000000, 17487.000000, 917.948669, 4.000000, 4.000000, 4.000000, 4.000000, 4.000000, 4.000000, 4.000000, 4.000000, 4.000000, 4.000000, 4.000000, 4.000000, 4.000000, 4.000000, 4.000000, 4.000000
53.000000, 0.000000, 4121.538574, 4157.436035, 4180.000000, 4174.358887, 4192.820313, 4205.127930, 4214.358887, 4212.820313, 4211.794922, 4215.384277, 4204.102539, 4201.538574, 4205.641113, 4201.538574, 0.000000, 8117.000000, 7798.000000, 0.000000, 0.000000, 0.000000, 17487.000000, 926.153809, 4.000000, 4.000000, 4.000000, 4.000000, 4.000000, 4.000000, 4.000000, 4.000000, 4.000000, 4.000000, 4.000000, 4.000000, 4.000000, 4.000000, 4.000000, 4.000000
54.000000, 0.000000, 4134.358887, 4173.333008, 4189.743652, 4187.179199, 4207.692383, 4222.051270, 4206.666504, 4219.487305, 4219.487305, 4222.563965, 4210.256348, 4205.127930, 4217.948730, 4204.615234, 0.000000, 8117.000000, 7798.000000, 0.000000, 0.000000, 0.000000, 17487.000000, 933.846130, 4.000000, 4.000000, 4.000000, 4.000000, 4.000000, 4.000000, 4.000000, 4.000000, 4.000000, 4.000000, 4.000000, 4.000000, 4.000000, 4.000000, 4.000000, 4.000000
55.000000, 0.000000, 4138.974121, 4169.230469, 4189.743652, 4183.076660, 4203.589844, 4214.871582, 4202.563965, 4215.384277, 4213.333008, 4215.384277, 4207.179199, 4211.281738, 4214.871582, 4205.127930, 0.000000, 8101.000000, 7787.000000, 0.000000, 0.000000, 0.000000, 17487.000000, 942.051270, 4.000000, 4.000000, 4.000000, 4.000000, 4.000000, 4.000000, 4.000000, 4.000000, 4.000000, 4.000000, 4.000000, 4.000000, 4.000000, 4.000000, 4.000000, 4.000000
56.000000, 0.000000, 4131.794922, 4168.205078, 4184.102539, 4179.487305, 4202.051270, 4213.846191, 4208.717773, 4212.820313, 4214.871582, 4217.948730, 4200.000000, 4204.102539, 4210.256348, 4193.846191, 0.000000, 8101.000000, 7787.000000, 0.000000, 0.000000, 0.000000, 17487.000000, 949.743591, 4.000000, 4.000000, 4.000000, 4.000000, 4.000000, 4.000000, 4.000000, 4.000000, 4.000000, 4.000000, 4.000000, 4.000000, 4.000000, 4.000000, 4.000000, 4.000000
57.000000, 0.000000, 4132.820313, 4170.769043, 4186.153809, 4182.051270, 4201.025391, 4217.948730, 4214.358887, 4215.897461, 4215.384277, 4218.461426, 4195.384277, 4203.589844, 4207.179199, 4198.974121, 0.000000, 8092.000000, 7803.000000, 0.000000, 0.000000, 0.000000, 17487.000000, 957.948669, 4.000000, 4.000000, 4.000000, 4.000000, 4.000000, 4.000000, 4.000000, 4.000000, 4.000000, 4.000000, 4.000000, 4.000000, 4.000000, 4.000000, 4.000000, 4.000000
58.000000, 0.000000, 4135.384277, 4153.846191, 4201.538574, 4178.974121, 4198.974121, 4214.358887, 4218.974121, 4228.205078, 4217.436035, 4218.461426, 4199.487305, 4207.692383, 4208.205078, 4203.589844, 0.000000, 8092.000000, 7803.000000, 0.000000, 0.000000, 0.000000, 17487.000000, 965.640991, 4.000000, 4.000000, 4.000000, 4.000000, 4.000000, 4.000000, 4.000000, 4.000000, 4.000000, 4.000000, 4.000000, 4.000000, 4.000000, 4.000000, 4.000000, 4.000000
59.000000, 0.000000, 4142.051270, 4158.461426, 4215.384277, 4188.205078, 4203.076660, 4214.358887, 4220.512695, 4240.000000, 4232.307617, 4230.256348, 4209.743652, 4210.256348, 4219.487305, 4195.897461, 0.000000, 8091.000000, 7862.000000, 0.000000, 0.000000, 0.000000, 17487.000000, 973.333313, 4.000000, 4.000000, 4.000000, 4.000000, 4.000000, 4.000000, 4.000000, 4.000000, 4.000000, 4.000000, 4.000000, 4.000000, 4.000000, 4.000000, 4.000000, 4.000000
60.000000, 0.000000, 4147.179199, 4183.589844, 4210.256348, 4202.051270, 4204.615234, 4216.410156, 4213.846191, 4234.871582, 4232.307617, 4233.846191, 4205.127930, 4209.230469, 4224.615234, 4202.563965, 0.000000, 8091.000000, 7862.000000, 0.000000, 0.000000, 0.000000, 17487.000000, 981.025635, 4.000000, 4.000000, 4.000000, 4.000000, 4.000000, 4.000000, 4.000000, 4.000000, 4.000000, 4.000000, 4.000000, 4.000000, 4.000000, 4.000000, 4.000000, 4.000000
61.000000, 0.000000, 4142.051270, 4184.102539, 4200.000000, 4194.871582, 4202.563965, 4216.410156, 4211.281738, 4228.717773, 4219.487305, 4226.666504, 4196.410156, 4192.307617, 4215.897461, 4198.461426, 0.000000, 8090.000000, 7909.000000, 0.000000, 0.000000, 0.000000, 17487.000000, 989.230774, 4.000000, 4.000000, 4.000000, 4.000000, 4.000000, 4.000000, 4.000000, 4.000000, 4.000000, 4.000000, 4.000000, 4.000000, 4.000000, 4.000000, 4.000000, 4.000000
62.000000, 0.000000, 4141.538574, 4173.333008, 4195.384277, 4184.102539, 4206.666504, 4221.538574, 4217.948730, 4234.358887, 4226.666504, 4229.230469, 4198.461426, 4193.333008, 4213.846191, 4196.922852, 0.000000, 8090.000000, 7909.000000, 0.000000, 0.000000, 0.000000, 17487.000000, 996.923035, 4.000000, 4.000000, 4.000000, 4.000000, 4.000000, 4.000000, 4.000000, 4.000000, 4.000000, 4.000000, 4.000000, 4.000000, 4.000000, 4.000000, 4.000000, 4.000000
63.000000, 0.000000, 4142.563965, 4174.871582, 4185.127930, 4184.615234, 4209.743652, 4220.512695, 4217.948730, 4236.410156, 4237.436035, 4234.871582, 4193.846191, 4193.846191, 4215.897461, 4200.512695, 0.000000, 8094.000000, 8015.000000, 0.000000, 0.000000, 0.000000, 17488.000000, 5.128205, 4.000000, 4.000000, 4.000000, 4.000000, 4.000000, 4.000000, 4.000000, 4.000000, 4.000000, 4.000000, 4.000000, 4.000000, 4.000000, 4.000000, 4.000000, 4.000000
64.000000, 0.000000, 4140.512695, 4176.410156, 4179.487305, 4185.641113, 4206.153809, 4214.871582, 4213.846191, 4228.205078, 4230.769043, 4234.871582, 4187.179199, 4183.589844, 4214.358887, 4193.333008, 3504.000000, 8094.000000, 8015.000000, 0.000000, 0.000000, 0.000000, 17488.000000, 12.820513, 4.000000, 4.000000, 4.000000, 4.000000, 4.000000, 4.000000, 4.000000, 4.000000, 4.000000, 4.000000, 4.000000, 4.000000, 4.000000, 4.000000, 4.000000, 4.000000
65.000000, 0.000000, 4143.076660, 4165.127930, 4186.666504, 4184.615234, 4194.871582, 4213.846191, 4216.922852, 4222.563965, 4218.461426, 4231.281738, 4188.205078, 4189.743652, 4213.846191, 4200.000000, 3539.000000, 8096.000000, 8063.000000, 0.000000, 0.000000, 0.000000, 17488.000000, 21.025640, 4.000000, 4.000000, 4.000000, 4.000000, 4.000000, 4.000000, 4.000000, 4.000000, 4.000000, 4.000000, 4.000000, 4.000000, 4.000000, 4.000000, 4.000000, 4.000000
66.000000, 0.000000, 4135.897461, 4154.871582, 4187.692383, 4182.563965, 4190.256348, 4208.717773, 4216.410156, 4220.000000, 4210.769043, 4220.512695, 4180.512695, 4185.641113, 4207.179199, 4195.897461, 2759.000000, 8096.000000, 8063.000000, 0.000000, 0.000000, 0.000000, 17488.000000, 28.717949, 4.000000, 4.000000, 4.000000, 4.000000, 4.000000, 4.000000, 4.000000, 4.000000, 4.000000, 4.000000, 4.000000, 4.000000, 4.000000, 4.000000, 4.000000, 4.000000
67.000000, 0.000000, 4131.281738, 4158.461426, 4183.589844, 4176.922852, 4197.436035, 4199.487305, 4214.358887, 4214.871582, 4210.256348, 4212.307617, 4171.794922, 4181.025391, 4201.538574, 4194.871582, 3555.000000, 8095.000000, 8097.000000, 0.000000, 0.000000, 0.000000, 17488.000000, 36.923077, 4.000000, 4.000000, 4.000000, 4.000000, 4.000000, 4.000000, 4.000000, 4.000000, 4.000000, 4.000000, 4.000000, 4.000000, 4.000000, 4.000000, 4.000000, 4.000000
68.000000, 0.000000, 4142.051270, 4168.205078, 4187.692383, 4178.461426, 4205.641113, 4203.589844, 4216.410156, 4212.820313, 4213.333008, 4215.384277, 4183.076660, 4186.666504, 4212.820313, 4206.666504, 3527.000000, 8095.000000, 8097.000000, 0.000000, 0.000000, 0.000000, 17488.000000, 45.128204, 4.000000, 4.000000, 4.000000, 4.000000, 4.000000, 4.000000, 4.000000, 4.000000, 4.000000, 4.000000, 4.000000, 4.000000, 4.000000, 4.000000, 4.000000, 4.000000
69.000000, 0.000000, 4151.281738, 4168.205078, 4189.743652, 4187.692383, 4209.230469, 4218.461426, 4214.358887, 4213.846191, 4205.127930, 4219.487305, 4190.256348, 4188.717773, 4221.538574, 4202.051270, 3530.000000, 8094.000000, 8129.000000, 0.000000, 0.000000, 0.000000, 17488.000000, 52.820511, 4.000000, 4.000000, 4.000000, 4.000000, 4.000000, 4.000000, 4.000000, 4.000000, 4.000000, 4.000000, 4.000000, 4.000000, 4.000000, 4.000000, 4.000000, 4.000000
70.000000, 0.000000, 4147.692383, 4162.563965, 4184.102539, 4184.615234, 4206.153809, 4216.922852, 4206.153809, 4213.333008, 4197.948730, 4212.307617, 4180.512695, 4188.717773, 4212.307617, 4202.563965, 3450.000000, 8094.000000, 8129.000000, 0.000000, 0.000000, 0.000000, 17488.000000, 61.025639, 4.000000, 4.000000, 4.000000, 4.000000, 4.000000, 4.000000, 4.000000, 4.000000, 4.000000, 4.000000, 4.000000, 4.000000, 4.000000, 4.000000, 4.000000, 4.000000
71.000000, 0.000000, 4140.000000, 4167.692383, 4180.512695, 4176.410156, 4207.692383, 4204.102539, 4194.871582, 4211.281738, 4201.538574, 4203.589844, 4176.922852, 4181.538574, 4206.153809, 4198.461426, 3196.000000, 8098.000000, 8139.000000, 0.000000, 0.000000, 0.000000, 17488.000000, 68.717949, 4.000000, 4.000000, 4.000000, 4.000000, 4.000000, 4.000000, 4.000000, 4.000000, 4.000000, 4.000000, 4.000000, 4.000000, 4.000000, 4.000000, 4.000000, 4.000000
72.000000, 0.000000, 4143.076660, 4177.436035, 4182.051270, 4180.512695, 4214.871582, 4195.897461, 4183.589844, 4213.846191, 4199.487305, 4203.589844, 4184.102539, 4185.127930, 4213.846191, 4198.461426, 3533.000000, 8098.000000, 8139.000000, 0.000000, 0.000000, 0.000000, 17488.000000, 76.410255, 4.000000, 4.000000, 4.000000, 4.000000, 4.000000, 4.000000, 4.000000, 4.000000, 4.000000, 4.000000, 4.000000, 4.000000, 4.000000, 4.000000, 4.000000, 4.000000
73.000000, 0.000000, 4147.692383, 4179.487305, 4180.000000, 4187.179199, 4209.743652, 4190.256348, 4182.563965, 4218.461426, 4197.436035, 4208.717773, 4184.615234, 4187.692383, 4218.461426, 4205.641113, 3533.000000, 8123.000000, 8142.000000, 0.000000, 0.000000, 0.000000, 17488.000000, 84.615379, 4.000000, 4.000000, 4.000000, 4.000000, 4.000000, 4.000000, 4.000000, 4.000000, 4.000000, 4.000000, 4.000000, 4.000000, 4.000000, 4.000000, 4.000000, 4.000000
74.000000, 0.000000, 4150.769043, 4173.333008, 4175.897461, 4184.102539, 4194.871582, 4190.769043, 4192.820313, 4219.487305, 4199.487305, 4203.589844, 4174.358887, 4178.461426, 4206.153809, 4194.358887, 3146.000000, 8123.000000, 8142.000000, 0.000000, 0.000000, 0.000000, 17488.000000, 92.307693, 4.000000, 4.000000, 4.000000, 4.000000, 4.000000, 4.000000, 4.000000, 4.000000, 4.000000, 4.000000, 4.000000, 4.000000, 4.000000, 4.000000, 4.000000, 4.000000
75.000000, 0.000000, 4157.436035, 4173.846191, 4181.538574, 4184.102539, 4203.076660, 4207.692383, 4203.589844, 4220.000000, 4198.974121, 4195.384277, 4170.769043, 4182.563965, 4200.512695, 4199.487305, 1711.000000, 8121.000000, 8137.000000, 0.000000, 0.000000, 0.000000, 17488.000000, 100.512817, 4.000000, 4.000000, 4.000000, 4.000000, 4.000000, 4.000000, 4.000000, 4.000000, 4.000000, 4.000000, 4.000000, 4.000000, 4.000000, 4.000000, 4.000000, 4.000000
76.000000, 0.000000, 4159.487305, 4182.051270, 4186.666504, 4186.666504, 4221.538574, 4222.051270, 4211.794922, 4222.563965, 4204.615234, 4203.589844, 4182.563965, 4187.179199, 4214.358887, 4205.641113, 3483.000000, 8121.000000, 8137.000000, 0.000000, 0.000000, 0.000000, 17488.000000, 108.205124, 4.000000, 4.000000, 4.000000, 4.000000, 4.000000, 4.000000, 4.000000, 4.000000, 4.000000, 4.000000, 4.000000, 4.000000, 4.000000, 4.000000, 4.000000, 4.000000
