title:winkLeft7, recorded:16.05.18 20.16.47, timestamp started:2018-05-12T20:28:52.032863+02:00            , sampling:128, subject:Noé, labels:COUNTER INTERPOLATED AF3 F7 F3 FC5 T7 P7 O1 O2 P8 T8 FC6 F4 F8 AF4 RAW_CQ GYROX GYROY MARKER MARKER_HARDWARE SYNC TIME_STAMP_s TIME_STAMP_ms CQ_AF3 CQ_F7 CQ_F3 CQ_FC5 CQ_T7 CQ_P7 CQ_O1 CQ_O2 CQ_P8 CQ_T8 CQ_FC6 CQ_F4 CQ_F8 CQ_AF4 CQ_CMS CQ_DRL, chan:40, samples:7274, units:emotiv
102.000000, 0.000000, 4280.512695, 3831.794678, 4176.922852, 3942.563965, 4198.461426, 4221.538574, 4205.641113, 4233.846191, 4233.333008, 4217.948730, 4035.384521, 4192.820313, 4196.410156, 4199.487305, 3165.000000, 7975.000000, 8156.000000, 0.000000, 0.000000, 0.000000, 17195.000000, 790.256409, 4.000000, 4.000000, 4.000000, 4.000000, 4.000000, 4.000000, 4.000000, 4.000000, 4.000000, 4.000000, 4.000000, 4.000000, 4.000000, 4.000000, 4.000000, 4.000000
103.000000, 0.000000, 4278.974121, 3845.640869, 4183.589844, 3944.102539, 4200.512695, 4217.948730, 4200.512695, 4230.256348, 4237.436035, 4223.076660, 4048.205078, 4188.717773, 4200.000000, 4192.307617, 1829.000000, 8039.000000, 8164.000000, 0.000000, 0.000000, 0.000000, 17195.000000, 797.948669, 4.000000, 4.000000, 4.000000, 4.000000, 4.000000, 4.000000, 4.000000, 4.000000, 4.000000, 4.000000, 4.000000, 4.000000, 4.000000, 4.000000, 4.000000, 4.000000
104.000000, 0.000000, 4277.436035, 3846.153809, 4177.948730, 3942.563965, 4199.487305, 4220.000000, 4200.000000, 4234.358887, 4234.358887, 4224.102539, 4044.615234, 4194.358887, 4193.333008, 4193.333008, 3503.000000, 8039.000000, 8164.000000, 0.000000, 0.000000, 0.000000, 17195.000000, 806.153809, 4.000000, 4.000000, 4.000000, 4.000000, 4.000000, 4.000000, 4.000000, 4.000000, 4.000000, 4.000000, 4.000000, 4.000000, 4.000000, 4.000000, 4.000000, 4.000000
105.000000, 0.000000, 4272.820313, 3837.948730, 4169.230469, 3941.538330, 4201.025391, 4219.487305, 4208.717773, 4226.666504, 4228.717773, 4215.897461, 4035.384521, 4189.230469, 4187.692383, 4192.820313, 2325.000000, 8103.000000, 8138.000000, 0.000000, 0.000000, 0.000000, 17195.000000, 814.358948, 4.000000, 4.000000, 4.000000, 4.000000, 4.000000, 4.000000, 4.000000, 4.000000, 4.000000, 4.000000, 4.000000, 4.000000, 4.000000, 4.000000, 4.000000, 4.000000
106.000000, 0.000000, 4270.256348, 3842.051270, 4171.281738, 3941.538330, 4200.512695, 4215.897461, 4205.641113, 4216.410156, 4228.717773, 4211.794922, 4035.384521, 4190.769043, 4192.820313, 4193.333008, 3165.000000, 8103.000000, 8138.000000, 0.000000, 0.000000, 0.000000, 17195.000000, 822.051270, 4.000000, 4.000000, 4.000000, 4.000000, 4.000000, 4.000000, 4.000000, 4.000000, 4.000000, 4.000000, 4.000000, 4.000000, 4.000000, 4.000000, 4.000000, 4.000000
107.000000, 0.000000, 4275.384277, 3850.256348, 4176.410156, 3948.717773, 4194.871582, 4213.846191, 4195.384277, 4222.563965, 4230.256348, 4215.384277, 4037.948730, 4194.871582, 4197.948730, 4199.487305, 1829.000000, 8226.000000, 8074.000000, 0.000000, 0.000000, 0.000000, 17195.000000, 830.256409, 4.000000, 4.000000, 4.000000, 4.000000, 4.000000, 4.000000, 4.000000, 4.000000, 4.000000, 4.000000, 4.000000, 4.000000, 4.000000, 4.000000, 4.000000, 4.000000
108.000000, 0.000000, 4277.436035, 3849.230713, 4176.410156, 3954.871582, 4189.230469, 4218.461426, 4200.000000, 4228.717773, 4229.743652, 4218.461426, 4043.076904, 4190.769043, 4200.512695, 4194.871582, 3503.000000, 8226.000000, 8074.000000, 0.000000, 0.000000, 0.000000, 17195.000000, 837.948669, 4.000000, 4.000000, 4.000000, 4.000000, 4.000000, 4.000000, 4.000000, 4.000000, 4.000000, 4.000000, 4.000000, 4.000000, 4.000000, 4.000000, 4.000000, 4.000000
109.000000, 0.000000, 4270.256348, 3848.205078, 4173.333008, 3948.717773, 4185.641113, 4220.000000, 4202.563965, 4228.205078, 4231.794922, 4217.948730, 4047.692139, 4193.846191, 4205.127930, 4197.436035, 2325.000000, 8274.000000, 8075.000000, 0.000000, 0.000000, 0.000000, 17195.000000, 846.153809, 4.000000, 4.000000, 4.000000, 4.000000, 4.000000, 4.000000, 4.000000, 4.000000, 4.000000, 4.000000, 4.000000, 4.000000, 4.000000, 4.000000, 4.000000, 4.000000
110.000000, 0.000000, 4264.615234, 3852.307617, 4165.127930, 3940.000000, 4185.127930, 4216.410156, 4200.512695, 4226.666504, 4233.846191, 4216.922852, 4041.538330, 4189.743652, 4202.563965, 4192.820313, 3165.000000, 8274.000000, 8075.000000, 0.000000, 0.000000, 0.000000, 17195.000000, 853.846130, 4.000000, 4.000000, 4.000000, 4.000000, 4.000000, 4.000000, 4.000000, 4.000000, 4.000000, 4.000000, 4.000000, 4.000000, 4.000000, 4.000000, 4.000000, 4.000000
111.000000, 0.000000, 4266.666504, 3858.974365, 4167.179199, 3945.640869, 4189.230469, 4216.922852, 4208.717773, 4230.769043, 4236.410156, 4224.102539, 4038.974365, 4190.256348, 4199.487305, 4191.794922, 1829.000000, 8349.000000, 8024.000000, 0.000000, 0.000000, 0.000000, 17195.000000, 862.051270, 4.000000, 4.000000, 4.000000, 4.000000, 4.000000, 4.000000, 4.000000, 4.000000, 4.000000, 4.000000, 4.000000, 4.000000, 4.000000, 4.000000, 4.000000, 4.000000
112.000000, 0.000000, 4274.358887, 3864.102539, 4183.076660, 3958.461426, 4192.307617, 4220.512695, 4209.743652, 4239.487305, 4244.615234, 4234.871582, 4050.256348, 4198.461426, 4206.666504, 4197.436035, 3503.000000, 8349.000000, 8024.000000, 0.000000, 0.000000, 0.000000, 17195.000000, 869.743591, 4.000000, 4.000000, 4.000000, 4.000000, 4.000000, 4.000000, 4.000000, 4.000000, 4.000000, 4.000000, 4.000000, 4.000000, 4.000000, 4.000000, 4.000000, 4.000000
113.000000, 0.000000, 4275.897461, 3865.640869, 4184.615234, 3962.563965, 4187.692383, 4220.000000, 4198.461426, 4237.436035, 4241.538574, 4227.692383, 4054.871582, 4195.384277, 4203.589844, 4185.127930, 2325.000000, 8380.000000, 7996.000000, 0.000000, 0.000000, 0.000000, 17195.000000, 877.435852, 4.000000, 4.000000, 4.000000, 4.000000, 4.000000, 4.000000, 4.000000, 4.000000, 4.000000, 4.000000, 4.000000, 4.000000, 4.000000, 4.000000, 4.000000, 4.000000
114.000000, 0.000000, 4266.153809, 3868.717773, 4169.230469, 3955.897461, 4178.974121, 4209.743652, 4199.487305, 4218.974121, 4220.512695, 4210.256348, 4043.589600, 4194.358887, 4188.717773, 4182.051270, 3165.000000, 8380.000000, 7996.000000, 0.000000, 0.000000, 0.000000, 17195.000000, 885.640991, 4.000000, 4.000000, 4.000000, 4.000000, 4.000000, 4.000000, 4.000000, 4.000000, 4.000000, 4.000000, 4.000000, 4.000000, 4.000000, 4.000000, 4.000000, 4.000000
115.000000, 0.000000, 4261.025391, 3883.076904, 4168.205078, 3956.410156, 4183.589844, 4198.974121, 4200.512695, 4208.717773, 4211.794922, 4211.281738, 4042.563965, 4190.256348, 4190.769043, 4181.025391, 1829.000000, 8422.000000, 7992.000000, 0.000000, 0.000000, 0.000000, 17195.000000, 893.846130, 4.000000, 4.000000, 4.000000, 4.000000, 4.000000, 4.000000, 4.000000, 4.000000, 4.000000, 4.000000, 4.000000, 4.000000, 4.000000, 4.000000, 4.000000, 4.000000
116.000000, 0.000000, 4265.641113, 3890.256348, 4180.000000, 3967.692139, 4190.256348, 4207.179199, 4196.410156, 4218.461426, 4216.410156, 4220.512695, 4051.281982, 4196.922852, 4199.487305, 4179.487305, 3503.000000, 8422.000000, 7992.000000, 0.000000, 0.000000, 0.000000, 17195.000000, 901.538452, 4.000000, 4.000000, 4.000000, 4.000000, 4.000000, 4.000000, 4.000000, 4.000000, 4.000000, 4.000000, 4.000000, 4.000000, 4.000000, 4.000000, 4.000000, 4.000000
117.000000, 0.000000, 4264.615234, 3880.512695, 4178.461426, 3966.666504, 4176.410156, 4213.846191, 4196.410156, 4216.410156, 4206.666504, 4212.307617, 4047.179443, 4205.127930, 4195.384277, 4181.025391, 2325.000000, 8451.000000, 7976.000000, 0.000000, 0.000000, 0.000000, 17195.000000, 909.743591, 4.000000, 4.000000, 4.000000, 4.000000, 4.000000, 4.000000, 4.000000, 4.000000, 4.000000, 4.000000, 4.000000, 4.000000, 4.000000, 4.000000, 4.000000, 4.000000
118.000000, 0.000000, 4260.000000, 3874.358887, 4171.794922, 3957.948730, 4164.615234, 4205.127930, 4192.307617, 4202.051270, 4197.436035, 4203.589844, 4040.000000, 4196.410156, 4194.358887, 4169.743652, 3165.000000, 8451.000000, 7976.000000, 0.000000, 0.000000, 0.000000, 17195.000000, 917.435852, 4.000000, 4.000000, 4.000000, 4.000000, 4.000000, 4.000000, 4.000000, 4.000000, 4.000000, 4.000000, 4.000000, 4.000000, 4.000000, 4.000000, 4.000000, 4.000000
119.000000, 0.000000, 4257.436035, 3881.025635, 4171.794922, 3958.461426, 4177.436035, 4205.127930, 4189.743652, 4203.076660, 4204.102539, 4210.256348, 4046.153809, 4197.436035, 4199.487305, 4172.307617, 1829.000000, 8476.000000, 7976.000000, 0.000000, 0.000000, 0.000000, 17195.000000, 925.128174, 4.000000, 4.000000, 4.000000, 4.000000, 4.000000, 4.000000, 4.000000, 4.000000, 4.000000, 4.000000, 4.000000, 4.000000, 4.000000, 4.000000, 4.000000, 4.000000
120.000000, 0.000000, 4254.358887, 3884.102539, 4169.230469, 3961.538330, 4191.281738, 4220.000000, 4200.512695, 4215.897461, 4209.230469, 4220.000000, 4051.794678, 4196.922852, 4191.794922, 4173.846191, 3503.000000, 8476.000000, 7976.000000, 0.000000, 0.000000, 0.000000, 17195.000000, 932.820496, 4.000000, 4.000000, 4.000000, 4.000000, 4.000000, 4.000000, 4.000000, 4.000000, 4.000000, 4.000000, 4.000000, 4.000000, 4.000000, 4.000000, 4.000000, 4.000000
121.000000, 0.000000, 4252.820313, 3875.384521, 4168.205078, 3960.000000, 4188.205078, 4217.436035, 4202.051270, 4221.538574, 4202.563965, 4215.384277, 4044.615234, 4193.846191, 4183.076660, 4173.846191, 2325.000000, 8525.000000, 8042.000000, 0.000000, 0.000000, 0.000000, 17195.000000, 941.025635, 4.000000, 4.000000, 4.000000, 4.000000, 4.000000, 4.000000, 4.000000, 4.000000, 4.000000, 4.000000, 4.000000, 4.000000, 4.000000, 4.000000, 4.000000, 4.000000
122.000000, 0.000000, 4257.436035, 3873.845947, 4169.230469, 3956.923096, 4182.563965, 4205.127930, 4195.897461, 4216.922852, 4197.948730, 4200.512695, 4039.487061, 4193.846191, 4185.641113, 4183.076660, 3165.000000, 8525.000000, 8042.000000, 0.000000, 0.000000, 0.000000, 17195.000000, 949.230774, 4.000000, 4.000000, 4.000000, 4.000000, 4.000000, 4.000000, 4.000000, 4.000000, 4.000000, 4.000000, 4.000000, 4.000000, 4.000000, 4.000000, 4.000000, 4.000000
123.000000, 0.000000, 4265.641113, 3875.384521, 4169.230469, 3958.461426, 4184.102539, 4208.205078, 4195.384277, 4212.307617, 4202.051270, 4202.563965, 4043.076904, 4192.820313, 4185.641113, 4182.051270, 1829.000000, 8557.000000, 8056.000000, 0.000000, 0.000000, 0.000000, 17195.000000, 956.923035, 4.000000, 4.000000, 4.000000, 4.000000, 4.000000, 4.000000, 4.000000, 4.000000, 4.000000, 4.000000, 4.000000, 4.000000, 4.000000, 4.000000, 4.000000, 4.000000
124.000000, 0.000000, 4272.820313, 3876.410156, 4171.281738, 3966.666504, 4193.333008, 4212.307617, 4191.794922, 4213.333008, 4206.153809, 4214.871582, 4050.256348, 4204.102539, 4186.153809, 4193.846191, 3503.000000, 8557.000000, 8056.000000, 0.000000, 0.000000, 0.000000, 17195.000000, 965.128174, 4.000000, 4.000000, 4.000000, 4.000000, 4.000000, 4.000000, 4.000000, 4.000000, 4.000000, 4.000000, 4.000000, 4.000000, 4.000000, 4.000000, 4.000000, 4.000000
125.000000, 0.000000, 4278.974121, 3887.179443, 4183.589844, 3979.487061, 4204.102539, 4215.384277, 4187.692383, 4217.436035, 4214.358887, 4223.589844, 4061.025635, 4206.153809, 4201.025391, 4200.512695, 2325.000000, 8628.000000, 8017.000000, 0.000000, 0.000000, 0.000000, 17195.000000, 972.820496, 4.000000, 4.000000, 4.000000, 4.000000, 4.000000, 4.000000, 4.000000, 4.000000, 4.000000, 4.000000, 4.000000, 4.000000, 4.000000, 4.000000, 4.000000, 4.000000
126.000000, 0.000000, 4275.384277, 3881.538330, 4188.717773, 3975.384521, 4200.000000, 4218.461426, 4198.974121, 4214.358887, 4221.025391, 4227.692383, 4067.179443, 4207.692383, 4205.127930, 4192.820313, 3165.000000, 8628.000000, 8017.000000, 0.000000, 0.000000, 0.000000, 17195.000000, 981.025635, 4.000000, 4.000000, 4.000000, 4.000000, 4.000000, 4.000000, 4.000000, 4.000000, 4.000000, 4.000000, 4.000000, 4.000000, 4.000000, 4.000000, 4.000000, 4.000000
127.000000, 0.000000, 4264.102539, 3870.769043, 4173.333008, 3966.666504, 4194.871582, 4209.743652, 4207.179199, 4203.076660, 4210.769043, 4225.641113, 4057.435791, 4213.333008, 4192.307617, 4197.436035, 55.000000, 8660.000000, 8007.000000, 0.000000, 0.000000, 0.000000, 17195.000000, 988.717896, 4.000000, 4.000000, 4.000000, 4.000000, 4.000000, 4.000000, 4.000000, 4.000000, 4.000000, 4.000000, 4.000000, 4.000000, 4.000000, 4.000000, 4.000000, 4.000000
0.000000, 0.000000, 4273.333008, 3900.512695, 4165.127930, 3979.487061, 4196.410156, 4200.000000, 4191.794922, 4197.436035, 4194.358887, 4216.922852, 4049.230713, 4205.127930, 4192.820313, 4200.512695, 3516.000000, 8660.000000, 8007.000000, 0.000000, 0.000000, 0.000000, 17195.000000, 996.410217, 4.000000, 4.000000, 4.000000, 4.000000, 4.000000, 4.000000, 4.000000, 4.000000, 4.000000, 4.000000, 4.000000, 4.000000, 4.000000, 4.000000, 4.000000, 4.000000
1.000000, 0.000000, 4298.974121, 3940.512695, 4176.922852, 3997.435791, 4186.153809, 4199.487305, 4169.743652, 4190.769043, 4186.666504, 4209.230469, 4054.358887, 4210.256348, 4204.102539, 4208.205078, 3553.000000, 8687.000000, 8000.000000, 0.000000, 0.000000, 0.000000, 17196.000000, 4.615385, 4.000000, 4.000000, 4.000000, 4.000000, 4.000000, 4.000000, 4.000000, 4.000000, 4.000000, 4.000000, 4.000000, 4.000000, 4.000000, 4.000000, 4.000000, 4.000000
2.000000, 0.000000, 4306.153809, 3943.589600, 4180.000000, 3995.897217, 4177.436035, 4190.769043, 4164.102539, 4167.692383, 4176.922852, 4197.436035, 4046.153809, 4205.641113, 4198.974121, 4206.666504, 2768.000000, 8687.000000, 8000.000000, 0.000000, 0.000000, 0.000000, 17196.000000, 12.307692, 4.000000, 4.000000, 4.000000, 4.000000, 4.000000, 4.000000, 4.000000, 4.000000, 4.000000, 4.000000, 4.000000, 4.000000, 4.000000, 4.000000, 4.000000, 4.000000
3.000000, 0.000000, 4312.820313, 3948.717773, 4178.461426, 3999.487061, 4192.820313, 4177.948730, 4169.743652, 4153.846191, 4161.025391, 4186.666504, 4033.333252, 4195.384277, 4190.769043, 4206.666504, 3588.000000, 8749.000000, 8015.000000, 0.000000, 0.000000, 0.000000, 17196.000000, 20.512819, 4.000000, 4.000000, 4.000000, 4.000000, 4.000000, 4.000000, 4.000000, 4.000000, 4.000000, 4.000000, 4.000000, 4.000000, 4.000000, 4.000000, 4.000000, 4.000000
4.000000, 0.000000, 4341.025391, 3992.307617, 4187.692383, 4018.974365, 4211.281738, 4193.846191, 4170.256348, 4167.179199, 4156.410156, 4187.179199, 4038.974365, 4207.692383, 4197.436035, 4224.102539, 3540.000000, 8749.000000, 8015.000000, 0.000000, 0.000000, 0.000000, 17196.000000, 28.205128, 4.000000, 4.000000, 4.000000, 4.000000, 4.000000, 4.000000, 4.000000, 4.000000, 4.000000, 4.000000, 4.000000, 4.000000, 4.000000, 4.000000, 4.000000, 4.000000
5.000000, 0.000000, 4350.769043, 3999.487061, 4186.153809, 4025.640869, 4195.897461, 4205.641113, 4168.717773, 4167.692383, 4148.717773, 4170.256348, 4030.256348, 4204.102539, 4185.641113, 4216.410156, 3545.000000, 8769.000000, 8046.000000, 0.000000, 0.000000, 0.000000, 17196.000000, 36.410255, 4.000000, 4.000000, 4.000000, 4.000000, 4.000000, 4.000000, 4.000000, 4.000000, 4.000000, 4.000000, 4.000000, 4.000000, 4.000000, 4.000000, 4.000000, 4.000000
6.000000, 0.000000, 4336.922852, 3968.205078, 4187.179199, 4018.974365, 4166.666504, 4190.256348, 4171.794922, 4155.897461, 4131.281738, 4138.461426, 4001.025635, 4195.384277, 4158.974121, 4212.820313, 3422.000000, 8769.000000, 8046.000000, 0.000000, 0.000000, 0.000000, 17196.000000, 44.102562, 4.000000, 4.000000, 4.000000, 4.000000, 4.000000, 4.000000, 4.000000, 4.000000, 4.000000, 4.000000, 4.000000, 4.000000, 4.000000, 4.000000, 4.000000, 4.000000
7.000000, 0.000000, 4348.205078, 4004.615234, 4203.589844, 4026.666504, 4178.461426, 4186.666504, 4172.820313, 4166.153809, 4142.563965, 4141.538574, 3999.487061, 4200.000000, 4162.563965, 4222.563965, 3196.000000, 8801.000000, 8115.000000, 0.000000, 0.000000, 0.000000, 17196.000000, 52.307690, 4.000000, 4.000000, 4.000000, 4.000000, 4.000000, 4.000000, 4.000000, 4.000000, 4.000000, 4.000000, 4.000000, 4.000000, 4.000000, 4.000000, 4.000000, 4.000000
8.000000, 0.000000, 4375.897461, 4064.102539, 4198.461426, 4041.538330, 4201.538574, 4186.666504, 4170.769043, 4170.769043, 4163.589844, 4161.538574, 4005.128174, 4204.615234, 4168.717773, 4215.384277, 3546.000000, 8801.000000, 8115.000000, 0.000000, 0.000000, 0.000000, 17196.000000, 60.000000, 4.000000, 4.000000, 4.000000, 4.000000, 4.000000, 4.000000, 4.000000, 4.000000, 4.000000, 4.000000, 4.000000, 4.000000, 4.000000, 4.000000, 4.000000, 4.000000
9.000000, 0.000000, 4367.179199, 4053.333252, 4178.974121, 4046.666504, 4185.127930, 4158.461426, 4158.461426, 4138.461426, 4140.512695, 4152.307617, 3986.153809, 4198.461426, 4152.307617, 4209.743652, 3544.000000, 8817.000000, 8139.000000, 0.000000, 0.000000, 0.000000, 17196.000000, 68.205124, 4.000000, 4.000000, 4.000000, 4.000000, 4.000000, 4.000000, 4.000000, 4.000000, 4.000000, 4.000000, 4.000000, 4.000000, 4.000000, 4.000000, 4.000000, 4.000000
10.000000, 0.000000, 4345.127930, 4027.179443, 4193.333008, 4053.845947, 4166.153809, 4147.179199, 4138.974121, 4114.871582, 4111.281738, 4143.076660, 3980.000000, 4188.205078, 4146.666504, 4206.666504, 3178.000000, 8817.000000, 8139.000000, 0.000000, 0.000000, 0.000000, 17196.000000, 76.410255, 4.000000, 4.000000, 4.000000, 4.000000, 4.000000, 4.000000, 4.000000, 4.000000, 4.000000, 4.000000, 4.000000, 4.000000, 4.000000, 4.000000, 4.000000, 4.000000
11.000000, 0.000000, 4354.871582, 4044.102539, 4215.897461, 4070.256348, 4188.717773, 4174.871582, 4133.333008, 4125.641113, 4121.538574, 4146.666504, 3987.692139, 4198.974121, 4152.307617, 4216.922852, 1828.000000, 8831.000000, 8156.000000, 0.000000, 0.000000, 0.000000, 17196.000000, 84.102562, 4.000000, 4.000000, 4.000000, 4.000000, 4.000000, 4.000000, 4.000000, 4.000000, 4.000000, 4.000000, 4.000000, 4.000000, 4.000000, 4.000000, 4.000000, 4.000000
12.000000, 0.000000, 4362.051270, 4064.102539, 4206.153809, 4076.410156, 4210.769043, 4189.743652, 4145.641113, 4132.820313, 4128.717773, 4137.948730, 3978.461426, 4201.538574, 4135.897461, 4214.871582, 3523.000000, 8831.000000, 8156.000000, 0.000000, 0.000000, 0.000000, 17196.000000, 92.307693, 4.000000, 4.000000, 4.000000, 4.000000, 4.000000, 4.000000, 4.000000, 4.000000, 4.000000, 4.000000, 4.000000, 4.000000, 4.000000, 4.000000, 4.000000, 4.000000
13.000000, 0.000000, 4345.641113, 4064.102539, 4193.846191, 4071.794678, 4196.922852, 4182.563965, 4157.948730, 4134.358887, 4121.538574, 4130.769043, 3967.692139, 4193.333008, 4127.179199, 4197.436035, 2321.000000, 8844.000000, 8195.000000, 0.000000, 0.000000, 0.000000, 17196.000000, 100.000000, 4.000000, 4.000000, 4.000000, 4.000000, 4.000000, 4.000000, 4.000000, 4.000000, 4.000000, 4.000000, 4.000000, 4.000000, 4.000000, 4.000000, 4.000000, 4.000000
14.000000, 0.000000, 4333.333008, 4061.538330, 4200.000000, 4072.820313, 4187.692383, 4182.051270, 4156.922852, 4145.641113, 4129.230469, 4140.000000, 3971.281982, 4198.461426, 4138.461426, 4206.666504, 3178.000000, 8844.000000, 8195.000000, 0.000000, 0.000000, 0.000000, 17196.000000, 108.205124, 4.000000, 4.000000, 4.000000, 4.000000, 4.000000, 4.000000, 4.000000, 4.000000, 4.000000, 4.000000, 4.000000, 4.000000, 4.000000, 4.000000, 4.000000, 4.000000
15.000000, 0.000000, 4326.666504, 4035.897217, 4201.538574, 4078.974365, 4200.512695, 4180.000000, 4155.384277, 4157.436035, 4138.974121, 4144.615234, 3972.820313, 4193.333008, 4129.743652, 4207.692383, 1828.000000, 8843.000000, 8205.000000, 0.000000, 0.000000, 0.000000, 17196.000000, 115.897430, 4.000000, 4.000000, 4.000000, 4.000000, 4.000000, 4.000000, 4.000000, 4.000000, 4.000000, 4.000000, 4.000000, 4.000000, 4.000000, 4.000000, 4.000000, 4.000000
16.000000, 0.000000, 4313.333008, 4007.692139, 4190.256348, 4075.897217, 4202.563965, 4172.820313, 4155.384277, 4154.871582, 4134.871582, 4138.461426, 3968.717773, 4193.846191, 4116.922852, 4200.512695, 0.000000, 8843.000000, 8205.000000, 0.000000, 0.000000, 0.000000, 17196.000000, 124.102562, 4.000000, 4.000000, 4.000000, 4.000000, 4.000000, 4.000000, 4.000000, 4.000000, 4.000000, 4.000000, 4.000000, 4.000000, 4.000000, 4.000000, 4.000000, 4.000000
17.000000, 0.000000, 4299.487305, 4014.871582, 4181.538574, 4068.717773, 4189.743652, 4173.333008, 4150.256348, 4143.076660, 4133.333008, 4137.436035, 3969.230713, 4198.461426, 4126.666504, 4203.076660, 0.000000, 8835.000000, 8224.000000, 0.000000, 0.000000, 0.000000, 17196.000000, 131.794876, 4.000000, 4.000000, 4.000000, 4.000000, 4.000000, 4.000000, 4.000000, 4.000000, 4.000000, 4.000000, 4.000000, 4.000000, 4.000000, 4.000000, 4.000000, 4.000000
18.000000, 0.000000, 4289.743652, 4024.102539, 4183.076660, 4065.640869, 4184.102539, 4168.717773, 4146.153809, 4142.563965, 4141.025391, 4145.641113, 3971.794678, 4193.333008, 4131.281738, 4200.000000, 0.000000, 8835.000000, 8224.000000, 0.000000, 0.000000, 0.000000, 17196.000000, 140.000000, 4.000000, 4.000000, 4.000000, 4.000000, 4.000000, 4.000000, 4.000000, 4.000000, 4.000000, 4.000000, 4.000000, 4.000000, 4.000000, 4.000000, 4.000000, 4.000000
19.000000, 0.000000, 4277.948730, 3991.794678, 4187.692383, 4062.051270, 4182.563965, 4158.974121, 4150.256348, 4146.666504, 4137.948730, 4148.717773, 3971.281982, 4200.000000, 4119.487305, 4208.205078, 0.000000, 8827.000000, 8237.000000, 0.000000, 0.000000, 0.000000, 17196.000000, 147.692307, 4.000000, 4.000000, 4.000000, 4.000000, 4.000000, 4.000000, 4.000000, 4.000000, 4.000000, 4.000000, 4.000000, 4.000000, 4.000000, 4.000000, 4.000000, 4.000000
20.000000, 0.000000, 4269.743652, 3961.538330, 4184.615234, 4061.538330, 4173.333008, 4166.666504, 4157.948730, 4133.333008, 4121.538574, 4146.153809, 3971.794678, 4202.563965, 4116.410156, 4218.974121, 0.000000, 8827.000000, 8237.000000, 0.000000, 0.000000, 0.000000, 17196.000000, 155.897430, 4.000000, 4.000000, 4.000000, 4.000000, 4.000000, 4.000000, 4.000000, 4.000000, 4.000000, 4.000000, 4.000000, 4.000000, 4.000000, 4.000000, 4.000000, 4.000000
21.000000, 0.000000, 4263.589844, 3967.692139, 4172.820313, 4052.820313, 4162.563965, 4173.333008, 4151.794922, 4113.333008, 4110.256348, 4143.076660, 3970.769043, 4200.000000, 4123.076660, 4226.666504, 0.000000, 8813.000000, 8238.000000, 0.000000, 0.000000, 0.000000, 17196.000000, 164.102554, 4.000000, 4.000000, 4.000000, 4.000000, 4.000000, 4.000000, 4.000000, 4.000000, 4.000000, 4.000000, 4.000000, 4.000000, 4.000000, 4.000000, 4.000000, 4.000000
22.000000, 0.000000, 4244.615234, 3952.820313, 4167.692383, 4036.923096, 4162.563965, 4158.974121, 4142.051270, 4114.871582, 4113.846191, 4144.102539, 3968.717773, 4197.948730, 4121.538574, 4217.948730, 0.000000, 8813.000000, 8238.000000, 0.000000, 0.000000, 0.000000, 17196.000000, 171.794861, 4.000000, 4.000000, 4.000000, 4.000000, 4.000000, 4.000000, 4.000000, 4.000000, 4.000000, 4.000000, 4.000000, 4.000000, 4.000000, 4.000000, 4.000000, 4.000000
23.000000, 0.000000, 4235.384277, 3931.794678, 4174.871582, 4042.563965, 4175.384277, 4160.000000, 4154.358887, 4133.333008, 4126.153809, 4152.820313, 3977.948730, 4198.974121, 4127.179199, 4200.512695, 0.000000, 8799.000000, 8227.000000, 0.000000, 0.000000, 0.000000, 17196.000000, 180.000000, 4.000000, 4.000000, 4.000000, 4.000000, 4.000000, 4.000000, 4.000000, 4.000000, 4.000000, 4.000000, 4.000000, 4.000000, 4.000000, 4.000000, 4.000000, 4.000000
24.000000, 0.000000, 4238.974121, 3937.435791, 4176.410156, 4058.974365, 4177.436035, 4176.922852, 4171.794922, 4141.538574, 4131.794922, 4155.897461, 3991.281982, 4203.589844, 4137.948730, 4208.205078, 0.000000, 8799.000000, 8227.000000, 0.000000, 0.000000, 0.000000, 17196.000000, 187.692307, 4.000000, 4.000000, 4.000000, 4.000000, 4.000000, 4.000000, 4.000000, 4.000000, 4.000000, 4.000000, 4.000000, 4.000000, 4.000000, 4.000000, 4.000000, 4.000000
25.000000, 0.000000, 4232.820313, 3935.384521, 4166.666504, 4052.820313, 4165.127930, 4165.127930, 4163.076660, 4142.051270, 4127.692383, 4145.127930, 3988.205078, 4189.743652, 4133.333008, 4202.563965, 0.000000, 8785.000000, 8224.000000, 0.000000, 0.000000, 0.000000, 17196.000000, 195.897430, 4.000000, 4.000000, 4.000000, 4.000000, 4.000000, 4.000000, 4.000000, 4.000000, 4.000000, 4.000000, 4.000000, 4.000000, 4.000000, 4.000000, 4.000000, 4.000000
26.000000, 0.000000, 4228.717773, 3925.128174, 4165.641113, 4043.076904, 4156.410156, 4147.692383, 4151.794922, 4155.897461, 4131.794922, 4139.487305, 3985.128174, 4190.769043, 4128.205078, 4197.948730, 0.000000, 8785.000000, 8224.000000, 0.000000, 0.000000, 0.000000, 17196.000000, 203.589737, 4.000000, 4.000000, 4.000000, 4.000000, 4.000000, 4.000000, 4.000000, 4.000000, 4.000000, 4.000000, 4.000000, 4.000000, 4.000000, 4.000000, 4.000000, 4.000000
27.000000, 0.000000, 4230.256348, 3920.512695, 4171.281738, 4051.794678, 4159.487305, 4164.615234, 4164.102539, 4174.358887, 4148.205078, 4154.871582, 3995.384521, 4205.127930, 4140.512695, 4208.205078, 0.000000, 8767.000000, 8231.000000, 0.000000, 0.000000, 0.000000, 17196.000000, 211.794861, 4.000000, 4.000000, 4.000000, 4.000000, 4.000000, 4.000000, 4.000000, 4.000000, 4.000000, 4.000000, 4.000000, 4.000000, 4.000000, 4.000000, 4.000000, 4.000000
28.000000, 0.000000, 4220.000000, 3914.871582, 4171.281738, 4052.820313, 4167.179199, 4176.922852, 4172.820313, 4172.820313, 4153.846191, 4173.846191, 3997.948730, 4196.922852, 4142.563965, 4193.333008, 0.000000, 8767.000000, 8231.000000, 0.000000, 0.000000, 0.000000, 17196.000000, 219.487167, 4.000000, 4.000000, 4.000000, 4.000000, 4.000000, 4.000000, 4.000000, 4.000000, 4.000000, 4.000000, 4.000000, 4.000000, 4.000000, 4.000000, 4.000000, 4.000000
29.000000, 0.000000, 4206.666504, 3910.256348, 4168.717773, 4043.589600, 4163.589844, 4165.127930, 4169.230469, 4166.666504, 4145.641113, 4165.127930, 3991.281982, 4194.358887, 4133.846191, 4191.281738, 0.000000, 8769.000000, 8232.000000, 0.000000, 0.000000, 0.000000, 17196.000000, 227.692307, 4.000000, 4.000000, 4.000000, 4.000000, 4.000000, 4.000000, 4.000000, 4.000000, 4.000000, 4.000000, 4.000000, 4.000000, 4.000000, 4.000000, 4.000000, 4.000000
30.000000, 0.000000, 4211.281738, 3912.820313, 4170.256348, 4050.769043, 4159.487305, 4169.230469, 4171.281738, 4172.820313, 4144.615234, 4150.256348, 3995.897217, 4197.436035, 4136.922852, 4197.948730, 0.000000, 8769.000000, 8232.000000, 0.000000, 0.000000, 0.000000, 17196.000000, 235.384613, 4.000000, 4.000000, 4.000000, 4.000000, 4.000000, 4.000000, 4.000000, 4.000000, 4.000000, 4.000000, 4.000000, 4.000000, 4.000000, 4.000000, 4.000000, 4.000000
31.000000, 0.000000, 4215.384277, 3907.179443, 4174.358887, 4058.974365, 4172.307617, 4176.410156, 4174.871582, 4175.384277, 4145.641113, 4160.512695, 4001.538330, 4197.436035, 4142.563965, 4193.846191, 0.000000, 8765.000000, 8225.000000, 0.000000, 0.000000, 0.000000, 17196.000000, 243.589737, 4.000000, 4.000000, 4.000000, 4.000000, 4.000000, 4.000000, 4.000000, 4.000000, 4.000000, 4.000000, 4.000000, 4.000000, 4.000000, 4.000000, 4.000000, 4.000000
32.000000, 0.000000, 4196.922852, 3892.820313, 4170.769043, 4044.615234, 4169.230469, 4158.461426, 4172.307617, 4170.769043, 4137.948730, 4166.666504, 3990.256348, 4196.410156, 4133.846191, 4188.717773, 0.000000, 8765.000000, 8225.000000, 0.000000, 0.000000, 0.000000, 17196.000000, 251.794861, 4.000000, 4.000000, 4.000000, 4.000000, 4.000000, 4.000000, 4.000000, 4.000000, 4.000000, 4.000000, 4.000000, 4.000000, 4.000000, 4.000000, 4.000000, 4.000000
33.000000, 0.000000, 4185.641113, 3895.384521, 4154.871582, 4035.384521, 4147.692383, 4148.205078, 4171.281738, 4169.230469, 4137.436035, 4148.205078, 3973.333252, 4192.307617, 4118.974121, 4183.076660, 0.000000, 8756.000000, 8240.000000, 0.000000, 0.000000, 0.000000, 17196.000000, 259.487183, 4.000000, 4.000000, 4.000000, 4.000000, 4.000000, 4.000000, 4.000000, 4.000000, 4.000000, 4.000000, 4.000000, 4.000000, 4.000000, 4.000000, 4.000000, 4.000000
34.000000, 0.000000, 4195.897461, 3897.948730, 4143.589844, 4045.128174, 4149.230469, 4158.974121, 4173.333008, 4170.256348, 4146.153809, 4147.179199, 3979.487061, 4197.436035, 4126.153809, 4193.333008, 0.000000, 8756.000000, 8240.000000, 0.000000, 0.000000, 0.000000, 17196.000000, 267.692291, 4.000000, 4.000000, 4.000000, 4.000000, 4.000000, 4.000000, 4.000000, 4.000000, 4.000000, 4.000000, 4.000000, 4.000000, 4.000000, 4.000000, 4.000000, 4.000000
35.000000, 0.000000, 4192.307617, 3870.769043, 4158.974121, 4045.640869, 4157.948730, 4160.000000, 4168.205078, 4163.589844, 4147.179199, 4173.333008, 4001.025635, 4195.384277, 4143.589844, 4193.846191, 0.000000, 8745.000000, 8248.000000, 0.000000, 0.000000, 0.000000, 17196.000000, 275.384613, 4.000000, 4.000000, 4.000000, 4.000000, 4.000000, 4.000000, 4.000000, 4.000000, 4.000000, 4.000000, 4.000000, 4.000000, 4.000000, 4.000000, 4.000000, 4.000000
36.000000, 0.000000, 4193.333008, 3874.871582, 4177.436035, 4043.076904, 4150.256348, 4167.692383, 4167.692383, 4162.563965, 4146.153809, 4180.000000, 4009.743408, 4198.461426, 4149.743652, 4193.846191, 0.000000, 8745.000000, 8248.000000, 0.000000, 0.000000, 0.000000, 17196.000000, 283.589722, 4.000000, 4.000000, 4.000000, 4.000000, 4.000000, 4.000000, 4.000000, 4.000000, 4.000000, 4.000000, 4.000000, 4.000000, 4.000000, 4.000000, 4.000000, 4.000000
37.000000, 0.000000, 4210.769043, 3911.281982, 4171.794922, 4060.512695, 4160.512695, 4177.948730, 4177.948730, 4166.666504, 4146.666504, 4161.538574, 4005.128174, 4206.666504, 4144.102539, 4199.487305, 0.000000, 8702.000000, 8250.000000, 0.000000, 0.000000, 0.000000, 17196.000000, 291.282043, 4.000000, 4.000000, 4.000000, 4.000000, 4.000000, 4.000000, 4.000000, 4.000000, 4.000000, 4.000000, 4.000000, 4.000000, 4.000000, 4.000000, 4.000000, 4.000000
38.000000, 0.000000, 4202.051270, 3895.384521, 4162.563965, 4073.333252, 4178.461426, 4152.820313, 4169.743652, 4165.641113, 4146.666504, 4157.948730, 4001.538330, 4201.538574, 4122.563965, 4186.666504, 0.000000, 8702.000000, 8250.000000, 0.000000, 0.000000, 0.000000, 17196.000000, 299.487183, 4.000000, 4.000000, 4.000000, 4.000000, 4.000000, 4.000000, 4.000000, 4.000000, 4.000000, 4.000000, 4.000000, 4.000000, 4.000000, 4.000000, 4.000000, 4.000000
39.000000, 0.000000, 4183.589844, 3885.640869, 4167.179199, 4065.640869, 4171.281738, 4146.666504, 4155.384277, 4175.384277, 4155.384277, 4176.410156, 4011.794678, 4210.256348, 4123.076660, 4196.922852, 0.000000, 8679.000000, 8245.000000, 0.000000, 0.000000, 0.000000, 17196.000000, 307.179474, 4.000000, 4.000000, 4.000000, 4.000000, 4.000000, 4.000000, 4.000000, 4.000000, 4.000000, 4.000000, 4.000000, 4.000000, 4.000000, 4.000000, 4.000000, 4.000000
40.000000, 0.000000, 4190.769043, 3919.487061, 4175.384277, 4060.512695, 4167.692383, 4183.589844, 4163.076660, 4185.127930, 4168.717773, 4186.666504, 4030.256348, 4214.358887, 4157.436035, 4207.692383, 0.000000, 8679.000000, 8245.000000, 0.000000, 0.000000, 0.000000, 17196.000000, 315.384613, 4.000000, 4.000000, 4.000000, 4.000000, 4.000000, 4.000000, 4.000000, 4.000000, 4.000000, 4.000000, 4.000000, 4.000000, 4.000000, 4.000000, 4.000000, 4.000000
41.000000, 0.000000, 4195.897461, 3901.538330, 4173.333008, 4066.153809, 4178.974121, 4185.641113, 4172.820313, 4171.794922, 4168.717773, 4175.384277, 4026.666504, 4204.102539, 4166.153809, 4190.256348, 0.000000, 8635.000000, 8216.000000, 0.000000, 0.000000, 0.000000, 17196.000000, 323.076904, 4.000000, 4.000000, 4.000000, 4.000000, 4.000000, 4.000000, 4.000000, 4.000000, 4.000000, 4.000000, 4.000000, 4.000000, 4.000000, 4.000000, 4.000000, 4.000000
42.000000, 0.000000, 4187.692383, 3870.769043, 4167.692383, 4074.871582, 4161.025391, 4158.974121, 4169.743652, 4161.025391, 4159.487305, 4174.871582, 4012.820313, 4206.153809, 4144.102539, 4190.769043, 0.000000, 8635.000000, 8216.000000, 0.000000, 0.000000, 0.000000, 17196.000000, 331.282043, 4.000000, 4.000000, 4.000000, 4.000000, 4.000000, 4.000000, 4.000000, 4.000000, 4.000000, 4.000000, 4.000000, 4.000000, 4.000000, 4.000000, 4.000000, 4.000000
43.000000, 0.000000, 4183.076660, 3891.794678, 4173.846191, 4078.974365, 4131.281738, 4166.153809, 4166.666504, 4172.820313, 4164.102539, 4194.871582, 4026.153809, 4208.717773, 4143.589844, 4201.538574, 0.000000, 8622.000000, 8209.000000, 0.000000, 0.000000, 0.000000, 17196.000000, 339.487183, 4.000000, 4.000000, 4.000000, 4.000000, 4.000000, 4.000000, 4.000000, 4.000000, 4.000000, 4.000000, 4.000000, 4.000000, 4.000000, 4.000000, 4.000000, 4.000000
44.000000, 0.000000, 4187.692383, 3904.102539, 4188.205078, 4083.589600, 4154.871582, 4180.000000, 4168.205078, 4178.974121, 4171.794922, 4197.436035, 4043.589600, 4214.358887, 4156.410156, 4205.127930, 0.000000, 8622.000000, 8209.000000, 0.000000, 0.000000, 0.000000, 17196.000000, 347.179474, 4.000000, 4.000000, 4.000000, 4.000000, 4.000000, 4.000000, 4.000000, 4.000000, 4.000000, 4.000000, 4.000000, 4.000000, 4.000000, 4.000000, 4.000000, 4.000000
45.000000, 0.000000, 4194.871582, 3888.205078, 4186.153809, 4088.717773, 4183.076660, 4170.769043, 4168.717773, 4169.230469, 4166.153809, 4180.512695, 4029.230713, 4210.256348, 4154.358887, 4196.410156, 0.000000, 8605.000000, 8206.000000, 0.000000, 0.000000, 0.000000, 17196.000000, 355.384613, 4.000000, 4.000000, 4.000000, 4.000000, 4.000000, 4.000000, 4.000000, 4.000000, 4.000000, 4.000000, 4.000000, 4.000000, 4.000000, 4.000000, 4.000000, 4.000000
46.000000, 0.000000, 4189.743652, 3908.205078, 4179.487305, 4090.256348, 4157.948730, 4169.230469, 4169.230469, 4169.743652, 4161.025391, 4176.410156, 4020.000000, 4204.102539, 4152.820313, 4195.897461, 0.000000, 8605.000000, 8206.000000, 0.000000, 0.000000, 0.000000, 17196.000000, 363.076904, 4.000000, 4.000000, 4.000000, 4.000000, 4.000000, 4.000000, 4.000000, 4.000000, 4.000000, 4.000000, 4.000000, 4.000000, 4.000000, 4.000000, 4.000000, 4.000000
47.000000, 0.000000, 4192.307617, 3927.692139, 4191.794922, 4092.307617, 4135.384277, 4170.769043, 4166.666504, 4178.461426, 4162.051270, 4185.127930, 4033.845947, 4215.384277, 4153.846191, 4207.179199, 0.000000, 8603.000000, 8198.000000, 0.000000, 0.000000, 0.000000, 17196.000000, 371.282043, 4.000000, 4.000000, 4.000000, 4.000000, 4.000000, 4.000000, 4.000000, 4.000000, 4.000000, 4.000000, 4.000000, 4.000000, 4.000000, 4.000000, 4.000000, 4.000000
48.000000, 0.000000, 4232.307617, 3940.512695, 4199.487305, 4104.102539, 4146.153809, 4165.127930, 4169.230469, 4178.461426, 4163.076660, 4188.717773, 4046.153809, 4218.974121, 4153.333008, 4201.025391, 0.000000, 8603.000000, 8198.000000, 0.000000, 0.000000, 0.000000, 17196.000000, 378.974335, 4.000000, 4.000000, 4.000000, 4.000000, 4.000000, 4.000000, 4.000000, 4.000000, 4.000000, 4.000000, 4.000000, 4.000000, 4.000000, 4.000000, 4.000000, 4.000000
49.000000, 0.000000, 4242.051270, 3973.845947, 4200.512695, 4114.871582, 4149.743652, 4158.974121, 4175.897461, 4174.871582, 4160.512695, 4181.538574, 4050.769043, 4221.538574, 4161.538574, 4203.589844, 0.000000, 8596.000000, 8197.000000, 0.000000, 0.000000, 0.000000, 17196.000000, 387.179474, 4.000000, 4.000000, 4.000000, 4.000000, 4.000000, 4.000000, 4.000000, 4.000000, 4.000000, 4.000000, 4.000000, 4.000000, 4.000000, 4.000000, 4.000000, 4.000000
50.000000, 0.000000, 4213.846191, 3961.025635, 4211.281738, 4124.102539, 4148.717773, 4155.897461, 4173.846191, 4175.897461, 4160.000000, 4181.025391, 4042.563965, 4227.179199, 4151.794922, 4204.615234, 0.000000, 8596.000000, 8197.000000, 0.000000, 0.000000, 0.000000, 17196.000000, 394.871796, 4.000000, 4.000000, 4.000000, 4.000000, 4.000000, 4.000000, 4.000000, 4.000000, 4.000000, 4.000000, 4.000000, 4.000000, 4.000000, 4.000000, 4.000000, 4.000000
51.000000, 0.000000, 4236.410156, 3942.051270, 4211.281738, 4144.615234, 4156.922852, 4155.897461, 4170.256348, 4173.333008, 4153.846191, 4187.179199, 4037.435791, 4222.051270, 4142.051270, 4197.436035, 0.000000, 8590.000000, 8178.000000, 0.000000, 0.000000, 0.000000, 17196.000000, 403.076904, 4.000000, 4.000000, 4.000000, 4.000000, 4.000000, 4.000000, 4.000000, 4.000000, 4.000000, 4.000000, 4.000000, 4.000000, 4.000000, 4.000000, 4.000000, 4.000000
52.000000, 0.000000, 4266.666504, 4017.435791, 4203.589844, 4156.410156, 4156.922852, 4155.384277, 4163.076660, 4168.205078, 4149.230469, 4186.666504, 4050.256348, 4215.384277, 4165.641113, 4204.102539, 0.000000, 8590.000000, 8178.000000, 0.000000, 0.000000, 0.000000, 17196.000000, 410.769226, 4.000000, 4.000000, 4.000000, 4.000000, 4.000000, 4.000000, 4.000000, 4.000000, 4.000000, 4.000000, 4.000000, 4.000000, 4.000000, 4.000000, 4.000000, 4.000000
53.000000, 0.000000, 4267.692383, 4104.615234, 4208.205078, 4155.897461, 4148.717773, 4160.512695, 4161.025391, 4162.563965, 4155.384277, 4185.641113, 4063.589600, 4216.410156, 4182.563965, 4205.127930, 0.000000, 8584.000000, 8144.000000, 0.000000, 0.000000, 0.000000, 17196.000000, 418.974335, 4.000000, 4.000000, 4.000000, 4.000000, 4.000000, 4.000000, 4.000000, 4.000000, 4.000000, 4.000000, 4.000000, 4.000000, 4.000000, 4.000000, 4.000000, 4.000000
54.000000, 0.000000, 4286.153809, 4115.384277, 4218.461426, 4164.102539, 4138.461426, 4160.512695, 4163.076660, 4160.512695, 4153.846191, 4193.846191, 4070.769043, 4231.281738, 4171.281738, 4207.692383, 0.000000, 8584.000000, 8144.000000, 0.000000, 0.000000, 0.000000, 17196.000000, 427.179474, 4.000000, 4.000000, 4.000000, 4.000000, 4.000000, 4.000000, 4.000000, 4.000000, 4.000000, 4.000000, 4.000000, 4.000000, 4.000000, 4.000000, 4.000000, 4.000000
55.000000, 0.000000, 4283.076660, 4149.743652, 4224.615234, 4176.922852, 4132.820313, 4145.127930, 4157.948730, 4171.794922, 4148.205078, 4202.051270, 4072.307617, 4233.333008, 4167.179199, 4209.743652, 0.000000, 8552.000000, 8098.000000, 0.000000, 0.000000, 0.000000, 17196.000000, 434.871796, 4.000000, 4.000000, 4.000000, 4.000000, 4.000000, 4.000000, 4.000000, 4.000000, 4.000000, 4.000000, 4.000000, 4.000000, 4.000000, 4.000000, 4.000000, 4.000000
56.000000, 0.000000, 4281.538574, 4253.333008, 4225.641113, 4195.384277, 4151.281738, 4146.666504, 4165.641113, 4187.179199, 4157.436035, 4201.538574, 4072.307617, 4223.076660, 4172.820313, 4200.512695, 0.000000, 8552.000000, 8098.000000, 0.000000, 0.000000, 0.000000, 17196.000000, 443.076904, 4.000000, 4.000000, 4.000000, 4.000000, 4.000000, 4.000000, 4.000000, 4.000000, 4.000000, 4.000000, 4.000000, 4.000000, 4.000000, 4.000000, 4.000000, 4.000000
57.000000, 0.000000, 4326.153809, 4316.922852, 4215.384277, 4208.717773, 4150.769043, 4170.256348, 4186.666504, 4187.692383, 4168.717773, 4201.538574, 4079.487061, 4225.127930, 4169.743652, 4202.051270, 0.000000, 8539.000000, 8080.000000, 0.000000, 0.000000, 0.000000, 17196.000000, 450.769226, 4.000000, 4.000000, 4.000000, 4.000000, 4.000000, 4.000000, 4.000000, 4.000000, 4.000000, 4.000000, 4.000000, 4.000000, 4.000000, 4.000000, 4.000000, 4.000000
58.000000, 0.000000, 4326.666504, 4378.974121, 4209.230469, 4207.179199, 4116.410156, 4173.333008, 4181.025391, 4177.436035, 4171.794922, 4204.102539, 4082.563965, 4218.974121, 4170.769043, 4194.358887, 0.000000, 8539.000000, 8080.000000, 0.000000, 0.000000, 0.000000, 17196.000000, 458.974335, 4.000000, 4.000000, 4.000000, 4.000000, 4.000000, 4.000000, 4.000000, 4.000000, 4.000000, 4.000000, 4.000000, 4.000000, 4.000000, 4.000000, 4.000000, 4.000000
59.000000, 0.000000, 4290.256348, 4489.743652, 4216.410156, 4209.230469, 4116.410156, 4153.333008, 4161.538574, 4174.358887, 4170.769043, 4198.461426, 4076.923096, 4217.436035, 4168.717773, 4182.563965, 0.000000, 8528.000000, 8075.000000, 0.000000, 0.000000, 0.000000, 17196.000000, 466.666656, 4.000000, 4.000000, 4.000000, 4.000000, 4.000000, 4.000000, 4.000000, 4.000000, 4.000000, 4.000000, 4.000000, 4.000000, 4.000000, 4.000000, 4.000000, 4.000000
60.000000, 0.000000, 4305.641113, 4595.384277, 4214.358887, 4223.589844, 4155.384277, 4154.871582, 4172.820313, 4178.974121, 4165.127930, 4196.410156, 4080.512695, 4224.615234, 4156.922852, 4188.717773, 0.000000, 8528.000000, 8075.000000, 0.000000, 0.000000, 0.000000, 17196.000000, 474.871796, 4.000000, 4.000000, 4.000000, 4.000000, 4.000000, 4.000000, 4.000000, 4.000000, 4.000000, 4.000000, 4.000000, 4.000000, 4.000000, 4.000000, 4.000000, 4.000000
61.000000, 0.000000, 4323.076660, 4670.769043, 4208.717773, 4223.589844, 4161.025391, 4163.589844, 4186.666504, 4181.538574, 4163.076660, 4205.641113, 4089.230713, 4219.487305, 4152.820313, 4187.179199, 0.000000, 8506.000000, 8096.000000, 0.000000, 0.000000, 0.000000, 17196.000000, 482.564087, 4.000000, 4.000000, 4.000000, 4.000000, 4.000000, 4.000000, 4.000000, 4.000000, 4.000000, 4.000000, 4.000000, 4.000000, 4.000000, 4.000000, 4.000000, 4.000000
62.000000, 0.000000, 4316.410156, 4793.846191, 4216.922852, 4217.948730, 4145.127930, 4168.717773, 4180.000000, 4188.205078, 4176.922852, 4216.922852, 4088.205078, 4225.641113, 4158.974121, 4189.230469, 0.000000, 8506.000000, 8096.000000, 0.000000, 0.000000, 0.000000, 17196.000000, 490.769226, 4.000000, 4.000000, 4.000000, 4.000000, 4.000000, 4.000000, 4.000000, 4.000000, 4.000000, 4.000000, 4.000000, 4.000000, 4.000000, 4.000000, 4.000000, 4.000000
63.000000, 0.000000, 4333.846191, 4946.666504, 4220.512695, 4231.794922, 4157.436035, 4177.436035, 4185.641113, 4197.948730, 4191.794922, 4218.461426, 4090.256348, 4232.307617, 4173.333008, 4193.333008, 0.000000, 8491.000000, 8116.000000, 0.000000, 0.000000, 0.000000, 17196.000000, 498.461517, 4.000000, 4.000000, 4.000000, 4.000000, 4.000000, 4.000000, 4.000000, 4.000000, 4.000000, 4.000000, 4.000000, 4.000000, 4.000000, 4.000000, 4.000000, 4.000000
64.000000, 0.000000, 4336.922852, 4966.666504, 4213.846191, 4229.230469, 4153.846191, 4162.563965, 4190.256348, 4188.205078, 4174.358887, 4205.641113, 4081.538330, 4224.615234, 4164.102539, 4184.615234, 3506.000000, 8491.000000, 8116.000000, 0.000000, 0.000000, 0.000000, 17196.000000, 506.666656, 4.000000, 4.000000, 4.000000, 4.000000, 4.000000, 4.000000, 4.000000, 4.000000, 4.000000, 4.000000, 4.000000, 4.000000, 4.000000, 4.000000, 4.000000, 4.000000
65.000000, 0.000000, 4314.358887, 4969.743652, 4216.922852, 4214.358887, 4128.205078, 4147.692383, 4176.922852, 4172.307617, 4151.794922, 4195.897461, 4063.589600, 4218.974121, 4144.102539, 4186.666504, 3519.000000, 8458.000000, 8156.000000, 0.000000, 0.000000, 0.000000, 17196.000000, 514.871765, 4.000000, 4.000000, 4.000000, 4.000000, 4.000000, 4.000000, 4.000000, 4.000000, 4.000000, 4.000000, 4.000000, 4.000000, 4.000000, 4.000000, 4.000000, 4.000000
66.000000, 0.000000, 4325.641113, 5075.897461, 4222.563965, 4224.615234, 4136.922852, 4153.846191, 4167.179199, 4176.410156, 4161.025391, 4196.922852, 4065.640869, 4217.948730, 4157.436035, 4187.179199, 2738.000000, 8458.000000, 8156.000000, 0.000000, 0.000000, 0.000000, 17196.000000, 522.564087, 4.000000, 4.000000, 4.000000, 4.000000, 4.000000, 4.000000, 4.000000, 4.000000, 4.000000, 4.000000, 4.000000, 4.000000, 4.000000, 4.000000, 4.000000, 4.000000
67.000000, 0.000000, 4341.538574, 5095.897461, 4221.025391, 4232.307617, 4156.922852, 4153.333008, 4174.871582, 4185.641113, 4171.794922, 4202.563965, 4074.358887, 4222.051270, 4175.897461, 4187.179199, 3537.000000, 8437.000000, 8182.000000, 0.000000, 0.000000, 0.000000, 17196.000000, 530.256409, 4.000000, 4.000000, 4.000000, 4.000000, 4.000000, 4.000000, 4.000000, 4.000000, 4.000000, 4.000000, 4.000000, 4.000000, 4.000000, 4.000000, 4.000000, 4.000000
68.000000, 0.000000, 4330.769043, 5063.076660, 4218.974121, 4224.102539, 4152.820313, 4156.410156, 4182.563965, 4191.281738, 4170.256348, 4213.846191, 4076.410156, 4218.461426, 4174.358887, 4188.205078, 3540.000000, 8437.000000, 8182.000000, 0.000000, 0.000000, 0.000000, 17196.000000, 538.461548, 4.000000, 4.000000, 4.000000, 4.000000, 4.000000, 4.000000, 4.000000, 4.000000, 4.000000, 4.000000, 4.000000, 4.000000, 4.000000, 4.000000, 4.000000, 4.000000
69.000000, 0.000000, 4328.717773, 5145.127930, 4214.358887, 4223.076660, 4149.230469, 4172.820313, 4184.102539, 4204.102539, 4181.538574, 4215.897461, 4076.923096, 4215.897461, 4175.897461, 4186.666504, 3542.000000, 8415.000000, 8206.000000, 0.000000, 0.000000, 0.000000, 17196.000000, 546.666626, 4.000000, 4.000000, 4.000000, 4.000000, 4.000000, 4.000000, 4.000000, 4.000000, 4.000000, 4.000000, 4.000000, 4.000000, 4.000000, 4.000000, 4.000000, 4.000000
70.000000, 0.000000, 4332.307617, 5193.846191, 4210.256348, 4228.717773, 4155.384277, 4169.230469, 4193.333008, 4210.256348, 4188.717773, 4199.487305, 4074.358887, 4218.461426, 4180.512695, 4187.692383, 3460.000000, 8415.000000, 8206.000000, 0.000000, 0.000000, 0.000000, 17196.000000, 554.358948, 4.000000, 4.000000, 4.000000, 4.000000, 4.000000, 4.000000, 4.000000, 4.000000, 4.000000, 4.000000, 4.000000, 4.000000, 4.000000, 4.000000, 4.000000, 4.000000
71.000000, 0.000000, 4317.948730, 5123.076660, 4213.333008, 4229.230469, 4150.769043, 4155.384277, 4200.512695, 4191.794922, 4171.281738, 4197.436035, 4071.794678, 4208.205078, 4166.666504, 4180.000000, 3185.000000, 8382.000000, 8243.000000, 0.000000, 0.000000, 0.000000, 17196.000000, 562.564087, 4.000000, 4.000000, 4.000000, 4.000000, 4.000000, 4.000000, 4.000000, 4.000000, 4.000000, 4.000000, 4.000000, 4.000000, 4.000000, 4.000000, 4.000000, 4.000000
72.000000, 0.000000, 4307.692383, 5114.358887, 4215.897461, 4230.769043, 4151.281738, 4167.179199, 4200.000000, 4191.281738, 4173.846191, 4214.871582, 4072.820313, 4208.717773, 4161.025391, 4182.051270, 3540.000000, 8382.000000, 8243.000000, 0.000000, 0.000000, 0.000000, 17196.000000, 570.256409, 4.000000, 4.000000, 4.000000, 4.000000, 4.000000, 4.000000, 4.000000, 4.000000, 4.000000, 4.000000, 4.000000, 4.000000, 4.000000, 4.000000, 4.000000, 4.000000
73.000000, 0.000000, 4303.589844, 5163.076660, 4210.769043, 4230.256348, 4151.281738, 4165.641113, 4197.948730, 4218.461426, 4203.589844, 4218.974121, 4075.897217, 4211.281738, 4180.512695, 4186.153809, 3551.000000, 8372.000000, 8254.000000, 0.000000, 0.000000, 0.000000, 17196.000000, 578.461548, 4.000000, 4.000000, 4.000000, 4.000000, 4.000000, 4.000000, 4.000000, 4.000000, 4.000000, 4.000000, 4.000000, 4.000000, 4.000000, 4.000000, 4.000000, 4.000000
74.000000, 0.000000, 4293.333008, 5190.769043, 4211.794922, 4221.538574, 4135.384277, 4133.846191, 4187.179199, 4214.871582, 4198.974121, 4218.974121, 4073.845947, 4207.179199, 4190.769043, 4182.563965, 3172.000000, 8372.000000, 8254.000000, 0.000000, 0.000000, 0.000000, 17196.000000, 586.153809, 4.000000, 4.000000, 4.000000, 4.000000, 4.000000, 4.000000, 4.000000, 4.000000, 4.000000, 4.000000, 4.000000, 4.000000, 4.000000, 4.000000, 4.000000, 4.000000
75.000000, 0.000000, 4292.307617, 5201.538574, 4222.051270, 4227.692383, 4137.436035, 4135.384277, 4174.871582, 4195.897461, 4184.615234, 4222.051270, 4074.871582, 4213.846191, 4186.153809, 4186.666504, 1818.000000, 8360.000000, 8228.000000, 0.000000, 0.000000, 0.000000, 17196.000000, 594.358948, 4.000000, 4.000000, 4.000000, 4.000000, 4.000000, 4.000000, 4.000000, 4.000000, 4.000000, 4.000000, 4.000000, 4.000000, 4.000000, 4.000000, 4.000000, 4.000000
76.000000, 0.000000, 4302.051270, 5169.743652, 4233.333008, 4247.179199, 4158.461426, 4174.871582, 4184.615234, 4207.179199, 4198.974121, 4222.563965, 4087.692139, 4219.487305, 4185.641113, 4184.102539, 3507.000000, 8360.000000, 8228.000000, 0.000000, 0.000000, 0.000000, 17196.000000, 602.051270, 4.000000, 4.000000, 4.000000, 4.000000, 4.000000, 4.000000, 4.000000, 4.000000, 4.000000, 4.000000, 4.000000, 4.000000, 4.000000, 4.000000, 4.000000, 4.000000
77.000000, 0.000000, 4306.153809, 5174.871582, 4234.871582, 4253.333008, 4161.025391, 4193.846191, 4203.589844, 4217.436035, 4212.307617, 4229.230469, 4095.897217, 4223.076660, 4191.281738, 4183.076660, 2320.000000, 8358.000000, 8198.000000, 0.000000, 0.000000, 0.000000, 17196.000000, 610.256409, 4.000000, 4.000000, 4.000000, 4.000000, 4.000000, 4.000000, 4.000000, 4.000000, 4.000000, 4.000000, 4.000000, 4.000000, 4.000000, 4.000000, 4.000000, 4.000000
78.000000, 0.000000, 4296.922852, 5236.922852, 4221.538574, 4245.127930, 4148.205078, 4165.127930, 4202.563965, 4195.384277, 4194.358887, 4228.205078, 4083.076904, 4212.820313, 4188.717773, 4186.666504, 3172.000000, 8358.000000, 8198.000000, 0.000000, 0.000000, 0.000000, 17196.000000, 617.948730, 4.000000, 4.000000, 4.000000, 4.000000, 4.000000, 4.000000, 4.000000, 4.000000, 4.000000, 4.000000, 4.000000, 4.000000, 4.000000, 4.000000, 4.000000, 4.000000
79.000000, 0.000000, 4291.794922, 5247.692383, 4212.307617, 4245.127930, 4157.948730, 4145.641113, 4196.410156, 4180.512695, 4166.153809, 4212.307617, 4074.871582, 4199.487305, 4183.589844, 4185.641113, 1818.000000, 8352.000000, 8133.000000, 0.000000, 0.000000, 0.000000, 17196.000000, 626.153809, 4.000000, 4.000000, 4.000000, 4.000000, 4.000000, 4.000000, 4.000000, 4.000000, 4.000000, 4.000000, 4.000000, 4.000000, 4.000000, 4.000000, 4.000000, 4.000000
80.000000, 0.000000, 4299.487305, 5194.871582, 4221.538574, 4252.820313, 4162.563965, 4181.025391, 4203.076660, 4195.384277, 4171.794922, 4214.871582, 4089.743408, 4211.281738, 4187.692383, 4192.307617, 3507.000000, 8352.000000, 8133.000000, 0.000000, 0.000000, 0.000000, 17196.000000, 634.358948, 4.000000, 4.000000, 4.000000, 4.000000, 4.000000, 4.000000, 4.000000, 4.000000, 4.000000, 4.000000, 4.000000, 4.000000, 4.000000, 4.000000, 4.000000, 4.000000
81.000000, 0.000000, 4295.384277, 5175.897461, 4228.205078, 4245.641113, 4128.717773, 4191.794922, 4206.666504, 4206.666504, 4198.974121, 4223.076660, 4095.384521, 4213.846191, 4186.153809, 4190.769043, 2320.000000, 8340.000000, 8103.000000, 0.000000, 0.000000, 0.000000, 17196.000000, 642.051270, 4.000000, 4.000000, 4.000000, 4.000000, 4.000000, 4.000000, 4.000000, 4.000000, 4.000000, 4.000000, 4.000000, 4.000000, 4.000000, 4.000000, 4.000000, 4.000000
82.000000, 0.000000, 4280.000000, 5208.205078, 4213.333008, 4230.256348, 4120.000000, 4129.743652, 4196.410156, 4193.333008, 4196.410156, 4204.615234, 4079.487061, 4202.563965, 4175.384277, 4185.127930, 3172.000000, 8340.000000, 8103.000000, 0.000000, 0.000000, 0.000000, 17196.000000, 649.743591, 4.000000, 4.000000, 4.000000, 4.000000, 4.000000, 4.000000, 4.000000, 4.000000, 4.000000, 4.000000, 4.000000, 4.000000, 4.000000, 4.000000, 4.000000, 4.000000
83.000000, 0.000000, 4274.871582, 5209.743652, 4205.641113, 4233.846191, 4146.666504, 4111.794922, 4193.333008, 4184.102539, 4178.974121, 4198.461426, 4079.487061, 4203.589844, 4183.076660, 4187.692383, 1818.000000, 8328.000000, 8081.000000, 0.000000, 0.000000, 0.000000, 17196.000000, 657.948730, 4.000000, 4.000000, 4.000000, 4.000000, 4.000000, 4.000000, 4.000000, 4.000000, 4.000000, 4.000000, 4.000000, 4.000000, 4.000000, 4.000000, 4.000000, 4.000000
84.000000, 0.000000, 4284.102539, 5200.512695, 4221.538574, 4249.743652, 4152.307617, 4174.358887, 4201.025391, 4202.051270, 4196.410156, 4218.461426, 4103.076660, 4214.358887, 4203.076660, 4190.769043, 3507.000000, 8328.000000, 8081.000000, 0.000000, 0.000000, 0.000000, 17196.000000, 666.153809, 4.000000, 4.000000, 4.000000, 4.000000, 4.000000, 4.000000, 4.000000, 4.000000, 4.000000, 4.000000, 4.000000, 4.000000, 4.000000, 4.000000, 4.000000, 4.000000
85.000000, 0.000000, 4290.769043, 5228.717773, 4235.897461, 4253.846191, 4143.589844, 4196.410156, 4203.589844, 4210.769043, 4212.307617, 4223.589844, 4113.333008, 4220.512695, 4208.717773, 4197.436035, 2320.000000, 8296.000000, 8060.000000, 0.000000, 0.000000, 0.000000, 17196.000000, 673.846130, 4.000000, 4.000000, 4.000000, 4.000000, 4.000000, 4.000000, 4.000000, 4.000000, 4.000000, 4.000000, 4.000000, 4.000000, 4.000000, 4.000000, 4.000000, 4.000000
86.000000, 0.000000, 4281.538574, 5211.281738, 4241.025391, 4248.717773, 4146.153809, 4165.641113, 4198.974121, 4198.974121, 4200.000000, 4216.922852, 4109.230469, 4214.871582, 4191.794922, 4191.794922, 3172.000000, 8296.000000, 8060.000000, 0.000000, 0.000000, 0.000000, 17196.000000, 682.051270, 4.000000, 4.000000, 4.000000, 4.000000, 4.000000, 4.000000, 4.000000, 4.000000, 4.000000, 4.000000, 4.000000, 4.000000, 4.000000, 4.000000, 4.000000, 4.000000
87.000000, 0.000000, 4266.666504, 5191.281738, 4241.025391, 4250.256348, 4140.512695, 4162.051270, 4190.769043, 4197.948730, 4197.436035, 4217.436035, 4108.717773, 4217.436035, 4170.769043, 4189.743652, 1818.000000, 8274.000000, 8068.000000, 0.000000, 0.000000, 0.000000, 17196.000000, 689.743591, 4.000000, 4.000000, 4.000000, 4.000000, 4.000000, 4.000000, 4.000000, 4.000000, 4.000000, 4.000000, 4.000000, 4.000000, 4.000000, 4.000000, 4.000000, 4.000000
88.000000, 0.000000, 4260.000000, 5285.641113, 4232.307617, 4249.743652, 4133.846191, 4159.487305, 4181.538574, 4189.743652, 4198.974121, 4216.410156, 4102.563965, 4216.922852, 4178.974121, 4192.820313, 3507.000000, 8274.000000, 8068.000000, 0.000000, 0.000000, 0.000000, 17196.000000, 697.948730, 4.000000, 4.000000, 4.000000, 4.000000, 4.000000, 4.000000, 4.000000, 4.000000, 4.000000, 4.000000, 4.000000, 4.000000, 4.000000, 4.000000, 4.000000, 4.000000
89.000000, 0.000000, 4257.436035, 5375.897461, 4228.717773, 4247.179199, 4142.563965, 4156.410156, 4187.179199, 4180.000000, 4191.794922, 4216.410156, 4098.974121, 4205.127930, 4205.127930, 4186.666504, 2320.000000, 8229.000000, 8093.000000, 0.000000, 0.000000, 0.000000, 17196.000000, 705.640991, 4.000000, 4.000000, 4.000000, 4.000000, 4.000000, 4.000000, 4.000000, 4.000000, 4.000000, 4.000000, 4.000000, 4.000000, 4.000000, 4.000000, 4.000000, 4.000000
90.000000, 0.000000, 4250.769043, 5377.435547, 4241.025391, 4252.307617, 4130.769043, 4182.051270, 4206.153809, 4195.384277, 4195.897461, 4221.538574, 4106.666504, 4209.743652, 4198.974121, 4192.307617, 3172.000000, 8229.000000, 8093.000000, 0.000000, 0.000000, 0.000000, 17196.000000, 713.846130, 4.000000, 4.000000, 4.000000, 4.000000, 4.000000, 4.000000, 4.000000, 4.000000, 4.000000, 4.000000, 4.000000, 4.000000, 4.000000, 4.000000, 4.000000, 4.000000
91.000000, 0.000000, 4236.922852, 5412.307617, 4244.615234, 4252.307617, 4108.205078, 4182.563965, 4207.179199, 4204.102539, 4206.153809, 4210.256348, 4103.589844, 4209.743652, 4178.974121, 4193.846191, 1818.000000, 8201.000000, 8113.000000, 0.000000, 0.000000, 0.000000, 17196.000000, 721.538452, 4.000000, 4.000000, 4.000000, 4.000000, 4.000000, 4.000000, 4.000000, 4.000000, 4.000000, 4.000000, 4.000000, 4.000000, 4.000000, 4.000000, 4.000000, 4.000000
92.000000, 0.000000, 4225.641113, 5489.230469, 4236.410156, 4243.589844, 4118.461426, 4158.974121, 4197.948730, 4187.692383, 4198.461426, 4202.051270, 4093.333252, 4205.127930, 4185.127930, 4188.205078, 3507.000000, 8201.000000, 8113.000000, 0.000000, 0.000000, 0.000000, 17196.000000, 729.743591, 4.000000, 4.000000, 4.000000, 4.000000, 4.000000, 4.000000, 4.000000, 4.000000, 4.000000, 4.000000, 4.000000, 4.000000, 4.000000, 4.000000, 4.000000, 4.000000
93.000000, 0.000000, 4212.307617, 5523.076660, 4234.871582, 4237.948730, 4122.563965, 4158.974121, 4207.692383, 4181.538574, 4187.179199, 4201.025391, 4087.179443, 4203.589844, 4173.846191, 4189.743652, 2320.000000, 8187.000000, 8132.000000, 0.000000, 0.000000, 0.000000, 17196.000000, 737.435852, 4.000000, 4.000000, 4.000000, 4.000000, 4.000000, 4.000000, 4.000000, 4.000000, 4.000000, 4.000000, 4.000000, 4.000000, 4.000000, 4.000000, 4.000000, 4.000000
94.000000, 0.000000, 4189.230469, 5596.922852, 4232.307617, 4233.333008, 4099.487305, 4151.281738, 4208.205078, 4193.333008, 4182.563965, 4188.717773, 4074.358887, 4194.358887, 4153.846191, 4184.102539, 3172.000000, 8187.000000, 8132.000000, 0.000000, 0.000000, 0.000000, 17196.000000, 745.640991, 4.000000, 4.000000, 4.000000, 4.000000, 4.000000, 4.000000, 4.000000, 4.000000, 4.000000, 4.000000, 4.000000, 4.000000, 4.000000, 4.000000, 4.000000, 4.000000
95.000000, 0.000000, 4177.948730, 5744.615234, 4232.307617, 4229.230469, 4096.410156, 4130.256348, 4180.512695, 4182.051270, 4170.769043, 4182.563965, 4074.358887, 4197.436035, 4175.384277, 4186.666504, 1818.000000, 8144.000000, 8158.000000, 0.000000, 0.000000, 0.000000, 17196.000000, 753.333313, 4.000000, 4.000000, 4.000000, 4.000000, 4.000000, 4.000000, 4.000000, 4.000000, 4.000000, 4.000000, 4.000000, 4.000000, 4.000000, 4.000000, 4.000000, 4.000000
96.000000, 0.000000, 4188.717773, 5889.230469, 4244.615234, 4244.102539, 4122.051270, 4155.384277, 4175.897461, 4162.563965, 4173.333008, 4203.076660, 4095.897217, 4202.051270, 4192.307617, 4191.794922, 3507.000000, 8144.000000, 8158.000000, 0.000000, 0.000000, 0.000000, 17196.000000, 761.538452, 4.000000, 4.000000, 4.000000, 4.000000, 4.000000, 4.000000, 4.000000, 4.000000, 4.000000, 4.000000, 4.000000, 4.000000, 4.000000, 4.000000, 4.000000, 4.000000
97.000000, 0.000000, 4187.692383, 6040.512695, 4248.717773, 4251.281738, 4126.666504, 4186.666504, 4212.820313, 4176.922852, 4193.333008, 4206.153809, 4093.333252, 4201.538574, 4169.743652, 4187.179199, 2320.000000, 8134.000000, 8162.000000, 0.000000, 0.000000, 0.000000, 17196.000000, 769.230774, 4.000000, 4.000000, 4.000000, 4.000000, 4.000000, 4.000000, 4.000000, 4.000000, 4.000000, 4.000000, 4.000000, 4.000000, 4.000000, 4.000000, 4.000000, 4.000000
98.000000, 0.000000, 4165.641113, 6229.230469, 4232.307617, 4231.794922, 4114.871582, 4173.846191, 4227.692383, 4186.153809, 4188.717773, 4181.538574, 4070.769043, 4200.512695, 4162.563965, 4188.205078, 3172.000000, 8134.000000, 8162.000000, 0.000000, 0.000000, 0.000000, 17196.000000, 777.435852, 4.000000, 4.000000, 4.000000, 4.000000, 4.000000, 4.000000, 4.000000, 4.000000, 4.000000, 4.000000, 4.000000, 4.000000, 4.000000, 4.000000, 4.000000, 4.000000
99.000000, 0.000000, 4163.589844, 6414.358887, 4224.615234, 4227.179199, 4122.051270, 4178.974121, 4205.641113, 4175.384277, 4181.025391, 4191.281738, 4084.102539, 4195.384277, 4186.666504, 4192.820313, 1818.000000, 8132.000000, 8172.000000, 0.000000, 0.000000, 0.000000, 17196.000000, 785.128174, 4.000000, 4.000000, 4.000000, 4.000000, 4.000000, 4.000000, 4.000000, 4.000000, 4.000000, 4.000000, 4.000000, 4.000000, 4.000000, 4.000000, 4.000000, 4.000000
100.000000, 0.000000, 4167.692383, 6549.743652, 4220.000000, 4234.871582, 4125.641113, 4156.922852, 4195.384277, 4177.436035, 4188.205078, 4211.281738, 4093.333252, 4195.384277, 4184.102539, 4194.871582, 3507.000000, 8132.000000, 8172.000000, 0.000000, 0.000000, 0.000000, 17196.000000, 792.820496, 4.000000, 4.000000, 4.000000, 4.000000, 4.000000, 4.000000, 4.000000, 4.000000, 4.000000, 4.000000, 4.000000, 4.000000, 4.000000, 4.000000, 4.000000, 4.000000
101.000000, 0.000000, 4152.820313, 6677.948730, 4205.641113, 4227.179199, 4118.461426, 4100.512695, 4199.487305, 4185.641113, 4180.000000, 4202.563965, 4075.384521, 4192.307617, 4169.743652, 4190.256348, 2320.000000, 8145.000000, 8175.000000, 0.000000, 0.000000, 0.000000, 17196.000000, 801.025635, 4.000000, 4.000000, 4.000000, 4.000000, 4.000000, 4.000000, 4.000000, 4.000000, 4.000000, 4.000000, 4.000000, 4.000000, 4.000000, 4.000000, 4.000000, 4.000000
102.000000, 0.000000, 4167.179199, 6824.102539, 4220.512695, 4235.897461, 4130.769043, 4135.384277, 4207.179199, 4191.794922, 4183.076660, 4205.641113, 4088.717773, 4202.563965, 4191.281738, 4193.846191, 3172.000000, 8145.000000, 8175.000000, 0.000000, 0.000000, 0.000000, 17196.000000, 809.230774, 4.000000, 4.000000, 4.000000, 4.000000, 4.000000, 4.000000, 4.000000, 4.000000, 4.000000, 4.000000, 4.000000, 4.000000, 4.000000, 4.000000, 4.000000, 4.000000
103.000000, 0.000000, 4192.820313, 6918.461426, 4248.205078, 4256.922852, 4143.076660, 4207.692383, 4217.436035, 4201.025391, 4206.666504, 4219.487305, 4115.897461, 4221.538574, 4200.512695, 4206.153809, 1818.000000, 8149.000000, 8208.000000, 0.000000, 0.000000, 0.000000, 17196.000000, 816.923035, 4.000000, 4.000000, 4.000000, 4.000000, 4.000000, 4.000000, 4.000000, 4.000000, 4.000000, 4.000000, 4.000000, 4.000000, 4.000000, 4.000000, 4.000000, 4.000000
104.000000, 0.000000, 4171.794922, 6914.871582, 4232.307617, 4241.538574, 4136.410156, 4178.974121, 4211.794922, 4184.615234, 4195.384277, 4208.205078, 4096.410156, 4207.179199, 4172.820313, 4190.769043, 3507.000000, 8149.000000, 8208.000000, 0.000000, 0.000000, 0.000000, 17196.000000, 825.128174, 4.000000, 4.000000, 4.000000, 4.000000, 4.000000, 4.000000, 4.000000, 4.000000, 4.000000, 4.000000, 4.000000, 4.000000, 4.000000, 4.000000, 4.000000, 4.000000
105.000000, 0.000000, 4144.102539, 6867.179199, 4205.641113, 4210.256348, 4128.205078, 4142.051270, 4208.717773, 4164.615234, 4170.256348, 4192.820313, 4065.128174, 4191.794922, 4160.000000, 4178.461426, 2320.000000, 8137.000000, 8245.000000, 0.000000, 0.000000, 0.000000, 17196.000000, 832.820496, 4.000000, 4.000000, 4.000000, 4.000000, 4.000000, 4.000000, 4.000000, 4.000000, 4.000000, 4.000000, 4.000000, 4.000000, 4.000000, 4.000000, 4.000000, 4.000000
106.000000, 0.000000, 4149.743652, 6825.127930, 4212.307617, 4207.692383, 4129.743652, 4181.538574, 4218.974121, 4174.871582, 4183.076660, 4200.512695, 4074.871582, 4200.512695, 4170.256348, 4189.743652, 3172.000000, 8137.000000, 8245.000000, 0.000000, 0.000000, 0.000000, 17196.000000, 841.025635, 4.000000, 4.000000, 4.000000, 4.000000, 4.000000, 4.000000, 4.000000, 4.000000, 4.000000, 4.000000, 4.000000, 4.000000, 4.000000, 4.000000, 4.000000, 4.000000
107.000000, 0.000000, 4154.871582, 6776.410156, 4221.538574, 4216.410156, 4141.025391, 4174.871582, 4209.230469, 4163.076660, 4189.230469, 4202.051270, 4091.794678, 4206.153809, 4175.384277, 4195.384277, 1818.000000, 8136.000000, 8239.000000, 0.000000, 0.000000, 0.000000, 17196.000000, 848.717957, 4.000000, 4.000000, 4.000000, 4.000000, 4.000000, 4.000000, 4.000000, 4.000000, 4.000000, 4.000000, 4.000000, 4.000000, 4.000000, 4.000000, 4.000000, 4.000000
108.000000, 0.000000, 4147.692383, 6729.230469, 4221.025391, 4216.410156, 4150.256348, 4138.461426, 4191.281738, 4136.922852, 4167.692383, 4197.436035, 4090.769043, 4204.102539, 4184.615234, 4195.384277, 3507.000000, 8136.000000, 8239.000000, 0.000000, 0.000000, 0.000000, 17196.000000, 856.410217, 4.000000, 4.000000, 4.000000, 4.000000, 4.000000, 4.000000, 4.000000, 4.000000, 4.000000, 4.000000, 4.000000, 4.000000, 4.000000, 4.000000, 4.000000, 4.000000
109.000000, 0.000000, 4146.666504, 6699.486816, 4224.102539, 4214.871582, 4140.000000, 4161.025391, 4204.102539, 4149.743652, 4169.743652, 4202.563965, 4090.256348, 4197.948730, 4190.769043, 4191.794922, 2320.000000, 8151.000000, 8212.000000, 0.000000, 0.000000, 0.000000, 17196.000000, 864.615356, 4.000000, 4.000000, 4.000000, 4.000000, 4.000000, 4.000000, 4.000000, 4.000000, 4.000000, 4.000000, 4.000000, 4.000000, 4.000000, 4.000000, 4.000000, 4.000000
110.000000, 0.000000, 4148.205078, 6660.512695, 4224.615234, 4216.410156, 4127.179199, 4183.076660, 4218.974121, 4168.205078, 4185.641113, 4204.102539, 4092.307617, 4204.102539, 4182.563965, 4192.820313, 3172.000000, 8151.000000, 8212.000000, 0.000000, 0.000000, 0.000000, 17196.000000, 872.307678, 4.000000, 4.000000, 4.000000, 4.000000, 4.000000, 4.000000, 4.000000, 4.000000, 4.000000, 4.000000, 4.000000, 4.000000, 4.000000, 4.000000, 4.000000, 4.000000
111.000000, 0.000000, 4148.205078, 6640.000000, 4221.538574, 4220.000000, 4151.794922, 4171.281738, 4205.641113, 4165.641113, 4185.127930, 4200.512695, 4092.307617, 4210.256348, 4182.051270, 4194.871582, 1818.000000, 8142.000000, 8229.000000, 0.000000, 0.000000, 0.000000, 17196.000000, 880.512817, 4.000000, 4.000000, 4.000000, 4.000000, 4.000000, 4.000000, 4.000000, 4.000000, 4.000000, 4.000000, 4.000000, 4.000000, 4.000000, 4.000000, 4.000000, 4.000000
112.000000, 0.000000, 4155.897461, 6668.717773, 4220.512695, 4221.025391, 4183.589844, 4168.205078, 4195.897461, 4172.820313, 4185.641113, 4201.538574, 4096.922852, 4207.179199, 4187.692383, 4190.769043, 3507.000000, 8142.000000, 8229.000000, 0.000000, 0.000000, 0.000000, 17196.000000, 888.717957, 4.000000, 4.000000, 4.000000, 4.000000, 4.000000, 4.000000, 4.000000, 4.000000, 4.000000, 4.000000, 4.000000, 4.000000, 4.000000, 4.000000, 4.000000, 4.000000
113.000000, 0.000000, 4161.538574, 6657.948730, 4216.410156, 4221.025391, 4183.589844, 4173.333008, 4209.743652, 4185.641113, 4197.436035, 4208.205078, 4102.051270, 4211.281738, 4184.615234, 4194.358887, 2320.000000, 8172.000000, 8251.000000, 0.000000, 0.000000, 0.000000, 17196.000000, 896.410217, 4.000000, 4.000000, 4.000000, 4.000000, 4.000000, 4.000000, 4.000000, 4.000000, 4.000000, 4.000000, 4.000000, 4.000000, 4.000000, 4.000000, 4.000000, 4.000000
114.000000, 0.000000, 4161.538574, 6651.281738, 4217.436035, 4230.256348, 4174.871582, 4169.230469, 4219.487305, 4187.692383, 4203.589844, 4220.000000, 4102.563965, 4212.307617, 4187.179199, 4193.846191, 3172.000000, 8172.000000, 8251.000000, 0.000000, 0.000000, 0.000000, 17196.000000, 904.615356, 4.000000, 4.000000, 4.000000, 4.000000, 4.000000, 4.000000, 4.000000, 4.000000, 4.000000, 4.000000, 4.000000, 4.000000, 4.000000, 4.000000, 4.000000, 4.000000
115.000000, 0.000000, 4165.127930, 6711.794922, 4219.487305, 4232.307617, 4171.281738, 4169.743652, 4210.769043, 4185.641113, 4201.025391, 4221.025391, 4096.410156, 4212.307617, 4188.717773, 4191.281738, 1818.000000, 8193.000000, 8259.000000, 0.000000, 0.000000, 0.000000, 17196.000000, 912.307678, 4.000000, 4.000000, 4.000000, 4.000000, 4.000000, 4.000000, 4.000000, 4.000000, 4.000000, 4.000000, 4.000000, 4.000000, 4.000000, 4.000000, 4.000000, 4.000000
116.000000, 0.000000, 4158.974121, 6709.743652, 4207.692383, 4218.461426, 4174.358887, 4168.205078, 4201.538574, 4176.922852, 4192.820313, 4201.538574, 4083.076904, 4204.615234, 4173.333008, 4189.230469, 3507.000000, 8193.000000, 8259.000000, 0.000000, 0.000000, 0.000000, 17196.000000, 920.000000, 4.000000, 4.000000, 4.000000, 4.000000, 4.000000, 4.000000, 4.000000, 4.000000, 4.000000, 4.000000, 4.000000, 4.000000, 4.000000, 4.000000, 4.000000, 4.000000
117.000000, 0.000000, 4151.281738, 6610.256348, 4194.871582, 4216.410156, 4185.641113, 4164.615234, 4204.615234, 4167.179199, 4183.076660, 4190.256348, 4076.410156, 4193.846191, 4167.179199, 4184.615234, 2320.000000, 8216.000000, 8250.000000, 0.000000, 0.000000, 0.000000, 17196.000000, 928.205078, 4.000000, 4.000000, 4.000000, 4.000000, 4.000000, 4.000000, 4.000000, 4.000000, 4.000000, 4.000000, 4.000000, 4.000000, 4.000000, 4.000000, 4.000000, 4.000000
118.000000, 0.000000, 4160.512695, 6516.410156, 4197.948730, 4229.230469, 4195.897461, 4172.307617, 4204.102539, 4167.692383, 4181.025391, 4192.307617, 4083.589600, 4200.512695, 4183.076660, 4194.871582, 3172.000000, 8216.000000, 8250.000000, 0.000000, 0.000000, 0.000000, 17196.000000, 935.897400, 4.000000, 4.000000, 4.000000, 4.000000, 4.000000, 4.000000, 4.000000, 4.000000, 4.000000, 4.000000, 4.000000, 4.000000, 4.000000, 4.000000, 4.000000, 4.000000
119.000000, 0.000000, 4171.794922, 6428.717773, 4209.743652, 4227.179199, 4202.563965, 4174.871582, 4187.692383, 4177.436035, 4184.615234, 4196.922852, 4092.820313, 4203.589844, 4192.307617, 4201.025391, 1818.000000, 8257.000000, 8212.000000, 0.000000, 0.000000, 0.000000, 17196.000000, 944.102539, 4.000000, 4.000000, 4.000000, 4.000000, 4.000000, 4.000000, 4.000000, 4.000000, 4.000000, 4.000000, 4.000000, 4.000000, 4.000000, 4.000000, 4.000000, 4.000000
120.000000, 0.000000, 4185.641113, 6323.589355, 4218.461426, 4215.897461, 4200.512695, 4167.692383, 4171.794922, 4186.666504, 4184.615234, 4198.461426, 4100.512695, 4207.179199, 4188.717773, 4200.000000, 3507.000000, 8257.000000, 8212.000000, 0.000000, 0.000000, 0.000000, 17196.000000, 951.794861, 4.000000, 4.000000, 4.000000, 4.000000, 4.000000, 4.000000, 4.000000, 4.000000, 4.000000, 4.000000, 4.000000, 4.000000, 4.000000, 4.000000, 4.000000, 4.000000
121.000000, 0.000000, 4205.127930, 6245.641113, 4219.487305, 4216.410156, 4185.641113, 4160.000000, 4170.769043, 4184.102539, 4173.846191, 4187.692383, 4102.051270, 4211.281738, 4193.333008, 4204.102539, 2320.000000, 8277.000000, 8206.000000, 0.000000, 0.000000, 0.000000, 17196.000000, 960.000000, 4.000000, 4.000000, 4.000000, 4.000000, 4.000000, 4.000000, 4.000000, 4.000000, 4.000000, 4.000000, 4.000000, 4.000000, 4.000000, 4.000000, 4.000000, 4.000000
122.000000, 0.000000, 4226.153809, 6194.871582, 4221.538574, 4224.102539, 4183.076660, 4155.897461, 4170.769043, 4173.846191, 4165.127930, 4180.000000, 4100.512695, 4205.127930, 4194.358887, 4202.051270, 3172.000000, 8277.000000, 8206.000000, 0.000000, 0.000000, 0.000000, 17196.000000, 967.692261, 4.000000, 4.000000, 4.000000, 4.000000, 4.000000, 4.000000, 4.000000, 4.000000, 4.000000, 4.000000, 4.000000, 4.000000, 4.000000, 4.000000, 4.000000, 4.000000
123.000000, 0.000000, 4257.948730, 6176.922852, 4229.743652, 4225.127930, 4198.974121, 4155.384277, 4158.461426, 4168.717773, 4164.102539, 4181.538574, 4102.051270, 4212.307617, 4186.666504, 4209.230469, 1818.000000, 8314.000000, 8137.000000, 0.000000, 0.000000, 0.000000, 17196.000000, 975.897400, 4.000000, 4.000000, 4.000000, 4.000000, 4.000000, 4.000000, 4.000000, 4.000000, 4.000000, 4.000000, 4.000000, 4.000000, 4.000000, 4.000000, 4.000000, 4.000000
124.000000, 0.000000, 4277.948730, 6148.205078, 4235.897461, 4221.025391, 4206.153809, 4152.307617, 4151.794922, 4167.179199, 4158.461426, 4178.461426, 4102.563965, 4214.358887, 4192.307617, 4211.794922, 3507.000000, 8314.000000, 8137.000000, 0.000000, 0.000000, 0.000000, 17196.000000, 984.102539, 4.000000, 4.000000, 4.000000, 4.000000, 4.000000, 4.000000, 4.000000, 4.000000, 4.000000, 4.000000, 4.000000, 4.000000, 4.000000, 4.000000, 4.000000, 4.000000
125.000000, 0.000000, 4284.615234, 6071.281738, 4232.307617, 4222.563965, 4210.256348, 4152.307617, 4152.307617, 4168.717773, 4154.871582, 4180.000000, 4103.076660, 4207.179199, 4204.615234, 4207.179199, 2320.000000, 8344.000000, 8111.000000, 0.000000, 0.000000, 0.000000, 17196.000000, 991.794861, 4.000000, 4.000000, 4.000000, 4.000000, 4.000000, 4.000000, 4.000000, 4.000000, 4.000000, 4.000000, 4.000000, 4.000000, 4.000000, 4.000000, 4.000000, 4.000000
126.000000, 0.000000, 4300.512695, 6025.127930, 4222.051270, 4222.563965, 4208.205078, 4154.358887, 4150.769043, 4170.769043, 4155.897461, 4179.487305, 4106.666504, 4204.615234, 4198.974121, 4213.846191, 3172.000000, 8344.000000, 8111.000000, 0.000000, 0.000000, 0.000000, 17196.000000, 1000.000000, 4.000000, 4.000000, 4.000000, 4.000000, 4.000000, 4.000000, 4.000000, 4.000000, 4.000000, 4.000000, 4.000000, 4.000000, 4.000000, 4.000000, 4.000000, 4.000000
127.000000, 0.000000, 4302.563965, 6011.794922, 4217.436035, 4208.717773, 4194.358887, 4144.615234, 4151.281738, 4163.076660, 4151.281738, 4157.948730, 4101.538574, 4198.461426, 4183.076660, 4210.256348, 55.000000, 8364.000000, 8118.000000, 0.000000, 0.000000, 0.000000, 17197.000000, 7.692307, 4.000000, 4.000000, 4.000000, 4.000000, 4.000000, 4.000000, 4.000000, 4.000000, 4.000000, 4.000000, 4.000000, 4.000000, 4.000000, 4.000000, 4.000000, 4.000000
0.000000, 0.000000, 4287.179199, 5955.897461, 4221.538574, 4199.487305, 4186.666504, 4136.922852, 4155.897461, 4160.000000, 4145.641113, 4155.384277, 4088.717773, 4205.127930, 4177.948730, 4204.615234, 3510.000000, 8364.000000, 8118.000000, 0.000000, 0.000000, 0.000000, 17197.000000, 15.897435, 4.000000, 4.000000, 4.000000, 4.000000, 4.000000, 4.000000, 4.000000, 4.000000, 4.000000, 4.000000, 4.000000, 4.000000, 4.000000, 4.000000, 4.000000, 4.000000
1.000000, 0.000000, 4296.410156, 5909.743652, 4215.384277, 4213.846191, 4203.076660, 4152.307617, 4157.436035, 4170.769043, 4153.846191, 4185.641113, 4095.384521, 4210.256348, 4188.205078, 4206.153809, 3538.000000, 8415.000000, 8120.000000, 0.000000, 0.000000, 0.000000, 17197.000000, 23.589743, 4.000000, 4.000000, 4.000000, 4.000000, 4.000000, 4.000000, 4.000000, 4.000000, 4.000000, 4.000000, 4.000000, 4.000000, 4.000000, 4.000000, 4.000000, 4.000000
2.000000, 0.000000, 4307.692383, 5872.820313, 4206.153809, 4218.974121, 4221.538574, 4166.153809, 4155.384277, 4173.846191, 4165.641113, 4198.461426, 4110.256348, 4206.153809, 4195.897461, 4204.615234, 2763.000000, 8415.000000, 8120.000000, 0.000000, 0.000000, 0.000000, 17197.000000, 31.794870, 4.000000, 4.000000, 4.000000, 4.000000, 4.000000, 4.000000, 4.000000, 4.000000, 4.000000, 4.000000, 4.000000, 4.000000, 4.000000, 4.000000, 4.000000, 4.000000
3.000000, 0.000000, 4265.127930, 5780.512695, 4216.922852, 4193.846191, 4212.307617, 4158.461426, 4152.820313, 4156.922852, 4159.487305, 4183.076660, 4104.615234, 4205.127930, 4186.153809, 4200.512695, 3432.000000, 8429.000000, 8114.000000, 0.000000, 0.000000, 0.000000, 17197.000000, 39.487179, 4.000000, 4.000000, 4.000000, 4.000000, 4.000000, 4.000000, 4.000000, 4.000000, 4.000000, 4.000000, 4.000000, 4.000000, 4.000000, 4.000000, 4.000000, 4.000000
4.000000, 0.000000, 4235.384277, 5751.281738, 4222.563965, 4184.102539, 4209.743652, 4159.487305, 4152.307617, 4154.871582, 4154.358887, 4173.846191, 4097.948730, 4202.563965, 4170.769043, 4192.307617, 3555.000000, 8429.000000, 8114.000000, 0.000000, 0.000000, 0.000000, 17197.000000, 47.692307, 4.000000, 4.000000, 4.000000, 4.000000, 4.000000, 4.000000, 4.000000, 4.000000, 4.000000, 4.000000, 4.000000, 4.000000, 4.000000, 4.000000, 4.000000, 4.000000
5.000000, 0.000000, 4266.666504, 5784.102539, 4201.025391, 4196.410156, 4227.692383, 4170.769043, 4159.487305, 4172.307617, 4160.000000, 4182.051270, 4103.589844, 4210.769043, 4166.153809, 4194.358887, 3536.000000, 8436.000000, 8079.000000, 0.000000, 0.000000, 0.000000, 17197.000000, 55.897434, 4.000000, 4.000000, 4.000000, 4.000000, 4.000000, 4.000000, 4.000000, 4.000000, 4.000000, 4.000000, 4.000000, 4.000000, 4.000000, 4.000000, 4.000000, 4.000000
6.000000, 0.000000, 4264.615234, 5708.205078, 4185.641113, 4192.307617, 4231.281738, 4169.743652, 4169.743652, 4171.794922, 4158.974121, 4193.846191, 4100.512695, 4207.692383, 4170.769043, 4193.333008, 3456.000000, 8436.000000, 8079.000000, 0.000000, 0.000000, 0.000000, 17197.000000, 63.589741, 4.000000, 4.000000, 4.000000, 4.000000, 4.000000, 4.000000, 4.000000, 4.000000, 4.000000, 4.000000, 4.000000, 4.000000, 4.000000, 4.000000, 4.000000, 4.000000
7.000000, 0.000000, 4225.641113, 5605.127930, 4198.461426, 4179.487305, 4212.820313, 4169.743652, 4173.333008, 4156.922852, 4156.922852, 4193.333008, 4091.794678, 4200.000000, 4167.692383, 4187.179199, 3194.000000, 8438.000000, 8077.000000, 0.000000, 0.000000, 0.000000, 17197.000000, 71.794868, 4.000000, 4.000000, 4.000000, 4.000000, 4.000000, 4.000000, 4.000000, 4.000000, 4.000000, 4.000000, 4.000000, 4.000000, 4.000000, 4.000000, 4.000000, 4.000000
8.000000, 0.000000, 4218.974121, 5605.127930, 4204.102539, 4180.512695, 4206.666504, 4173.846191, 4169.230469, 4156.410156, 4165.641113, 4181.538574, 4093.333252, 4205.127930, 4157.436035, 4194.358887, 3539.000000, 8438.000000, 8077.000000, 0.000000, 0.000000, 0.000000, 17197.000000, 79.487175, 4.000000, 4.000000, 4.000000, 4.000000, 4.000000, 4.000000, 4.000000, 4.000000, 4.000000, 4.000000, 4.000000, 4.000000, 4.000000, 4.000000, 4.000000, 4.000000
9.000000, 0.000000, 4221.025391, 5597.948730, 4191.281738, 4178.461426, 4223.589844, 4171.281738, 4168.205078, 4176.922852, 4182.563965, 4184.615234, 4095.897217, 4201.538574, 4159.487305, 4189.743652, 3538.000000, 8422.000000, 8092.000000, 0.000000, 0.000000, 0.000000, 17197.000000, 87.179482, 4.000000, 4.000000, 4.000000, 4.000000, 4.000000, 4.000000, 4.000000, 4.000000, 4.000000, 4.000000, 4.000000, 4.000000, 4.000000, 4.000000, 4.000000, 4.000000
10.000000, 0.000000, 4208.205078, 5520.000000, 4185.641113, 4169.230469, 4230.256348, 4167.179199, 4168.717773, 4191.794922, 4189.743652, 4197.436035, 4095.384521, 4200.000000, 4167.692383, 4186.153809, 3183.000000, 8422.000000, 8092.000000, 0.000000, 0.000000, 0.000000, 17197.000000, 95.384613, 4.000000, 4.000000, 4.000000, 4.000000, 4.000000, 4.000000, 4.000000, 4.000000, 4.000000, 4.000000, 4.000000, 4.000000, 4.000000, 4.000000, 4.000000, 4.000000
11.000000, 0.000000, 4197.436035, 5485.641113, 4188.205078, 4167.692383, 4222.051270, 4170.256348, 4166.153809, 4176.922852, 4179.487305, 4198.461426, 4092.307617, 4199.487305, 4161.025391, 4192.307617, 1824.000000, 8408.000000, 8085.000000, 0.000000, 0.000000, 0.000000, 17197.000000, 103.076920, 4.000000, 4.000000, 4.000000, 4.000000, 4.000000, 4.000000, 4.000000, 4.000000, 4.000000, 4.000000, 4.000000, 4.000000, 4.000000, 4.000000, 4.000000, 4.000000
12.000000, 0.000000, 4193.333008, 5461.025391, 4177.948730, 4168.205078, 4219.487305, 4171.281738, 4169.230469, 4151.794922, 4163.589844, 4191.794922, 4085.640869, 4193.333008, 4149.230469, 4188.717773, 3504.000000, 8408.000000, 8085.000000, 0.000000, 0.000000, 0.000000, 17197.000000, 110.769226, 4.000000, 4.000000, 4.000000, 4.000000, 4.000000, 4.000000, 4.000000, 4.000000, 4.000000, 4.000000, 4.000000, 4.000000, 4.000000, 4.000000, 4.000000, 4.000000
13.000000, 0.000000, 4195.384277, 5386.153809, 4171.794922, 4166.153809, 4231.281738, 4168.205078, 4166.153809, 4157.436035, 4166.153809, 4193.846191, 4092.307617, 4195.897461, 4160.512695, 4193.846191, 2325.000000, 8397.000000, 8075.000000, 0.000000, 0.000000, 0.000000, 17197.000000, 118.974358, 4.000000, 4.000000, 4.000000, 4.000000, 4.000000, 4.000000, 4.000000, 4.000000, 4.000000, 4.000000, 4.000000, 4.000000, 4.000000, 4.000000, 4.000000, 4.000000
14.000000, 0.000000, 4200.512695, 5357.948730, 4183.076660, 4167.692383, 4237.436035, 4169.743652, 4151.794922, 4175.384277, 4182.563965, 4205.127930, 4110.769043, 4200.000000, 4173.846191, 4197.436035, 3183.000000, 8397.000000, 8075.000000, 0.000000, 0.000000, 0.000000, 17197.000000, 126.666664, 4.000000, 4.000000, 4.000000, 4.000000, 4.000000, 4.000000, 4.000000, 4.000000, 4.000000, 4.000000, 4.000000, 4.000000, 4.000000, 4.000000, 4.000000, 4.000000
15.000000, 0.000000, 4208.717773, 5381.025391, 4194.358887, 4177.436035, 4236.410156, 4177.436035, 4155.384277, 4171.794922, 4187.179199, 4210.769043, 4119.487305, 4207.179199, 4170.256348, 4200.000000, 1824.000000, 8375.000000, 8102.000000, 0.000000, 0.000000, 0.000000, 17197.000000, 134.871796, 4.000000, 4.000000, 4.000000, 4.000000, 4.000000, 4.000000, 4.000000, 4.000000, 4.000000, 4.000000, 4.000000, 4.000000, 4.000000, 4.000000, 4.000000, 4.000000
16.000000, 0.000000, 4220.000000, 5353.846191, 4192.820313, 4185.641113, 4250.256348, 4185.127930, 4171.281738, 4173.333008, 4194.871582, 4215.897461, 4122.563965, 4210.256348, 4169.743652, 4203.076660, 0.000000, 8375.000000, 8102.000000, 0.000000, 0.000000, 0.000000, 17197.000000, 142.564102, 4.000000, 4.000000, 4.000000, 4.000000, 4.000000, 4.000000, 4.000000, 4.000000, 4.000000, 4.000000, 4.000000, 4.000000, 4.000000, 4.000000, 4.000000, 4.000000
17.000000, 0.000000, 4229.230469, 5284.102539, 4191.281738, 4178.974121, 4252.307617, 4186.666504, 4175.897461, 4193.333008, 4206.153809, 4221.538574, 4119.487305, 4207.692383, 4172.307617, 4195.384277, 0.000000, 8368.000000, 8104.000000, 0.000000, 0.000000, 0.000000, 17197.000000, 150.769226, 4.000000, 4.000000, 4.000000, 4.000000, 4.000000, 4.000000, 4.000000, 4.000000, 4.000000, 4.000000, 4.000000, 4.000000, 4.000000, 4.000000, 4.000000, 4.000000
18.000000, 0.000000, 4225.127930, 5235.384277, 4188.205078, 4165.127930, 4233.333008, 4183.589844, 4182.051270, 4199.487305, 4198.974121, 4211.794922, 4106.666504, 4207.179199, 4161.538574, 4193.333008, 0.000000, 8368.000000, 8104.000000, 0.000000, 0.000000, 0.000000, 17197.000000, 158.461533, 4.000000, 4.000000, 4.000000, 4.000000, 4.000000, 4.000000, 4.000000, 4.000000, 4.000000, 4.000000, 4.000000, 4.000000, 4.000000, 4.000000, 4.000000, 4.000000
19.000000, 0.000000, 4215.897461, 5201.538574, 4179.487305, 4161.025391, 4235.897461, 4183.589844, 4185.641113, 4189.230469, 4189.230469, 4200.000000, 4104.615234, 4197.436035, 4154.871582, 4192.307617, 0.000000, 8378.000000, 8069.000000, 0.000000, 0.000000, 0.000000, 17197.000000, 166.666656, 4.000000, 4.000000, 4.000000, 4.000000, 4.000000, 4.000000, 4.000000, 4.000000, 4.000000, 4.000000, 4.000000, 4.000000, 4.000000, 4.000000, 4.000000, 4.000000
20.000000, 0.000000, 4223.589844, 5166.153809, 4176.410156, 4165.127930, 4249.743652, 4184.615234, 4181.538574, 4192.307617, 4197.948730, 4206.666504, 4110.256348, 4197.436035, 4164.615234, 4194.358887, 0.000000, 8378.000000, 8069.000000, 0.000000, 0.000000, 0.000000, 17197.000000, 174.358963, 4.000000, 4.000000, 4.000000, 4.000000, 4.000000, 4.000000, 4.000000, 4.000000, 4.000000, 4.000000, 4.000000, 4.000000, 4.000000, 4.000000, 4.000000, 4.000000
21.000000, 0.000000, 4230.769043, 5133.333008, 4181.538574, 4167.179199, 4248.205078, 4187.179199, 4191.794922, 4208.205078, 4205.127930, 4220.512695, 4108.205078, 4202.051270, 4166.666504, 4198.974121, 0.000000, 8375.000000, 8047.000000, 0.000000, 0.000000, 0.000000, 17197.000000, 182.051285, 4.000000, 4.000000, 4.000000, 4.000000, 4.000000, 4.000000, 4.000000, 4.000000, 4.000000, 4.000000, 4.000000, 4.000000, 4.000000, 4.000000, 4.000000, 4.000000
22.000000, 0.000000, 4231.794922, 5097.948730, 4186.666504, 4169.230469, 4244.102539, 4188.717773, 4197.436035, 4206.666504, 4192.307617, 4221.025391, 4115.384277, 4202.051270, 4164.102539, 4194.871582, 0.000000, 8375.000000, 8047.000000, 0.000000, 0.000000, 0.000000, 17197.000000, 190.256409, 4.000000, 4.000000, 4.000000, 4.000000, 4.000000, 4.000000, 4.000000, 4.000000, 4.000000, 4.000000, 4.000000, 4.000000, 4.000000, 4.000000, 4.000000, 4.000000
23.000000, 0.000000, 4235.897461, 5070.769043, 4187.692383, 4170.256348, 4249.743652, 4184.615234, 4184.615234, 4187.179199, 4178.974121, 4216.410156, 4122.563965, 4208.717773, 4166.666504, 4200.512695, 0.000000, 8372.000000, 8047.000000, 0.000000, 0.000000, 0.000000, 17197.000000, 198.461533, 4.000000, 4.000000, 4.000000, 4.000000, 4.000000, 4.000000, 4.000000, 4.000000, 4.000000, 4.000000, 4.000000, 4.000000, 4.000000, 4.000000, 4.000000, 4.000000
24.000000, 0.000000, 4233.846191, 5036.922852, 4185.127930, 4165.127930, 4250.769043, 4186.153809, 4184.615234, 4184.102539, 4187.179199, 4217.436035, 4115.897461, 4202.563965, 4162.563965, 4198.461426, 0.000000, 8372.000000, 8047.000000, 0.000000, 0.000000, 0.000000, 17197.000000, 206.153839, 4.000000, 4.000000, 4.000000, 4.000000, 4.000000, 4.000000, 4.000000, 4.000000, 4.000000, 4.000000, 4.000000, 4.000000, 4.000000, 4.000000, 4.000000, 4.000000
25.000000, 0.000000, 4233.333008, 4983.589844, 4186.666504, 4154.358887, 4247.179199, 4191.794922, 4193.333008, 4198.974121, 4203.589844, 4215.897461, 4113.846191, 4198.461426, 4152.820313, 4193.333008, 0.000000, 8378.000000, 8048.000000, 0.000000, 0.000000, 0.000000, 17197.000000, 214.358963, 4.000000, 4.000000, 4.000000, 4.000000, 4.000000, 4.000000, 4.000000, 4.000000, 4.000000, 4.000000, 4.000000, 4.000000, 4.000000, 4.000000, 4.000000, 4.000000
26.000000, 0.000000, 4237.436035, 4939.486816, 4190.769043, 4153.333008, 4252.820313, 4189.743652, 4189.230469, 4201.025391, 4205.641113, 4216.410156, 4117.436035, 4203.076660, 4154.358887, 4197.948730, 0.000000, 8378.000000, 8048.000000, 0.000000, 0.000000, 0.000000, 17197.000000, 222.051270, 4.000000, 4.000000, 4.000000, 4.000000, 4.000000, 4.000000, 4.000000, 4.000000, 4.000000, 4.000000, 4.000000, 4.000000, 4.000000, 4.000000, 4.000000, 4.000000
27.000000, 0.000000, 4241.538574, 4912.820313, 4189.230469, 4158.974121, 4261.025391, 4191.281738, 4183.076660, 4187.692383, 4196.410156, 4221.025391, 4117.436035, 4199.487305, 4157.948730, 4193.333008, 0.000000, 8382.000000, 8043.000000, 0.000000, 0.000000, 0.000000, 17197.000000, 230.256409, 4.000000, 4.000000, 4.000000, 4.000000, 4.000000, 4.000000, 4.000000, 4.000000, 4.000000, 4.000000, 4.000000, 4.000000, 4.000000, 4.000000, 4.000000, 4.000000
28.000000, 0.000000, 4244.615234, 4878.461426, 4185.641113, 4156.922852, 4262.051270, 4199.487305, 4184.615234, 4181.025391, 4188.205078, 4218.461426, 4117.948730, 4203.076660, 4156.410156, 4194.871582, 0.000000, 8382.000000, 8043.000000, 0.000000, 0.000000, 0.000000, 17197.000000, 237.948715, 4.000000, 4.000000, 4.000000, 4.000000, 4.000000, 4.000000, 4.000000, 4.000000, 4.000000, 4.000000, 4.000000, 4.000000, 4.000000, 4.000000, 4.000000, 4.000000
29.000000, 0.000000, 4242.563965, 4827.692383, 4189.743652, 4154.358887, 4263.076660, 4202.051270, 4192.307617, 4193.846191, 4201.538574, 4215.897461, 4124.615234, 4204.102539, 4155.384277, 4197.948730, 0.000000, 8384.000000, 8046.000000, 0.000000, 0.000000, 0.000000, 17197.000000, 246.153839, 4.000000, 4.000000, 4.000000, 4.000000, 4.000000, 4.000000, 4.000000, 4.000000, 4.000000, 4.000000, 4.000000, 4.000000, 4.000000, 4.000000, 4.000000, 4.000000
30.000000, 0.000000, 4246.666504, 4783.076660, 4193.846191, 4160.000000, 4268.205078, 4202.563965, 4198.974121, 4206.153809, 4213.846191, 4227.179199, 4131.794922, 4205.127930, 4158.974121, 4199.487305, 0.000000, 8384.000000, 8046.000000, 0.000000, 0.000000, 0.000000, 17197.000000, 253.846146, 4.000000, 4.000000, 4.000000, 4.000000, 4.000000, 4.000000, 4.000000, 4.000000, 4.000000, 4.000000, 4.000000, 4.000000, 4.000000, 4.000000, 4.000000, 4.000000
31.000000, 0.000000, 4247.179199, 4733.846191, 4185.127930, 4158.461426, 4272.820313, 4190.256348, 4191.281738, 4189.743652, 4151.794922, 4236.410156, 4130.769043, 4206.666504, 4157.436035, 4200.512695, 0.000000, 8384.000000, 8037.000000, 0.000000, 0.000000, 0.000000, 17197.000000, 262.051270, 4.000000, 4.000000, 4.000000, 4.000000, 4.000000, 4.000000, 4.000000, 4.000000, 4.000000, 4.000000, 4.000000, 4.000000, 4.000000, 4.000000, 4.000000, 4.000000
32.000000, 0.000000, 4235.897461, 4654.871582, 4170.256348, 4143.076660, 4269.743652, 4167.179199, 4181.538574, 4171.281738, 4097.436035, 4225.641113, 4118.461426, 4195.384277, 4143.076660, 4192.820313, 0.000000, 8384.000000, 8037.000000, 0.000000, 0.000000, 0.000000, 17197.000000, 269.743591, 4.000000, 4.000000, 4.000000, 4.000000, 4.000000, 4.000000, 4.000000, 4.000000, 4.000000, 4.000000, 4.000000, 4.000000, 4.000000, 4.000000, 4.000000, 4.000000
33.000000, 0.000000, 4235.384277, 4594.871582, 4170.256348, 4139.487305, 4263.589844, 4171.281738, 4182.051270, 4188.717773, 4160.512695, 4213.333008, 4111.794922, 4196.922852, 4137.948730, 4196.410156, 0.000000, 8388.000000, 8007.000000, 0.000000, 0.000000, 0.000000, 17197.000000, 277.948700, 4.000000, 4.000000, 4.000000, 4.000000, 4.000000, 4.000000, 4.000000, 4.000000, 4.000000, 4.000000, 4.000000, 4.000000, 4.000000, 4.000000, 4.000000, 4.000000
34.000000, 0.000000, 4249.230469, 4578.974121, 4183.589844, 4153.846191, 4269.743652, 4199.487305, 4185.641113, 4209.743652, 4228.717773, 4216.410156, 4127.692383, 4209.743652, 4154.871582, 4200.000000, 0.000000, 8388.000000, 8007.000000, 0.000000, 0.000000, 0.000000, 17197.000000, 286.153839, 4.000000, 4.000000, 4.000000, 4.000000, 4.000000, 4.000000, 4.000000, 4.000000, 4.000000, 4.000000, 4.000000, 4.000000, 4.000000, 4.000000, 4.000000, 4.000000
35.000000, 0.000000, 4257.436035, 4541.538574, 4190.256348, 4159.487305, 4283.589844, 4210.769043, 4191.281738, 4204.615234, 4215.897461, 4221.538574, 4141.025391, 4217.436035, 4162.563965, 4199.487305, 0.000000, 8385.000000, 8001.000000, 0.000000, 0.000000, 0.000000, 17197.000000, 293.846161, 4.000000, 4.000000, 4.000000, 4.000000, 4.000000, 4.000000, 4.000000, 4.000000, 4.000000, 4.000000, 4.000000, 4.000000, 4.000000, 4.000000, 4.000000, 4.000000
36.000000, 0.000000, 4254.358887, 4468.205078, 4187.179199, 4152.820313, 4282.563965, 4208.717773, 4193.846191, 4198.974121, 4205.127930, 4217.436035, 4134.358887, 4217.948730, 4157.948730, 4206.153809, 0.000000, 8385.000000, 8001.000000, 0.000000, 0.000000, 0.000000, 17197.000000, 302.051270, 4.000000, 4.000000, 4.000000, 4.000000, 4.000000, 4.000000, 4.000000, 4.000000, 4.000000, 4.000000, 4.000000, 4.000000, 4.000000, 4.000000, 4.000000, 4.000000
37.000000, 0.000000, 4256.922852, 4419.487305, 4186.666504, 4150.256348, 4284.615234, 4208.717773, 4186.666504, 4200.512695, 4218.461426, 4221.025391, 4127.692383, 4212.820313, 4158.461426, 4202.051270, 0.000000, 8388.000000, 7998.000000, 0.000000, 0.000000, 0.000000, 17197.000000, 309.743591, 4.000000, 4.000000, 4.000000, 4.000000, 4.000000, 4.000000, 4.000000, 4.000000, 4.000000, 4.000000, 4.000000, 4.000000, 4.000000, 4.000000, 4.000000, 4.000000
38.000000, 0.000000, 4260.512695, 4382.563965, 4188.717773, 4146.666504, 4291.281738, 4205.641113, 4185.127930, 4196.922852, 4210.256348, 4226.666504, 4125.641113, 4213.333008, 4157.436035, 4199.487305, 0.000000, 8388.000000, 7998.000000, 0.000000, 0.000000, 0.000000, 17197.000000, 317.948700, 4.000000, 4.000000, 4.000000, 4.000000, 4.000000, 4.000000, 4.000000, 4.000000, 4.000000, 4.000000, 4.000000, 4.000000, 4.000000, 4.000000, 4.000000, 4.000000
39.000000, 0.000000, 4253.846191, 4318.461426, 4185.127930, 4134.358887, 4278.974121, 4203.589844, 4190.769043, 4193.333008, 4208.717773, 4225.641113, 4123.589844, 4206.666504, 4153.846191, 4197.948730, 0.000000, 8388.000000, 7982.000000, 0.000000, 0.000000, 0.000000, 17197.000000, 325.641022, 4.000000, 4.000000, 4.000000, 4.000000, 4.000000, 4.000000, 4.000000, 4.000000, 4.000000, 4.000000, 4.000000, 4.000000, 4.000000, 4.000000, 4.000000, 4.000000
40.000000, 0.000000, 4253.333008, 4260.512695, 4179.487305, 4125.127930, 4267.179199, 4203.076660, 4190.769043, 4203.076660, 4224.615234, 4234.358887, 4128.205078, 4207.692383, 4156.922852, 4195.897461, 0.000000, 8388.000000, 7982.000000, 0.000000, 0.000000, 0.000000, 17197.000000, 333.846161, 4.000000, 4.000000, 4.000000, 4.000000, 4.000000, 4.000000, 4.000000, 4.000000, 4.000000, 4.000000, 4.000000, 4.000000, 4.000000, 4.000000, 4.000000, 4.000000
41.000000, 0.000000, 4257.948730, 4225.641113, 4177.948730, 4121.025391, 4276.922852, 4197.948730, 4194.358887, 4217.436035, 4226.153809, 4240.512695, 4132.307617, 4220.000000, 4155.897461, 4201.538574, 0.000000, 8390.000000, 7984.000000, 0.000000, 0.000000, 0.000000, 17197.000000, 342.051270, 4.000000, 4.000000, 4.000000, 4.000000, 4.000000, 4.000000, 4.000000, 4.000000, 4.000000, 4.000000, 4.000000, 4.000000, 4.000000, 4.000000, 4.000000, 4.000000
42.000000, 0.000000, 4259.487305, 4189.743652, 4182.051270, 4121.025391, 4282.563965, 4198.974121, 4200.000000, 4217.436035, 4217.436035, 4235.384277, 4128.205078, 4212.820313, 4154.358887, 4196.410156, 0.000000, 8390.000000, 7984.000000, 0.000000, 0.000000, 0.000000, 17197.000000, 349.743591, 4.000000, 4.000000, 4.000000, 4.000000, 4.000000, 4.000000, 4.000000, 4.000000, 4.000000, 4.000000, 4.000000, 4.000000, 4.000000, 4.000000, 4.000000, 4.000000
43.000000, 0.000000, 4263.076660, 4145.641113, 4187.179199, 4123.589844, 4278.461426, 4202.051270, 4198.974121, 4207.179199, 4207.692383, 4230.256348, 4122.563965, 4209.743652, 4152.307617, 4196.410156, 0.000000, 8390.000000, 8010.000000, 0.000000, 0.000000, 0.000000, 17197.000000, 357.948700, 4.000000, 4.000000, 4.000000, 4.000000, 4.000000, 4.000000, 4.000000, 4.000000, 4.000000, 4.000000, 4.000000, 4.000000, 4.000000, 4.000000, 4.000000, 4.000000
44.000000, 0.000000, 4258.974121, 4097.436035, 4182.563965, 4119.487305, 4278.974121, 4185.641113, 4202.051270, 4200.512695, 4205.641113, 4219.487305, 4112.820313, 4208.205078, 4141.538574, 4196.922852, 0.000000, 8390.000000, 8010.000000, 0.000000, 0.000000, 0.000000, 17197.000000, 365.641022, 4.000000, 4.000000, 4.000000, 4.000000, 4.000000, 4.000000, 4.000000, 4.000000, 4.000000, 4.000000, 4.000000, 4.000000, 4.000000, 4.000000, 4.000000, 4.000000
45.000000, 0.000000, 4251.794922, 4050.769043, 4170.769043, 4107.179199, 4281.025391, 4166.153809, 4197.436035, 4193.333008, 4187.692383, 4211.794922, 4104.615234, 4198.461426, 4135.897461, 4187.179199, 0.000000, 8391.000000, 8009.000000, 0.000000, 0.000000, 0.000000, 17197.000000, 373.846130, 4.000000, 4.000000, 4.000000, 4.000000, 4.000000, 4.000000, 4.000000, 4.000000, 4.000000, 4.000000, 4.000000, 4.000000, 4.000000, 4.000000, 4.000000, 4.000000
46.000000, 0.000000, 4259.487305, 4018.974365, 4170.256348, 4103.076660, 4281.025391, 4190.256348, 4186.153809, 4185.127930, 4172.307617, 4225.641113, 4116.922852, 4204.102539, 4147.692383, 4196.922852, 0.000000, 8391.000000, 8009.000000, 0.000000, 0.000000, 0.000000, 17197.000000, 381.538452, 4.000000, 4.000000, 4.000000, 4.000000, 4.000000, 4.000000, 4.000000, 4.000000, 4.000000, 4.000000, 4.000000, 4.000000, 4.000000, 4.000000, 4.000000, 4.000000
47.000000, 0.000000, 4267.692383, 3996.410156, 4175.384277, 4111.281738, 4285.127930, 4215.897461, 4191.281738, 4189.743652, 4203.076660, 4238.461426, 4129.230469, 4205.127930, 4154.358887, 4201.538574, 0.000000, 8390.000000, 8010.000000, 0.000000, 0.000000, 0.000000, 17197.000000, 389.743591, 4.000000, 4.000000, 4.000000, 4.000000, 4.000000, 4.000000, 4.000000, 4.000000, 4.000000, 4.000000, 4.000000, 4.000000, 4.000000, 4.000000, 4.000000, 4.000000
48.000000, 0.000000, 4257.436035, 3956.923096, 4165.641113, 4104.615234, 4287.692383, 4172.307617, 4194.871582, 4183.589844, 4221.025391, 4223.076660, 4110.769043, 4195.897461, 4140.512695, 4193.333008, 0.000000, 8390.000000, 8010.000000, 0.000000, 0.000000, 0.000000, 17197.000000, 397.435883, 4.000000, 4.000000, 4.000000, 4.000000, 4.000000, 4.000000, 4.000000, 4.000000, 4.000000, 4.000000, 4.000000, 4.000000, 4.000000, 4.000000, 4.000000, 4.000000
49.000000, 0.000000, 4250.769043, 3916.410156, 4160.000000, 4095.897217, 4286.666504, 4148.717773, 4187.179199, 4171.794922, 4197.436035, 4220.000000, 4104.102539, 4193.846191, 4141.025391, 4195.897461, 0.000000, 8413.000000, 8002.000000, 0.000000, 0.000000, 0.000000, 17197.000000, 405.641022, 4.000000, 4.000000, 4.000000, 4.000000, 4.000000, 4.000000, 4.000000, 4.000000, 4.000000, 4.000000, 4.000000, 4.000000, 4.000000, 4.000000, 4.000000, 4.000000
50.000000, 0.000000, 4259.487305, 3892.307617, 4171.794922, 4102.563965, 4281.538574, 4200.512695, 4195.384277, 4188.205078, 4195.384277, 4236.410156, 4128.205078, 4202.051270, 4155.897461, 4200.512695, 0.000000, 8413.000000, 8002.000000, 0.000000, 0.000000, 0.000000, 17197.000000, 413.846130, 4.000000, 4.000000, 4.000000, 4.000000, 4.000000, 4.000000, 4.000000, 4.000000, 4.000000, 4.000000, 4.000000, 4.000000, 4.000000, 4.000000, 4.000000, 4.000000
51.000000, 0.000000, 4265.641113, 3877.435791, 4175.384277, 4111.794922, 4276.922852, 4230.256348, 4206.666504, 4202.051270, 4214.871582, 4229.743652, 4136.410156, 4213.846191, 4155.897461, 4205.127930, 0.000000, 8429.000000, 7995.000000, 0.000000, 0.000000, 0.000000, 17197.000000, 421.538452, 4.000000, 4.000000, 4.000000, 4.000000, 4.000000, 4.000000, 4.000000, 4.000000, 4.000000, 4.000000, 4.000000, 4.000000, 4.000000, 4.000000, 4.000000, 4.000000
52.000000, 0.000000, 4271.281738, 3865.128174, 4171.281738, 4116.922852, 4285.641113, 4215.897461, 4196.922852, 4191.281738, 4221.025391, 4227.692383, 4132.820313, 4213.846191, 4162.563965, 4204.102539, 0.000000, 8429.000000, 7995.000000, 0.000000, 0.000000, 0.000000, 17197.000000, 429.743591, 4.000000, 4.000000, 4.000000, 4.000000, 4.000000, 4.000000, 4.000000, 4.000000, 4.000000, 4.000000, 4.000000, 4.000000, 4.000000, 4.000000, 4.000000, 4.000000
53.000000, 0.000000, 4269.743652, 3817.435791, 4178.974121, 4107.179199, 4279.487305, 4215.897461, 4197.948730, 4192.307617, 4226.666504, 4248.717773, 4138.974121, 4216.922852, 4169.230469, 4204.615234, 0.000000, 8454.000000, 7977.000000, 0.000000, 0.000000, 0.000000, 17197.000000, 437.435883, 4.000000, 4.000000, 4.000000, 4.000000, 4.000000, 4.000000, 4.000000, 4.000000, 4.000000, 4.000000, 4.000000, 4.000000, 4.000000, 4.000000, 4.000000, 4.000000
54.000000, 0.000000, 4260.000000, 3762.051270, 4183.589844, 4093.845947, 4265.641113, 4221.538574, 4214.871582, 4206.153809, 4233.846191, 4249.230469, 4136.922852, 4216.922852, 4158.974121, 4203.589844, 0.000000, 8454.000000, 7977.000000, 0.000000, 0.000000, 0.000000, 17197.000000, 445.641022, 4.000000, 4.000000, 4.000000, 4.000000, 4.000000, 4.000000, 4.000000, 4.000000, 4.000000, 4.000000, 4.000000, 4.000000, 4.000000, 4.000000, 4.000000, 4.000000
55.000000, 0.000000, 4270.769043, 3770.256348, 4183.589844, 4105.127930, 4283.076660, 4206.666504, 4209.743652, 4205.127930, 4233.333008, 4238.461426, 4134.358887, 4210.769043, 4155.897461, 4199.487305, 0.000000, 8467.000000, 7974.000000, 0.000000, 0.000000, 0.000000, 17197.000000, 453.333313, 4.000000, 4.000000, 4.000000, 4.000000, 4.000000, 4.000000, 4.000000, 4.000000, 4.000000, 4.000000, 4.000000, 4.000000, 4.000000, 4.000000, 4.000000, 4.000000
56.000000, 0.000000, 4299.487305, 3797.435791, 4188.717773, 4124.615234, 4296.410156, 4187.692383, 4197.948730, 4200.512695, 4228.717773, 4244.102539, 4144.615234, 4219.487305, 4168.717773, 4209.743652, 0.000000, 8467.000000, 7974.000000, 0.000000, 0.000000, 0.000000, 17197.000000, 461.538452, 4.000000, 4.000000, 4.000000, 4.000000, 4.000000, 4.000000, 4.000000, 4.000000, 4.000000, 4.000000, 4.000000, 4.000000, 4.000000, 4.000000, 4.000000, 4.000000
57.000000, 0.000000, 4313.333008, 3786.153809, 4185.127930, 4127.179199, 4278.461426, 4183.589844, 4197.948730, 4198.974121, 4220.000000, 4243.076660, 4148.205078, 4218.461426, 4170.769043, 4211.794922, 0.000000, 8478.000000, 7993.000000, 0.000000, 0.000000, 0.000000, 17197.000000, 469.743591, 4.000000, 4.000000, 4.000000, 4.000000, 4.000000, 4.000000, 4.000000, 4.000000, 4.000000, 4.000000, 4.000000, 4.000000, 4.000000, 4.000000, 4.000000, 4.000000
58.000000, 0.000000, 4327.692383, 3761.538330, 4180.000000, 4131.281738, 4274.871582, 4198.461426, 4196.922852, 4192.307617, 4214.871582, 4232.820313, 4140.000000, 4214.871582, 4165.641113, 4209.230469, 0.000000, 8478.000000, 7993.000000, 0.000000, 0.000000, 0.000000, 17197.000000, 477.435883, 4.000000, 4.000000, 4.000000, 4.000000, 4.000000, 4.000000, 4.000000, 4.000000, 4.000000, 4.000000, 4.000000, 4.000000, 4.000000, 4.000000, 4.000000, 4.000000
59.000000, 0.000000, 4345.127930, 3763.076904, 4189.743652, 4141.538574, 4281.025391, 4193.333008, 4186.666504, 4185.127930, 4210.769043, 4222.051270, 4129.743652, 4212.307617, 4158.461426, 4214.871582, 0.000000, 8505.000000, 8018.000000, 0.000000, 0.000000, 0.000000, 17197.000000, 485.641022, 4.000000, 4.000000, 4.000000, 4.000000, 4.000000, 4.000000, 4.000000, 4.000000, 4.000000, 4.000000, 4.000000, 4.000000, 4.000000, 4.000000, 4.000000, 4.000000
60.000000, 0.000000, 4357.435547, 3800.000000, 4201.025391, 4148.717773, 4265.641113, 4171.794922, 4181.538574, 4182.051270, 4203.589844, 4207.692383, 4127.179199, 4205.127930, 4151.794922, 4214.358887, 0.000000, 8505.000000, 8018.000000, 0.000000, 0.000000, 0.000000, 17197.000000, 493.333313, 4.000000, 4.000000, 4.000000, 4.000000, 4.000000, 4.000000, 4.000000, 4.000000, 4.000000, 4.000000, 4.000000, 4.000000, 4.000000, 4.000000, 4.000000, 4.000000
61.000000, 0.000000, 4374.358887, 3803.589600, 4205.641113, 4165.127930, 4270.769043, 4183.589844, 4188.205078, 4187.692383, 4201.025391, 4207.179199, 4136.410156, 4217.436035, 4156.410156, 4220.512695, 0.000000, 8516.000000, 8051.000000, 0.000000, 0.000000, 0.000000, 17197.000000, 501.538452, 4.000000, 4.000000, 4.000000, 4.000000, 4.000000, 4.000000, 4.000000, 4.000000, 4.000000, 4.000000, 4.000000, 4.000000, 4.000000, 4.000000, 4.000000, 4.000000
62.000000, 0.000000, 4379.487305, 3761.538330, 4204.615234, 4183.589844, 4300.000000, 4193.333008, 4179.487305, 4178.974121, 4191.794922, 4213.333008, 4130.256348, 4215.897461, 4154.871582, 4215.384277, 0.000000, 8516.000000, 8051.000000, 0.000000, 0.000000, 0.000000, 17197.000000, 509.230743, 4.000000, 4.000000, 4.000000, 4.000000, 4.000000, 4.000000, 4.000000, 4.000000, 4.000000, 4.000000, 4.000000, 4.000000, 4.000000, 4.000000, 4.000000, 4.000000
63.000000, 0.000000, 4374.871582, 3783.589600, 4201.538574, 4188.717773, 4303.589844, 4182.051270, 4172.820313, 4161.025391, 4178.461426, 4206.153809, 4115.384277, 4203.589844, 4147.692383, 4203.589844, 0.000000, 8526.000000, 8071.000000, 0.000000, 0.000000, 0.000000, 17197.000000, 517.435913, 4.000000, 4.000000, 4.000000, 4.000000, 4.000000, 4.000000, 4.000000, 4.000000, 4.000000, 4.000000, 4.000000, 4.000000, 4.000000, 4.000000, 4.000000, 4.000000
64.000000, 0.000000, 4362.051270, 3811.281982, 4201.538574, 4182.563965, 4287.179199, 4194.358887, 4186.666504, 4162.563965, 4172.307617, 4193.333008, 4110.769043, 4203.076660, 4144.615234, 4203.589844, 3504.000000, 8526.000000, 8071.000000, 0.000000, 0.000000, 0.000000, 17197.000000, 525.128174, 4.000000, 4.000000, 4.000000, 4.000000, 4.000000, 4.000000, 4.000000, 4.000000, 4.000000, 4.000000, 4.000000, 4.000000, 4.000000, 4.000000, 4.000000, 4.000000
65.000000, 0.000000, 4325.127930, 3733.333252, 4192.820313, 4167.692383, 4281.538574, 4209.230469, 4190.256348, 4155.897461, 4155.384277, 4176.922852, 4093.845947, 4189.230469, 4117.948730, 4191.281738, 3700.000000, 8528.000000, 8080.000000, 0.000000, 0.000000, 0.000000, 17197.000000, 532.820496, 4.000000, 4.000000, 4.000000, 4.000000, 4.000000, 4.000000, 4.000000, 4.000000, 4.000000, 4.000000, 4.000000, 4.000000, 4.000000, 4.000000, 4.000000, 4.000000
66.000000, 0.000000, 4302.051270, 3658.461426, 4177.436035, 4155.384277, 4283.076660, 4201.538574, 4180.000000, 4151.281738, 4147.179199, 4169.743652, 4081.538330, 4181.538574, 4103.076660, 4189.230469, 2754.000000, 8528.000000, 8080.000000, 0.000000, 0.000000, 0.000000, 17197.000000, 541.025635, 4.000000, 4.000000, 4.000000, 4.000000, 4.000000, 4.000000, 4.000000, 4.000000, 4.000000, 4.000000, 4.000000, 4.000000, 4.000000, 4.000000, 4.000000, 4.000000
67.000000, 0.000000, 4304.102539, 3654.871826, 4170.769043, 4149.743652, 4283.076660, 4198.974121, 4188.717773, 4175.384277, 4174.358887, 4188.205078, 4100.512695, 4186.153809, 4130.769043, 4194.358887, 3574.000000, 8534.000000, 8083.000000, 0.000000, 0.000000, 0.000000, 17197.000000, 549.230774, 4.000000, 4.000000, 4.000000, 4.000000, 4.000000, 4.000000, 4.000000, 4.000000, 4.000000, 4.000000, 4.000000, 4.000000, 4.000000, 4.000000, 4.000000, 4.000000
68.000000, 0.000000, 4298.461426, 3650.256348, 4170.769043, 4148.205078, 4286.153809, 4203.589844, 4204.615234, 4182.563965, 4194.358887, 4196.410156, 4114.358887, 4190.769043, 4149.743652, 4195.384277, 3519.000000, 8534.000000, 8083.000000, 0.000000, 0.000000, 0.000000, 17197.000000, 556.923035, 4.000000, 4.000000, 4.000000, 4.000000, 4.000000, 4.000000, 4.000000, 4.000000, 4.000000, 4.000000, 4.000000, 4.000000, 4.000000, 4.000000, 4.000000, 4.000000
69.000000, 0.000000, 4282.051270, 3625.640869, 4176.922852, 4152.307617, 4286.153809, 4200.512695, 4200.512695, 4169.743652, 4193.846191, 4190.769043, 4109.743652, 4191.281738, 4141.025391, 4200.000000, 3540.000000, 8537.000000, 8083.000000, 0.000000, 0.000000, 0.000000, 17197.000000, 565.128174, 4.000000, 4.000000, 4.000000, 4.000000, 4.000000, 4.000000, 4.000000, 4.000000, 4.000000, 4.000000, 4.000000, 4.000000, 4.000000, 4.000000, 4.000000, 4.000000
70.000000, 0.000000, 4268.205078, 3598.461426, 4183.589844, 4152.820313, 4272.820313, 4195.897461, 4197.948730, 4187.692383, 4199.487305, 4198.974121, 4113.333008, 4187.179199, 4135.897461, 4193.333008, 3476.000000, 8537.000000, 8083.000000, 0.000000, 0.000000, 0.000000, 17197.000000, 572.820496, 4.000000, 4.000000, 4.000000, 4.000000, 4.000000, 4.000000, 4.000000, 4.000000, 4.000000, 4.000000, 4.000000, 4.000000, 4.000000, 4.000000, 4.000000, 4.000000
71.000000, 0.000000, 4260.000000, 3573.845947, 4179.487305, 4145.127930, 4268.205078, 4194.358887, 4196.922852, 4205.127930, 4198.461426, 4202.563965, 4114.358887, 4190.769043, 4138.461426, 4194.358887, 3383.000000, 8540.000000, 8080.000000, 0.000000, 0.000000, 0.000000, 17197.000000, 581.025635, 4.000000, 4.000000, 4.000000, 4.000000, 4.000000, 4.000000, 4.000000, 4.000000, 4.000000, 4.000000, 4.000000, 4.000000, 4.000000, 4.000000, 4.000000, 4.000000
72.000000, 0.000000, 4247.692383, 3558.461426, 4171.281738, 4137.948730, 4281.025391, 4199.487305, 4184.615234, 4190.256348, 4188.717773, 4199.487305, 4109.743652, 4189.743652, 4142.051270, 4197.948730, 3532.000000, 8540.000000, 8080.000000, 0.000000, 0.000000, 0.000000, 17197.000000, 588.717957, 4.000000, 4.000000, 4.000000, 4.000000, 4.000000, 4.000000, 4.000000, 4.000000, 4.000000, 4.000000, 4.000000, 4.000000, 4.000000, 4.000000, 4.000000, 4.000000
73.000000, 0.000000, 4225.641113, 3529.230713, 4169.230469, 4133.333008, 4282.051270, 4206.153809, 4180.512695, 4178.974121, 4184.615234, 4201.025391, 4105.641113, 4182.563965, 4140.512695, 4190.769043, 3537.000000, 8554.000000, 8111.000000, 0.000000, 0.000000, 0.000000, 17197.000000, 596.923035, 4.000000, 4.000000, 4.000000, 4.000000, 4.000000, 4.000000, 4.000000, 4.000000, 4.000000, 4.000000, 4.000000, 4.000000, 4.000000, 4.000000, 4.000000, 4.000000
74.000000, 0.000000, 4213.333008, 3500.512695, 4169.230469, 4126.666504, 4273.846191, 4202.563965, 4184.615234, 4180.000000, 4188.717773, 4193.846191, 4105.127930, 4182.563965, 4136.922852, 4193.333008, 3406.000000, 8554.000000, 8111.000000, 0.000000, 0.000000, 0.000000, 17197.000000, 604.615356, 4.000000, 4.000000, 4.000000, 4.000000, 4.000000, 4.000000, 4.000000, 4.000000, 4.000000, 4.000000, 4.000000, 4.000000, 4.000000, 4.000000, 4.000000, 4.000000
75.000000, 0.000000, 4214.871582, 3494.358887, 4171.794922, 4125.641113, 4269.743652, 4198.461426, 4181.025391, 4182.051270, 4199.487305, 4193.846191, 4109.743652, 4185.127930, 4140.000000, 4195.384277, 1818.000000, 8563.000000, 8124.000000, 0.000000, 0.000000, 0.000000, 17197.000000, 612.820496, 4.000000, 4.000000, 4.000000, 4.000000, 4.000000, 4.000000, 4.000000, 4.000000, 4.000000, 4.000000, 4.000000, 4.000000, 4.000000, 4.000000, 4.000000, 4.000000
76.000000, 0.000000, 4213.333008, 3483.589600, 4173.333008, 4125.127930, 4262.563965, 4201.025391, 4189.743652, 4191.794922, 4201.538574, 4205.641113, 4110.256348, 4190.769043, 4143.589844, 4195.897461, 3498.000000, 8563.000000, 8124.000000, 0.000000, 0.000000, 0.000000, 17197.000000, 621.025635, 4.000000, 4.000000, 4.000000, 4.000000, 4.000000, 4.000000, 4.000000, 4.000000, 4.000000, 4.000000, 4.000000, 4.000000, 4.000000, 4.000000, 4.000000, 4.000000
77.000000, 0.000000, 4202.051270, 3473.333252, 4167.692383, 4125.641113, 4266.666504, 4200.512695, 4208.205078, 4195.897461, 4198.461426, 4210.769043, 4109.743652, 4185.641113, 4145.641113, 4195.897461, 2316.000000, 8555.000000, 8137.000000, 0.000000, 0.000000, 0.000000, 17197.000000, 628.717957, 4.000000, 4.000000, 4.000000, 4.000000, 4.000000, 4.000000, 4.000000, 4.000000, 4.000000, 4.000000, 4.000000, 4.000000, 4.000000, 4.000000, 4.000000, 4.000000
78.000000, 0.000000, 4200.000000, 3471.794678, 4168.717773, 4136.922852, 4282.051270, 4205.127930, 4206.666504, 4202.563965, 4209.230469, 4221.538574, 4125.127930, 4184.102539, 4154.871582, 4198.974121, 3406.000000, 8555.000000, 8137.000000, 0.000000, 0.000000, 0.000000, 17197.000000, 636.923035, 4.000000, 4.000000, 4.000000, 4.000000, 4.000000, 4.000000, 4.000000, 4.000000, 4.000000, 4.000000, 4.000000, 4.000000, 4.000000, 4.000000, 4.000000, 4.000000
79.000000, 0.000000, 4201.538574, 3464.102539, 4175.384277, 4139.487305, 4282.563965, 4211.281738, 4198.974121, 4218.461426, 4221.538574, 4232.820313, 4137.436035, 4197.948730, 4159.487305, 4205.641113, 1818.000000, 8548.000000, 8149.000000, 0.000000, 0.000000, 0.000000, 17197.000000, 644.615356, 4.000000, 4.000000, 4.000000, 4.000000, 4.000000, 4.000000, 4.000000, 4.000000, 4.000000, 4.000000, 4.000000, 4.000000, 4.000000, 4.000000, 4.000000, 4.000000
80.000000, 0.000000, 4191.794922, 3445.128174, 4172.820313, 4126.666504, 4271.281738, 4203.589844, 4202.563965, 4218.974121, 4219.487305, 4224.615234, 4131.281738, 4192.307617, 4153.846191, 4195.897461, 3498.000000, 8548.000000, 8149.000000, 0.000000, 0.000000, 0.000000, 17197.000000, 652.307678, 4.000000, 4.000000, 4.000000, 4.000000, 4.000000, 4.000000, 4.000000, 4.000000, 4.000000, 4.000000, 4.000000, 4.000000, 4.000000, 4.000000, 4.000000, 4.000000
81.000000, 0.000000, 4186.153809, 3427.692139, 4169.743652, 4120.512695, 4266.153809, 4194.871582, 4208.205078, 4206.153809, 4213.846191, 4211.281738, 4125.127930, 4185.127930, 4148.205078, 4193.333008, 2316.000000, 8541.000000, 8164.000000, 0.000000, 0.000000, 0.000000, 17197.000000, 660.000000, 4.000000, 4.000000, 4.000000, 4.000000, 4.000000, 4.000000, 4.000000, 4.000000, 4.000000, 4.000000, 4.000000, 4.000000, 4.000000, 4.000000, 4.000000, 4.000000
82.000000, 0.000000, 4182.051270, 3412.820313, 4170.769043, 4124.615234, 4263.076660, 4208.205078, 4216.922852, 4206.153809, 4215.384277, 4208.717773, 4124.615234, 4183.076660, 4145.127930, 4194.871582, 3406.000000, 8541.000000, 8164.000000, 0.000000, 0.000000, 0.000000, 17197.000000, 668.205139, 4.000000, 4.000000, 4.000000, 4.000000, 4.000000, 4.000000, 4.000000, 4.000000, 4.000000, 4.000000, 4.000000, 4.000000, 4.000000, 4.000000, 4.000000, 4.000000
83.000000, 0.000000, 4177.436035, 3395.384521, 4170.256348, 4123.589844, 4261.538574, 4221.025391, 4224.102539, 4221.025391, 4222.563965, 4204.102539, 4122.051270, 4178.461426, 4142.051270, 4189.230469, 1818.000000, 8531.000000, 8177.000000, 0.000000, 0.000000, 0.000000, 17197.000000, 675.897400, 4.000000, 4.000000, 4.000000, 4.000000, 4.000000, 4.000000, 4.000000, 4.000000, 4.000000, 4.000000, 4.000000, 4.000000, 4.000000, 4.000000, 4.000000, 4.000000
84.000000, 0.000000, 4175.897461, 3384.615234, 4169.743652, 4119.487305, 4259.487305, 4207.692383, 4209.230469, 4218.974121, 4215.897461, 4197.948730, 4118.461426, 4183.589844, 4140.512695, 4194.871582, 3498.000000, 8531.000000, 8177.000000, 0.000000, 0.000000, 0.000000, 17197.000000, 683.589722, 4.000000, 4.000000, 4.000000, 4.000000, 4.000000, 4.000000, 4.000000, 4.000000, 4.000000, 4.000000, 4.000000, 4.000000, 4.000000, 4.000000, 4.000000, 4.000000
85.000000, 0.000000, 4172.307617, 3387.692139, 4170.769043, 4123.589844, 4253.333008, 4197.436035, 4195.384277, 4199.487305, 4200.000000, 4200.512695, 4116.410156, 4180.512695, 4139.487305, 4192.820313, 2316.000000, 8528.000000, 8177.000000, 0.000000, 0.000000, 0.000000, 17197.000000, 691.794861, 4.000000, 4.000000, 4.000000, 4.000000, 4.000000, 4.000000, 4.000000, 4.000000, 4.000000, 4.000000, 4.000000, 4.000000, 4.000000, 4.000000, 4.000000, 4.000000
86.000000, 0.000000, 4172.307617, 3380.000000, 4171.794922, 4122.563965, 4240.512695, 4202.563965, 4202.051270, 4197.948730, 4205.127930, 4198.974121, 4112.820313, 4180.512695, 4140.512695, 4190.256348, 3406.000000, 8528.000000, 8177.000000, 0.000000, 0.000000, 0.000000, 17197.000000, 699.487183, 4.000000, 4.000000, 4.000000, 4.000000, 4.000000, 4.000000, 4.000000, 4.000000, 4.000000, 4.000000, 4.000000, 4.000000, 4.000000, 4.000000, 4.000000, 4.000000
87.000000, 0.000000, 4172.307617, 3366.666504, 4167.692383, 4115.897461, 4240.512695, 4203.076660, 4205.641113, 4209.230469, 4213.333008, 4193.846191, 4109.743652, 4182.051270, 4142.563965, 4194.871582, 1818.000000, 8515.000000, 8163.000000, 0.000000, 0.000000, 0.000000, 17197.000000, 707.692261, 4.000000, 4.000000, 4.000000, 4.000000, 4.000000, 4.000000, 4.000000, 4.000000, 4.000000, 4.000000, 4.000000, 4.000000, 4.000000, 4.000000, 4.000000, 4.000000
88.000000, 0.000000, 4170.256348, 3362.051270, 4155.897461, 4110.769043, 4261.538574, 4198.974121, 4202.051270, 4197.436035, 4195.897461, 4190.769043, 4106.666504, 4174.358887, 4138.461426, 4191.281738, 3498.000000, 8515.000000, 8163.000000, 0.000000, 0.000000, 0.000000, 17197.000000, 715.384583, 4.000000, 4.000000, 4.000000, 4.000000, 4.000000, 4.000000, 4.000000, 4.000000, 4.000000, 4.000000, 4.000000, 4.000000, 4.000000, 4.000000, 4.000000, 4.000000
89.000000, 0.000000, 4171.794922, 3348.717773, 4153.846191, 4107.179199, 4263.589844, 4201.025391, 4199.487305, 4183.076660, 4183.589844, 4185.641113, 4103.589844, 4179.487305, 4139.487305, 4195.897461, 2316.000000, 8505.000000, 8171.000000, 0.000000, 0.000000, 0.000000, 17197.000000, 723.589722, 4.000000, 4.000000, 4.000000, 4.000000, 4.000000, 4.000000, 4.000000, 4.000000, 4.000000, 4.000000, 4.000000, 4.000000, 4.000000, 4.000000, 4.000000, 4.000000
90.000000, 0.000000, 4180.000000, 3341.025635, 4166.666504, 4112.820313, 4248.717773, 4205.127930, 4203.076660, 4195.384277, 4197.948730, 4189.230469, 4113.846191, 4185.641113, 4150.769043, 4200.000000, 3406.000000, 8505.000000, 8171.000000, 0.000000, 0.000000, 0.000000, 17197.000000, 731.282043, 4.000000, 4.000000, 4.000000, 4.000000, 4.000000, 4.000000, 4.000000, 4.000000, 4.000000, 4.000000, 4.000000, 4.000000, 4.000000, 4.000000, 4.000000, 4.000000
91.000000, 0.000000, 4189.230469, 3349.230713, 4173.333008, 4122.051270, 4251.794922, 4199.487305, 4206.153809, 4205.641113, 4205.127930, 4196.410156, 4121.538574, 4186.666504, 4153.846191, 4199.487305, 1818.000000, 8477.000000, 8174.000000, 0.000000, 0.000000, 0.000000, 17197.000000, 739.487183, 4.000000, 4.000000, 4.000000, 4.000000, 4.000000, 4.000000, 4.000000, 4.000000, 4.000000, 4.000000, 4.000000, 4.000000, 4.000000, 4.000000, 4.000000, 4.000000
92.000000, 0.000000, 4194.358887, 3347.179443, 4173.846191, 4126.153809, 4263.076660, 4198.461426, 4201.538574, 4205.127930, 4201.025391, 4199.487305, 4120.512695, 4186.666504, 4151.794922, 4202.563965, 3498.000000, 8477.000000, 8174.000000, 0.000000, 0.000000, 0.000000, 17197.000000, 747.179443, 4.000000, 4.000000, 4.000000, 4.000000, 4.000000, 4.000000, 4.000000, 4.000000, 4.000000, 4.000000, 4.000000, 4.000000, 4.000000, 4.000000, 4.000000, 4.000000
93.000000, 0.000000, 4202.563965, 3344.102539, 4182.563965, 4133.333008, 4269.230469, 4221.025391, 4205.127930, 4210.769043, 4218.974121, 4210.256348, 4132.307617, 4191.794922, 4159.487305, 4203.589844, 2316.000000, 8462.000000, 8175.000000, 0.000000, 0.000000, 0.000000, 17197.000000, 755.384583, 4.000000, 4.000000, 4.000000, 4.000000, 4.000000, 4.000000, 4.000000, 4.000000, 4.000000, 4.000000, 4.000000, 4.000000, 4.000000, 4.000000, 4.000000, 4.000000
94.000000, 0.000000, 4209.230469, 3346.153809, 4187.692383, 4138.974121, 4274.358887, 4237.436035, 4218.974121, 4210.256348, 4232.307617, 4220.512695, 4143.076660, 4203.589844, 4162.051270, 4208.717773, 3406.000000, 8462.000000, 8175.000000, 0.000000, 0.000000, 0.000000, 17197.000000, 763.076904, 4.000000, 4.000000, 4.000000, 4.000000, 4.000000, 4.000000, 4.000000, 4.000000, 4.000000, 4.000000, 4.000000, 4.000000, 4.000000, 4.000000, 4.000000, 4.000000
95.000000, 0.000000, 4201.538574, 3335.384521, 4179.487305, 4131.281738, 4270.256348, 4224.102539, 4223.589844, 4201.025391, 4214.358887, 4216.410156, 4137.948730, 4196.410156, 4154.358887, 4205.641113, 1818.000000, 8451.000000, 8177.000000, 0.000000, 0.000000, 0.000000, 17197.000000, 770.769226, 4.000000, 4.000000, 4.000000, 4.000000, 4.000000, 4.000000, 4.000000, 4.000000, 4.000000, 4.000000, 4.000000, 4.000000, 4.000000, 4.000000, 4.000000, 4.000000
96.000000, 0.000000, 4200.512695, 3325.128174, 4172.307617, 4124.615234, 4260.000000, 4213.333008, 4216.410156, 4204.102539, 4204.102539, 4214.871582, 4140.000000, 4194.358887, 4158.974121, 4205.641113, 3498.000000, 8451.000000, 8177.000000, 0.000000, 0.000000, 0.000000, 17197.000000, 778.461548, 4.000000, 4.000000, 4.000000, 4.000000, 4.000000, 4.000000, 4.000000, 4.000000, 4.000000, 4.000000, 4.000000, 4.000000, 4.000000, 4.000000, 4.000000, 4.000000
97.000000, 0.000000, 4206.153809, 3329.230713, 4172.820313, 4127.179199, 4267.179199, 4220.000000, 4214.358887, 4205.127930, 4214.358887, 4216.922852, 4150.256348, 4203.076660, 4163.076660, 4209.743652, 2316.000000, 8423.000000, 8167.000000, 0.000000, 0.000000, 0.000000, 17197.000000, 786.666626, 4.000000, 4.000000, 4.000000, 4.000000, 4.000000, 4.000000, 4.000000, 4.000000, 4.000000, 4.000000, 4.000000, 4.000000, 4.000000, 4.000000, 4.000000, 4.000000
98.000000, 0.000000, 4202.051270, 3325.128174, 4173.846191, 4128.717773, 4266.666504, 4228.205078, 4223.589844, 4199.487305, 4217.436035, 4209.743652, 4145.641113, 4194.871582, 4154.871582, 4201.025391, 3406.000000, 8423.000000, 8167.000000, 0.000000, 0.000000, 0.000000, 17197.000000, 794.358948, 4.000000, 4.000000, 4.000000, 4.000000, 4.000000, 4.000000, 4.000000, 4.000000, 4.000000, 4.000000, 4.000000, 4.000000, 4.000000, 4.000000, 4.000000, 4.000000
99.000000, 0.000000, 4200.000000, 3311.281982, 4171.794922, 4127.179199, 4246.153809, 4228.717773, 4230.256348, 4210.256348, 4212.820313, 4200.512695, 4137.948730, 4191.281738, 4151.281738, 4203.076660, 1818.000000, 8411.000000, 8166.000000, 0.000000, 0.000000, 0.000000, 17197.000000, 802.564087, 4.000000, 4.000000, 4.000000, 4.000000, 4.000000, 4.000000, 4.000000, 4.000000, 4.000000, 4.000000, 4.000000, 4.000000, 4.000000, 4.000000, 4.000000, 4.000000
100.000000, 0.000000, 4198.974121, 3306.666504, 4170.256348, 4126.153809, 4248.717773, 4221.538574, 4229.230469, 4218.974121, 4215.897461, 4202.051270, 4139.487305, 4192.307617, 4153.846191, 4206.153809, 3498.000000, 8411.000000, 8166.000000, 0.000000, 0.000000, 0.000000, 17197.000000, 810.256409, 4.000000, 4.000000, 4.000000, 4.000000, 4.000000, 4.000000, 4.000000, 4.000000, 4.000000, 4.000000, 4.000000, 4.000000, 4.000000, 4.000000, 4.000000, 4.000000
101.000000, 0.000000, 4200.000000, 3311.794678, 4172.820313, 4130.769043, 4269.743652, 4215.897461, 4228.205078, 4207.179199, 4212.820313, 4208.717773, 4141.538574, 4191.281738, 4154.358887, 4202.051270, 2316.000000, 8376.000000, 8178.000000, 0.000000, 0.000000, 0.000000, 17197.000000, 817.948669, 4.000000, 4.000000, 4.000000, 4.000000, 4.000000, 4.000000, 4.000000, 4.000000, 4.000000, 4.000000, 4.000000, 4.000000, 4.000000, 4.000000, 4.000000, 4.000000
102.000000, 0.000000, 4198.461426, 3305.128174, 4172.820313, 4133.846191, 4270.769043, 4218.461426, 4233.333008, 4199.487305, 4200.512695, 4210.256348, 4140.000000, 4193.846191, 4151.794922, 4202.051270, 3406.000000, 8376.000000, 8178.000000, 0.000000, 0.000000, 0.000000, 17197.000000, 826.153809, 4.000000, 4.000000, 4.000000, 4.000000, 4.000000, 4.000000, 4.000000, 4.000000, 4.000000, 4.000000, 4.000000, 4.000000, 4.000000, 4.000000, 4.000000, 4.000000
103.000000, 0.000000, 4189.230469, 3288.205078, 4164.615234, 4128.205078, 4261.538574, 4214.871582, 4227.692383, 4203.589844, 4202.051270, 4209.230469, 4138.974121, 4190.769043, 4149.230469, 4194.358887, 1818.000000, 8356.000000, 8182.000000, 0.000000, 0.000000, 0.000000, 17197.000000, 833.846130, 4.000000, 4.000000, 4.000000, 4.000000, 4.000000, 4.000000, 4.000000, 4.000000, 4.000000, 4.000000, 4.000000, 4.000000, 4.000000, 4.000000, 4.000000, 4.000000
104.000000, 0.000000, 4187.179199, 3286.666504, 4164.102539, 4127.692383, 4260.512695, 4208.717773, 4216.922852, 4203.076660, 4209.743652, 4210.769043, 4142.051270, 4193.846191, 4151.281738, 4196.922852, 3498.000000, 8356.000000, 8182.000000, 0.000000, 0.000000, 0.000000, 17197.000000, 841.538452, 4.000000, 4.000000, 4.000000, 4.000000, 4.000000, 4.000000, 4.000000, 4.000000, 4.000000, 4.000000, 4.000000, 4.000000, 4.000000, 4.000000, 4.000000, 4.000000
105.000000, 0.000000, 4194.871582, 3300.512695, 4178.461426, 4138.461426, 4257.948730, 4215.384277, 4224.102539, 4206.666504, 4218.974121, 4217.948730, 4152.820313, 4196.922852, 4155.897461, 4203.589844, 2316.000000, 8339.000000, 8175.000000, 0.000000, 0.000000, 0.000000, 17197.000000, 849.743591, 4.000000, 4.000000, 4.000000, 4.000000, 4.000000, 4.000000, 4.000000, 4.000000, 4.000000, 4.000000, 4.000000, 4.000000, 4.000000, 4.000000, 4.000000, 4.000000
106.000000, 0.000000, 4202.563965, 3307.692139, 4189.743652, 4145.641113, 4264.615234, 4226.666504, 4235.384277, 4218.461426, 4229.230469, 4227.692383, 4162.051270, 4201.025391, 4155.384277, 4200.000000, 3406.000000, 8339.000000, 8175.000000, 0.000000, 0.000000, 0.000000, 17197.000000, 857.435852, 4.000000, 4.000000, 4.000000, 4.000000, 4.000000, 4.000000, 4.000000, 4.000000, 4.000000, 4.000000, 4.000000, 4.000000, 4.000000, 4.000000, 4.000000, 4.000000
107.000000, 0.000000, 4199.487305, 3295.897461, 4189.230469, 4142.563965, 4268.717773, 4228.717773, 4235.897461, 4220.000000, 4229.230469, 4228.717773, 4158.461426, 4207.179199, 4148.717773, 4201.538574, 1818.000000, 8294.000000, 8156.000000, 0.000000, 0.000000, 0.000000, 17197.000000, 865.640991, 4.000000, 4.000000, 4.000000, 4.000000, 4.000000, 4.000000, 4.000000, 4.000000, 4.000000, 4.000000, 4.000000, 4.000000, 4.000000, 4.000000, 4.000000, 4.000000
