title:winkLeft34, recorded:23.05.18 21.43.06, timestamp started:2018-05-23T14:18:30.888274+02:00            , sampling:128, subject:Noé, labels:COUNTER INTERPOLATED AF3 F7 F3 FC5 T7 P7 O1 O2 P8 T8 FC6 F4 F8 AF4 RAW_CQ GYROX GYROY MARKER MARKER_HARDWARE SYNC TIME_STAMP_s TIME_STAMP_ms CQ_AF3 CQ_F7 CQ_F3 CQ_FC5 CQ_T7 CQ_P7 CQ_O1 CQ_O2 CQ_P8 CQ_T8 CQ_FC6 CQ_F4 CQ_F8 CQ_AF4 CQ_CMS CQ_DRL, chan:40, samples:2213, units:emotiv
92.000000, 0.000000, 4214.358887, 4224.615234, 4198.461426, 4214.358887, 4197.948730, 4203.589844, 4206.153809, 4207.179199, 4218.461426, 4219.487305, 4205.127930, 4206.153809, 4216.410156, 4188.205078, 3662.000000, 8232.000000, 8139.000000, 0.000000, 0.000000, 0.000000, 26676.000000, 250.256409, 4.000000, 4.000000, 4.000000, 4.000000, 4.000000, 4.000000, 4.000000, 4.000000, 4.000000, 4.000000, 4.000000, 4.000000, 4.000000, 4.000000, 4.000000, 4.000000
93.000000, 0.000000, 4202.051270, 4214.871582, 4184.102539, 4211.281738, 4195.897461, 4196.922852, 4207.179199, 4197.948730, 4210.256348, 4213.846191, 4206.153809, 4201.025391, 4213.333008, 4182.563965, 3478.000000, 8233.000000, 8145.000000, 0.000000, 0.000000, 0.000000, 26676.000000, 257.948700, 4.000000, 4.000000, 4.000000, 4.000000, 4.000000, 4.000000, 4.000000, 4.000000, 4.000000, 4.000000, 4.000000, 4.000000, 4.000000, 4.000000, 4.000000, 4.000000
94.000000, 0.000000, 4206.153809, 4216.410156, 4178.461426, 4207.179199, 4203.076660, 4206.153809, 4213.846191, 4187.179199, 4202.563965, 4206.153809, 4202.051270, 4194.871582, 4207.692383, 4188.205078, 3055.000000, 8233.000000, 8145.000000, 0.000000, 0.000000, 0.000000, 26676.000000, 266.153839, 4.000000, 4.000000, 4.000000, 4.000000, 4.000000, 4.000000, 4.000000, 4.000000, 4.000000, 4.000000, 4.000000, 4.000000, 4.000000, 4.000000, 4.000000, 4.000000
95.000000, 0.000000, 4203.589844, 4213.846191, 4178.461426, 4211.281738, 4203.589844, 4211.281738, 4213.846191, 4190.256348, 4199.487305, 4200.512695, 4183.589844, 4187.179199, 4196.410156, 4176.410156, 3557.000000, 8238.000000, 8160.000000, 0.000000, 0.000000, 0.000000, 26676.000000, 273.846161, 4.000000, 4.000000, 4.000000, 4.000000, 4.000000, 4.000000, 4.000000, 4.000000, 4.000000, 4.000000, 4.000000, 4.000000, 4.000000, 4.000000, 4.000000, 4.000000
96.000000, 0.000000, 4192.307617, 4209.743652, 4182.051270, 4212.820313, 4198.461426, 4202.563965, 4213.333008, 4197.948730, 4201.025391, 4198.461426, 4182.563965, 4187.179199, 4193.846191, 4163.076660, 3662.000000, 8238.000000, 8160.000000, 0.000000, 0.000000, 0.000000, 26676.000000, 281.538452, 4.000000, 4.000000, 4.000000, 4.000000, 4.000000, 4.000000, 4.000000, 4.000000, 4.000000, 4.000000, 4.000000, 4.000000, 4.000000, 4.000000, 4.000000, 4.000000
97.000000, 0.000000, 4206.666504, 4224.615234, 4191.794922, 4212.820313, 4199.487305, 4202.563965, 4215.897461, 4207.692383, 4208.205078, 4209.230469, 4204.615234, 4194.871582, 4214.871582, 4182.563965, 3478.000000, 8234.000000, 8166.000000, 0.000000, 0.000000, 0.000000, 26676.000000, 289.743591, 4.000000, 4.000000, 4.000000, 4.000000, 4.000000, 4.000000, 4.000000, 4.000000, 4.000000, 4.000000, 4.000000, 4.000000, 4.000000, 4.000000, 4.000000, 4.000000
98.000000, 0.000000, 4231.794922, 4241.538574, 4201.538574, 4224.102539, 4211.794922, 4215.897461, 4214.871582, 4212.820313, 4220.000000, 4229.743652, 4221.025391, 4201.538574, 4237.436035, 4207.179199, 3055.000000, 8234.000000, 8166.000000, 0.000000, 0.000000, 0.000000, 26676.000000, 297.435883, 4.000000, 4.000000, 4.000000, 4.000000, 4.000000, 4.000000, 4.000000, 4.000000, 4.000000, 4.000000, 4.000000, 4.000000, 4.000000, 4.000000, 4.000000, 4.000000
99.000000, 0.000000, 4227.692383, 4242.563965, 4199.487305, 4221.025391, 4220.512695, 4221.025391, 4217.948730, 4203.076660, 4219.487305, 4230.256348, 4215.897461, 4198.974121, 4236.922852, 4207.179199, 3557.000000, 8235.000000, 8157.000000, 0.000000, 0.000000, 0.000000, 26676.000000, 305.641022, 4.000000, 4.000000, 4.000000, 4.000000, 4.000000, 4.000000, 4.000000, 4.000000, 4.000000, 4.000000, 4.000000, 4.000000, 4.000000, 4.000000, 4.000000, 4.000000
100.000000, 0.000000, 4210.256348, 4230.256348, 4188.717773, 4214.871582, 4208.205078, 4213.846191, 4225.127930, 4195.384277, 4213.333008, 4215.384277, 4205.641113, 4189.230469, 4227.692383, 4198.461426, 3662.000000, 8235.000000, 8157.000000, 0.000000, 0.000000, 0.000000, 26676.000000, 313.333313, 4.000000, 4.000000, 4.000000, 4.000000, 4.000000, 4.000000, 4.000000, 4.000000, 4.000000, 4.000000, 4.000000, 4.000000, 4.000000, 4.000000, 4.000000, 4.000000
101.000000, 0.000000, 4210.769043, 4221.538574, 4183.589844, 4215.384277, 4198.974121, 4212.820313, 4221.538574, 4209.230469, 4221.538574, 4212.820313, 4209.743652, 4187.692383, 4232.307617, 4196.922852, 3478.000000, 8235.000000, 8156.000000, 0.000000, 0.000000, 0.000000, 26676.000000, 321.025635, 4.000000, 4.000000, 4.000000, 4.000000, 4.000000, 4.000000, 4.000000, 4.000000, 4.000000, 4.000000, 4.000000, 4.000000, 4.000000, 4.000000, 4.000000, 4.000000
102.000000, 0.000000, 4219.487305, 4225.641113, 4189.743652, 4210.769043, 4209.230469, 4218.974121, 4214.358887, 4218.974121, 4232.820313, 4221.538574, 4220.512695, 4199.487305, 4245.127930, 4202.563965, 3055.000000, 8235.000000, 8156.000000, 0.000000, 0.000000, 0.000000, 26676.000000, 329.230774, 4.000000, 4.000000, 4.000000, 4.000000, 4.000000, 4.000000, 4.000000, 4.000000, 4.000000, 4.000000, 4.000000, 4.000000, 4.000000, 4.000000, 4.000000, 4.000000
103.000000, 0.000000, 4220.000000, 4225.641113, 4196.922852, 4212.307617, 4214.871582, 4220.000000, 4216.410156, 4217.436035, 4232.307617, 4222.051270, 4220.512695, 4205.641113, 4251.794922, 4211.281738, 3557.000000, 8233.000000, 8157.000000, 0.000000, 0.000000, 0.000000, 26676.000000, 336.923065, 4.000000, 4.000000, 4.000000, 4.000000, 4.000000, 4.000000, 4.000000, 4.000000, 4.000000, 4.000000, 4.000000, 4.000000, 4.000000, 4.000000, 4.000000, 4.000000
104.000000, 0.000000, 4214.871582, 4213.333008, 4196.410156, 4209.230469, 4205.641113, 4211.281738, 4221.025391, 4220.512695, 4226.666504, 4222.563965, 4214.871582, 4200.512695, 4249.743652, 4214.358887, 3662.000000, 8233.000000, 8157.000000, 0.000000, 0.000000, 0.000000, 26676.000000, 345.128204, 4.000000, 4.000000, 4.000000, 4.000000, 4.000000, 4.000000, 4.000000, 4.000000, 4.000000, 4.000000, 4.000000, 4.000000, 4.000000, 4.000000, 4.000000, 4.000000
105.000000, 0.000000, 4209.743652, 4205.641113, 4192.307617, 4208.205078, 4196.922852, 4201.538574, 4218.974121, 4214.358887, 4220.512695, 4222.563965, 4212.820313, 4198.461426, 4243.076660, 4206.153809, 3478.000000, 8241.000000, 8161.000000, 0.000000, 0.000000, 0.000000, 26676.000000, 352.820496, 4.000000, 4.000000, 4.000000, 4.000000, 4.000000, 4.000000, 4.000000, 4.000000, 4.000000, 4.000000, 4.000000, 4.000000, 4.000000, 4.000000, 4.000000, 4.000000
106.000000, 0.000000, 4209.743652, 4212.307617, 4193.333008, 4209.230469, 4197.948730, 4207.692383, 4213.846191, 4202.051270, 4214.871582, 4220.000000, 4214.871582, 4204.615234, 4242.563965, 4199.487305, 3055.000000, 8241.000000, 8161.000000, 0.000000, 0.000000, 0.000000, 26676.000000, 360.512817, 4.000000, 4.000000, 4.000000, 4.000000, 4.000000, 4.000000, 4.000000, 4.000000, 4.000000, 4.000000, 4.000000, 4.000000, 4.000000, 4.000000, 4.000000, 4.000000
107.000000, 0.000000, 4218.974121, 4221.538574, 4203.076660, 4210.769043, 4206.153809, 4220.512695, 4213.846191, 4202.563965, 4217.948730, 4225.127930, 4220.000000, 4211.281738, 4245.641113, 4209.230469, 3557.000000, 8249.000000, 8151.000000, 0.000000, 0.000000, 0.000000, 26676.000000, 368.717926, 4.000000, 4.000000, 4.000000, 4.000000, 4.000000, 4.000000, 4.000000, 4.000000, 4.000000, 4.000000, 4.000000, 4.000000, 4.000000, 4.000000, 4.000000, 4.000000
108.000000, 0.000000, 4221.025391, 4218.461426, 4205.127930, 4215.897461, 4207.179199, 4213.333008, 4211.281738, 4195.897461, 4212.820313, 4223.076660, 4220.000000, 4209.743652, 4240.000000, 4213.846191, 3662.000000, 8249.000000, 8151.000000, 0.000000, 0.000000, 0.000000, 26676.000000, 376.410248, 4.000000, 4.000000, 4.000000, 4.000000, 4.000000, 4.000000, 4.000000, 4.000000, 4.000000, 4.000000, 4.000000, 4.000000, 4.000000, 4.000000, 4.000000, 4.000000
109.000000, 0.000000, 4211.281738, 4208.205078, 4195.384277, 4207.179199, 4198.974121, 4198.974121, 4201.538574, 4181.538574, 4201.538574, 4210.769043, 4215.384277, 4199.487305, 4230.256348, 4202.563965, 3478.000000, 8250.000000, 8144.000000, 0.000000, 0.000000, 0.000000, 26676.000000, 384.615387, 4.000000, 4.000000, 4.000000, 4.000000, 4.000000, 4.000000, 4.000000, 4.000000, 4.000000, 4.000000, 4.000000, 4.000000, 4.000000, 4.000000, 4.000000, 4.000000
110.000000, 0.000000, 4207.179199, 4205.641113, 4193.846191, 4201.025391, 4196.410156, 4199.487305, 4198.974121, 4187.179199, 4204.102539, 4209.230469, 4213.333008, 4198.974121, 4229.743652, 4197.436035, 3055.000000, 8250.000000, 8144.000000, 0.000000, 0.000000, 0.000000, 26676.000000, 392.307678, 4.000000, 4.000000, 4.000000, 4.000000, 4.000000, 4.000000, 4.000000, 4.000000, 4.000000, 4.000000, 4.000000, 4.000000, 4.000000, 4.000000, 4.000000, 4.000000
111.000000, 0.000000, 4213.846191, 4209.230469, 4203.076660, 4204.615234, 4201.025391, 4204.102539, 4208.717773, 4202.051270, 4209.743652, 4217.436035, 4214.358887, 4208.717773, 4234.358887, 4206.666504, 3557.000000, 8251.000000, 8145.000000, 0.000000, 0.000000, 0.000000, 26676.000000, 400.512817, 4.000000, 4.000000, 4.000000, 4.000000, 4.000000, 4.000000, 4.000000, 4.000000, 4.000000, 4.000000, 4.000000, 4.000000, 4.000000, 4.000000, 4.000000, 4.000000
112.000000, 0.000000, 4220.000000, 4210.256348, 4211.281738, 4202.563965, 4201.025391, 4201.538574, 4216.922852, 4200.512695, 4202.563965, 4220.000000, 4218.974121, 4215.384277, 4234.871582, 4215.384277, 3662.000000, 8251.000000, 8145.000000, 0.000000, 0.000000, 0.000000, 26676.000000, 408.205109, 4.000000, 4.000000, 4.000000, 4.000000, 4.000000, 4.000000, 4.000000, 4.000000, 4.000000, 4.000000, 4.000000, 4.000000, 4.000000, 4.000000, 4.000000, 4.000000
113.000000, 0.000000, 4218.461426, 4211.281738, 4210.769043, 4206.666504, 4198.974121, 4198.461426, 4219.487305, 4195.384277, 4196.922852, 4216.410156, 4220.000000, 4216.410156, 4233.846191, 4215.897461, 3478.000000, 8253.000000, 8148.000000, 0.000000, 0.000000, 0.000000, 26676.000000, 416.410248, 4.000000, 4.000000, 4.000000, 4.000000, 4.000000, 4.000000, 4.000000, 4.000000, 4.000000, 4.000000, 4.000000, 4.000000, 4.000000, 4.000000, 4.000000, 4.000000
114.000000, 0.000000, 4213.846191, 4213.846191, 4209.230469, 4203.589844, 4200.512695, 4203.589844, 4221.025391, 4205.127930, 4209.743652, 4216.922852, 4221.025391, 4214.358887, 4235.897461, 4211.281738, 3055.000000, 8253.000000, 8148.000000, 0.000000, 0.000000, 0.000000, 26676.000000, 424.102539, 4.000000, 4.000000, 4.000000, 4.000000, 4.000000, 4.000000, 4.000000, 4.000000, 4.000000, 4.000000, 4.000000, 4.000000, 4.000000, 4.000000, 4.000000, 4.000000
115.000000, 0.000000, 4218.461426, 4212.820313, 4215.384277, 4202.563965, 4203.076660, 4207.692383, 4218.461426, 4218.974121, 4222.563965, 4225.641113, 4228.717773, 4218.461426, 4244.102539, 4215.897461, 3557.000000, 8257.000000, 8151.000000, 0.000000, 0.000000, 0.000000, 26676.000000, 432.307678, 4.000000, 4.000000, 4.000000, 4.000000, 4.000000, 4.000000, 4.000000, 4.000000, 4.000000, 4.000000, 4.000000, 4.000000, 4.000000, 4.000000, 4.000000, 4.000000
116.000000, 0.000000, 4224.102539, 4213.333008, 4221.025391, 4210.769043, 4202.563965, 4204.102539, 4216.922852, 4219.487305, 4222.563965, 4233.333008, 4234.358887, 4227.692383, 4250.769043, 4228.205078, 3662.000000, 8257.000000, 8151.000000, 0.000000, 0.000000, 0.000000, 26676.000000, 440.000000, 4.000000, 4.000000, 4.000000, 4.000000, 4.000000, 4.000000, 4.000000, 4.000000, 4.000000, 4.000000, 4.000000, 4.000000, 4.000000, 4.000000, 4.000000, 4.000000
117.000000, 0.000000, 4219.487305, 4215.384277, 4218.461426, 4206.153809, 4199.487305, 4198.974121, 4217.948730, 4212.820313, 4217.436035, 4225.127930, 4230.256348, 4223.589844, 4244.615234, 4224.102539, 3478.000000, 8261.000000, 8147.000000, 0.000000, 0.000000, 0.000000, 26676.000000, 448.205109, 4.000000, 4.000000, 4.000000, 4.000000, 4.000000, 4.000000, 4.000000, 4.000000, 4.000000, 4.000000, 4.000000, 4.000000, 4.000000, 4.000000, 4.000000, 4.000000
118.000000, 0.000000, 4220.000000, 4214.871582, 4219.487305, 4207.179199, 4198.461426, 4200.000000, 4215.897461, 4213.333008, 4214.871582, 4221.025391, 4226.666504, 4216.922852, 4238.461426, 4214.358887, 3055.000000, 8261.000000, 8147.000000, 0.000000, 0.000000, 0.000000, 26676.000000, 455.897430, 4.000000, 4.000000, 4.000000, 4.000000, 4.000000, 4.000000, 4.000000, 4.000000, 4.000000, 4.000000, 4.000000, 4.000000, 4.000000, 4.000000, 4.000000, 4.000000
119.000000, 0.000000, 4226.153809, 4218.974121, 4227.179199, 4211.281738, 4201.538574, 4204.102539, 4216.922852, 4218.974121, 4220.512695, 4231.281738, 4228.205078, 4223.076660, 4242.051270, 4222.051270, 3557.000000, 8265.000000, 8136.000000, 0.000000, 0.000000, 0.000000, 26676.000000, 464.102539, 4.000000, 4.000000, 4.000000, 4.000000, 4.000000, 4.000000, 4.000000, 4.000000, 4.000000, 4.000000, 4.000000, 4.000000, 4.000000, 4.000000, 4.000000, 4.000000
120.000000, 0.000000, 4224.102539, 4218.461426, 4226.666504, 4209.230469, 4202.051270, 4201.025391, 4218.461426, 4217.948730, 4222.563965, 4233.333008, 4231.281738, 4227.692383, 4246.666504, 4229.743652, 3662.000000, 8265.000000, 8136.000000, 0.000000, 0.000000, 0.000000, 26676.000000, 471.794861, 4.000000, 4.000000, 4.000000, 4.000000, 4.000000, 4.000000, 4.000000, 4.000000, 4.000000, 4.000000, 4.000000, 4.000000, 4.000000, 4.000000, 4.000000, 4.000000
121.000000, 0.000000, 4217.948730, 4213.846191, 4218.974121, 4210.769043, 4200.512695, 4197.436035, 4213.333008, 4213.846191, 4217.948730, 4225.641113, 4231.794922, 4220.512695, 4245.127930, 4220.512695, 3478.000000, 8265.000000, 8127.000000, 0.000000, 0.000000, 0.000000, 26676.000000, 480.000000, 4.000000, 4.000000, 4.000000, 4.000000, 4.000000, 4.000000, 4.000000, 4.000000, 4.000000, 4.000000, 4.000000, 4.000000, 4.000000, 4.000000, 4.000000, 4.000000
122.000000, 0.000000, 4216.922852, 4220.512695, 4215.897461, 4212.820313, 4203.589844, 4201.025391, 4213.333008, 4206.153809, 4210.256348, 4219.487305, 4224.102539, 4212.820313, 4240.512695, 4215.384277, 3055.000000, 8265.000000, 8127.000000, 0.000000, 0.000000, 0.000000, 26676.000000, 487.692291, 4.000000, 4.000000, 4.000000, 4.000000, 4.000000, 4.000000, 4.000000, 4.000000, 4.000000, 4.000000, 4.000000, 4.000000, 4.000000, 4.000000, 4.000000, 4.000000
123.000000, 0.000000, 4215.897461, 4215.897461, 4219.487305, 4213.333008, 4205.127930, 4205.127930, 4215.384277, 4200.512695, 4210.256348, 4216.410156, 4214.871582, 4213.333008, 4235.384277, 4215.384277, 3557.000000, 8267.000000, 8125.000000, 0.000000, 0.000000, 0.000000, 26676.000000, 495.897430, 4.000000, 4.000000, 4.000000, 4.000000, 4.000000, 4.000000, 4.000000, 4.000000, 4.000000, 4.000000, 4.000000, 4.000000, 4.000000, 4.000000, 4.000000, 4.000000
124.000000, 0.000000, 4207.179199, 4196.922852, 4217.948730, 4206.153809, 4203.589844, 4201.025391, 4205.127930, 4204.615234, 4217.948730, 4217.436035, 4217.436035, 4218.461426, 4230.256348, 4206.666504, 3662.000000, 8267.000000, 8125.000000, 0.000000, 0.000000, 0.000000, 26676.000000, 504.102539, 4.000000, 4.000000, 4.000000, 4.000000, 4.000000, 4.000000, 4.000000, 4.000000, 4.000000, 4.000000, 4.000000, 4.000000, 4.000000, 4.000000, 4.000000, 4.000000
125.000000, 0.000000, 4204.102539, 4201.025391, 4207.179199, 4203.076660, 4201.538574, 4193.333008, 4194.871582, 4202.563965, 4210.769043, 4217.436035, 4215.897461, 4213.333008, 4230.769043, 4200.512695, 3478.000000, 8268.000000, 8127.000000, 0.000000, 0.000000, 0.000000, 26676.000000, 511.794861, 4.000000, 4.000000, 4.000000, 4.000000, 4.000000, 4.000000, 4.000000, 4.000000, 4.000000, 4.000000, 4.000000, 4.000000, 4.000000, 4.000000, 4.000000, 4.000000
126.000000, 0.000000, 4207.692383, 4217.948730, 4200.000000, 4211.794922, 4201.025391, 4191.281738, 4197.948730, 4188.205078, 4190.256348, 4209.743652, 4202.563965, 4197.948730, 4226.666504, 4197.948730, 3055.000000, 8268.000000, 8127.000000, 0.000000, 0.000000, 0.000000, 26676.000000, 519.487183, 4.000000, 4.000000, 4.000000, 4.000000, 4.000000, 4.000000, 4.000000, 4.000000, 4.000000, 4.000000, 4.000000, 4.000000, 4.000000, 4.000000, 4.000000, 4.000000
127.000000, 0.000000, 4211.281738, 4224.615234, 4203.076660, 4209.743652, 4208.205078, 4199.487305, 4203.589844, 4181.025391, 4191.794922, 4203.076660, 4197.436035, 4193.333008, 4220.000000, 4198.974121, 52.000000, 8261.000000, 8119.000000, 0.000000, 0.000000, 0.000000, 26676.000000, 527.692322, 4.000000, 4.000000, 4.000000, 4.000000, 4.000000, 4.000000, 4.000000, 4.000000, 4.000000, 4.000000, 4.000000, 4.000000, 4.000000, 4.000000, 4.000000, 4.000000
0.000000, 0.000000, 4213.333008, 4228.205078, 4203.589844, 4212.307617, 4215.897461, 4200.000000, 4198.461426, 4185.641113, 4207.692383, 4199.487305, 4201.538574, 4202.051270, 4216.922852, 4203.589844, 3490.000000, 8261.000000, 8119.000000, 0.000000, 0.000000, 0.000000, 26676.000000, 535.897400, 4.000000, 4.000000, 4.000000, 4.000000, 4.000000, 4.000000, 4.000000, 4.000000, 4.000000, 4.000000, 4.000000, 4.000000, 4.000000, 4.000000, 4.000000, 4.000000
1.000000, 0.000000, 4212.820313, 4232.820313, 4203.076660, 4215.897461, 4214.358887, 4192.307617, 4190.769043, 4184.102539, 4198.974121, 4196.922852, 4196.410156, 4202.051270, 4214.871582, 4202.563965, 2205.000000, 8256.000000, 8121.000000, 0.000000, 0.000000, 0.000000, 26676.000000, 543.589722, 4.000000, 4.000000, 4.000000, 4.000000, 4.000000, 4.000000, 4.000000, 4.000000, 4.000000, 4.000000, 4.000000, 4.000000, 4.000000, 4.000000, 4.000000, 4.000000
2.000000, 0.000000, 4218.461426, 4243.076660, 4210.769043, 4215.384277, 4214.871582, 4195.897461, 4192.307617, 4182.563965, 4191.281738, 4200.000000, 4193.846191, 4195.897461, 4215.384277, 4200.512695, 3080.000000, 8256.000000, 8121.000000, 0.000000, 0.000000, 0.000000, 26676.000000, 551.282043, 4.000000, 4.000000, 4.000000, 4.000000, 4.000000, 4.000000, 4.000000, 4.000000, 4.000000, 4.000000, 4.000000, 4.000000, 4.000000, 4.000000, 4.000000, 4.000000
3.000000, 0.000000, 4220.512695, 4251.281738, 4208.717773, 4220.512695, 4216.410156, 4204.102539, 4200.000000, 4193.333008, 4203.076660, 4201.025391, 4197.436035, 4197.948730, 4211.281738, 4201.025391, 3544.000000, 8247.000000, 8126.000000, 0.000000, 0.000000, 0.000000, 26676.000000, 559.487183, 4.000000, 4.000000, 4.000000, 4.000000, 4.000000, 4.000000, 4.000000, 4.000000, 4.000000, 4.000000, 4.000000, 4.000000, 4.000000, 4.000000, 4.000000, 4.000000
4.000000, 0.000000, 4209.230469, 4237.436035, 4197.948730, 4209.743652, 4210.256348, 4202.563965, 4204.102539, 4193.846191, 4197.436035, 4197.948730, 4190.769043, 4196.410156, 4195.384277, 4192.307617, 3534.000000, 8247.000000, 8126.000000, 0.000000, 0.000000, 0.000000, 26676.000000, 567.179443, 4.000000, 4.000000, 4.000000, 4.000000, 4.000000, 4.000000, 4.000000, 4.000000, 4.000000, 4.000000, 4.000000, 4.000000, 4.000000, 4.000000, 4.000000, 4.000000
5.000000, 0.000000, 4201.025391, 4219.487305, 4197.436035, 4204.102539, 4200.000000, 4191.794922, 4197.436035, 4180.000000, 4185.127930, 4197.948730, 4182.051270, 4189.743652, 4186.153809, 4183.589844, 3569.000000, 8240.000000, 8128.000000, 0.000000, 0.000000, 0.000000, 26676.000000, 574.871765, 4.000000, 4.000000, 4.000000, 4.000000, 4.000000, 4.000000, 4.000000, 4.000000, 4.000000, 4.000000, 4.000000, 4.000000, 4.000000, 4.000000, 4.000000, 4.000000
6.000000, 0.000000, 4209.230469, 4229.743652, 4202.563965, 4215.384277, 4200.000000, 4183.076660, 4189.743652, 4182.563965, 4195.897461, 4202.051270, 4190.769043, 4192.820313, 4197.948730, 4195.897461, 3503.000000, 8240.000000, 8128.000000, 0.000000, 0.000000, 0.000000, 26676.000000, 582.564087, 4.000000, 4.000000, 4.000000, 4.000000, 4.000000, 4.000000, 4.000000, 4.000000, 4.000000, 4.000000, 4.000000, 4.000000, 4.000000, 4.000000, 4.000000, 4.000000
7.000000, 0.000000, 4220.000000, 4247.179199, 4207.692383, 4217.948730, 4210.769043, 4188.717773, 4188.205078, 4191.281738, 4208.205078, 4208.717773, 4203.076660, 4197.948730, 4207.179199, 4208.717773, 3530.000000, 8225.000000, 8128.000000, 0.000000, 0.000000, 0.000000, 26676.000000, 590.769226, 4.000000, 4.000000, 4.000000, 4.000000, 4.000000, 4.000000, 4.000000, 4.000000, 4.000000, 4.000000, 4.000000, 4.000000, 4.000000, 4.000000, 4.000000, 4.000000
8.000000, 0.000000, 4221.538574, 4244.615234, 4213.333008, 4220.000000, 4216.922852, 4200.000000, 4188.205078, 4184.102539, 4201.538574, 4209.230469, 4202.563965, 4198.974121, 4204.615234, 4206.153809, 3340.000000, 8225.000000, 8128.000000, 0.000000, 0.000000, 0.000000, 26676.000000, 598.461548, 4.000000, 4.000000, 4.000000, 4.000000, 4.000000, 4.000000, 4.000000, 4.000000, 4.000000, 4.000000, 4.000000, 4.000000, 4.000000, 4.000000, 4.000000, 4.000000
9.000000, 0.000000, 4211.281738, 4233.846191, 4207.179199, 4217.948730, 4214.871582, 4203.589844, 4189.743652, 4179.487305, 4199.487305, 4204.102539, 4197.948730, 4195.384277, 4203.076660, 4199.487305, 3555.000000, 8207.000000, 8132.000000, 0.000000, 0.000000, 0.000000, 26676.000000, 606.153809, 4.000000, 4.000000, 4.000000, 4.000000, 4.000000, 4.000000, 4.000000, 4.000000, 4.000000, 4.000000, 4.000000, 4.000000, 4.000000, 4.000000, 4.000000, 4.000000
10.000000, 0.000000, 4196.410156, 4229.743652, 4189.743652, 4216.410156, 4212.820313, 4200.512695, 4189.743652, 4185.641113, 4201.538574, 4200.512695, 4191.281738, 4183.076660, 4195.384277, 4191.281738, 3052.000000, 8207.000000, 8132.000000, 0.000000, 0.000000, 0.000000, 26676.000000, 614.358948, 4.000000, 4.000000, 4.000000, 4.000000, 4.000000, 4.000000, 4.000000, 4.000000, 4.000000, 4.000000, 4.000000, 4.000000, 4.000000, 4.000000, 4.000000, 4.000000
11.000000, 0.000000, 4192.307617, 4229.743652, 4180.000000, 4210.769043, 4212.820313, 4193.846191, 4184.615234, 4186.153809, 4189.743652, 4196.410156, 4185.641113, 4174.358887, 4185.127930, 4183.076660, 3557.000000, 8201.000000, 8138.000000, 0.000000, 0.000000, 0.000000, 26676.000000, 622.564087, 4.000000, 4.000000, 4.000000, 4.000000, 4.000000, 4.000000, 4.000000, 4.000000, 4.000000, 4.000000, 4.000000, 4.000000, 4.000000, 4.000000, 4.000000, 4.000000
12.000000, 0.000000, 4197.436035, 4231.794922, 4181.538574, 4207.692383, 4212.820313, 4188.717773, 4184.615234, 4180.512695, 4182.563965, 4195.384277, 4185.641113, 4179.487305, 4187.179199, 4185.127930, 3540.000000, 8201.000000, 8138.000000, 0.000000, 0.000000, 0.000000, 26676.000000, 630.256409, 4.000000, 4.000000, 4.000000, 4.000000, 4.000000, 4.000000, 4.000000, 4.000000, 4.000000, 4.000000, 4.000000, 4.000000, 4.000000, 4.000000, 4.000000, 4.000000
13.000000, 0.000000, 4198.461426, 4234.358887, 4187.179199, 4220.000000, 4212.820313, 4187.179199, 4188.717773, 4178.974121, 4193.333008, 4198.974121, 4187.692383, 4186.153809, 4195.384277, 4193.333008, 3478.000000, 8192.000000, 8146.000000, 0.000000, 0.000000, 0.000000, 26676.000000, 638.461548, 4.000000, 4.000000, 4.000000, 4.000000, 4.000000, 4.000000, 4.000000, 4.000000, 4.000000, 4.000000, 4.000000, 4.000000, 4.000000, 4.000000, 4.000000, 4.000000
14.000000, 0.000000, 4198.974121, 4233.846191, 4191.281738, 4215.897461, 4213.333008, 4185.127930, 4186.153809, 4190.256348, 4206.153809, 4202.563965, 4192.820313, 4187.692383, 4196.410156, 4196.410156, 3052.000000, 8192.000000, 8146.000000, 0.000000, 0.000000, 0.000000, 26676.000000, 646.153809, 4.000000, 4.000000, 4.000000, 4.000000, 4.000000, 4.000000, 4.000000, 4.000000, 4.000000, 4.000000, 4.000000, 4.000000, 4.000000, 4.000000, 4.000000, 4.000000
15.000000, 0.000000, 4205.641113, 4231.281738, 4191.794922, 4211.281738, 4216.410156, 4194.358887, 4188.205078, 4203.076660, 4205.641113, 4210.256348, 4200.512695, 4192.307617, 4199.487305, 4201.025391, 3557.000000, 8185.000000, 8153.000000, 0.000000, 0.000000, 0.000000, 26676.000000, 654.358948, 4.000000, 4.000000, 4.000000, 4.000000, 4.000000, 4.000000, 4.000000, 4.000000, 4.000000, 4.000000, 4.000000, 4.000000, 4.000000, 4.000000, 4.000000, 4.000000
16.000000, 0.000000, 4205.127930, 4232.307617, 4188.717773, 4220.000000, 4217.948730, 4204.102539, 4198.974121, 4203.589844, 4203.589844, 4220.512695, 4206.666504, 4192.820313, 4206.153809, 4205.641113, 0.000000, 8185.000000, 8153.000000, 0.000000, 0.000000, 0.000000, 26676.000000, 662.051270, 4.000000, 4.000000, 4.000000, 4.000000, 4.000000, 4.000000, 4.000000, 4.000000, 4.000000, 4.000000, 4.000000, 4.000000, 4.000000, 4.000000, 4.000000, 4.000000
17.000000, 0.000000, 4193.846191, 4223.589844, 4180.000000, 4213.333008, 4208.717773, 4193.333008, 4201.025391, 4200.000000, 4206.666504, 4218.974121, 4201.025391, 4180.512695, 4201.025391, 4195.897461, 0.000000, 8184.000000, 8178.000000, 0.000000, 0.000000, 0.000000, 26676.000000, 669.743591, 4.000000, 4.000000, 4.000000, 4.000000, 4.000000, 4.000000, 4.000000, 4.000000, 4.000000, 4.000000, 4.000000, 4.000000, 4.000000, 4.000000, 4.000000, 4.000000
18.000000, 0.000000, 4189.230469, 4209.743652, 4175.384277, 4208.205078, 4199.487305, 4187.692383, 4198.974121, 4202.051270, 4209.743652, 4209.230469, 4187.179199, 4172.820313, 4192.307617, 4187.179199, 0.000000, 8184.000000, 8178.000000, 0.000000, 0.000000, 0.000000, 26676.000000, 677.948730, 4.000000, 4.000000, 4.000000, 4.000000, 4.000000, 4.000000, 4.000000, 4.000000, 4.000000, 4.000000, 4.000000, 4.000000, 4.000000, 4.000000, 4.000000, 4.000000
19.000000, 0.000000, 4197.948730, 4211.281738, 4183.589844, 4210.256348, 4201.025391, 4201.538574, 4198.974121, 4205.641113, 4218.461426, 4213.333008, 4190.769043, 4178.461426, 4197.436035, 4197.436035, 0.000000, 8190.000000, 8191.000000, 0.000000, 0.000000, 0.000000, 26676.000000, 685.640991, 4.000000, 4.000000, 4.000000, 4.000000, 4.000000, 4.000000, 4.000000, 4.000000, 4.000000, 4.000000, 4.000000, 4.000000, 4.000000, 4.000000, 4.000000, 4.000000
20.000000, 0.000000, 4205.641113, 4218.461426, 4194.358887, 4213.333008, 4207.179199, 4205.641113, 4200.512695, 4201.025391, 4218.974121, 4217.436035, 4202.051270, 4189.743652, 4202.051270, 4204.102539, 0.000000, 8190.000000, 8191.000000, 0.000000, 0.000000, 0.000000, 26676.000000, 693.846130, 4.000000, 4.000000, 4.000000, 4.000000, 4.000000, 4.000000, 4.000000, 4.000000, 4.000000, 4.000000, 4.000000, 4.000000, 4.000000, 4.000000, 4.000000, 4.000000
21.000000, 0.000000, 4196.922852, 4212.307617, 4194.871582, 4212.820313, 4202.051270, 4193.846191, 4205.127930, 4183.076660, 4201.025391, 4206.666504, 4193.846191, 4189.230469, 4190.256348, 4190.769043, 0.000000, 8196.000000, 8203.000000, 0.000000, 0.000000, 0.000000, 26676.000000, 701.538452, 4.000000, 4.000000, 4.000000, 4.000000, 4.000000, 4.000000, 4.000000, 4.000000, 4.000000, 4.000000, 4.000000, 4.000000, 4.000000, 4.000000, 4.000000, 4.000000
22.000000, 0.000000, 4188.205078, 4202.563965, 4187.692383, 4205.641113, 4190.256348, 4186.153809, 4198.461426, 4169.743652, 4186.666504, 4198.461426, 4183.589844, 4182.563965, 4183.076660, 4185.127930, 0.000000, 8196.000000, 8203.000000, 0.000000, 0.000000, 0.000000, 26676.000000, 709.743591, 4.000000, 4.000000, 4.000000, 4.000000, 4.000000, 4.000000, 4.000000, 4.000000, 4.000000, 4.000000, 4.000000, 4.000000, 4.000000, 4.000000, 4.000000, 4.000000
23.000000, 0.000000, 4189.230469, 4195.897461, 4186.153809, 4209.743652, 4188.717773, 4189.743652, 4183.589844, 4172.820313, 4185.127930, 4198.974121, 4186.666504, 4184.615234, 4185.127930, 4188.717773, 0.000000, 8218.000000, 8223.000000, 0.000000, 0.000000, 0.000000, 26676.000000, 717.435852, 4.000000, 4.000000, 4.000000, 4.000000, 4.000000, 4.000000, 4.000000, 4.000000, 4.000000, 4.000000, 4.000000, 4.000000, 4.000000, 4.000000, 4.000000, 4.000000
24.000000, 0.000000, 4187.692383, 4188.205078, 4184.102539, 4207.692383, 4190.256348, 4190.256348, 4183.076660, 4176.410156, 4184.615234, 4195.384277, 4183.589844, 4185.127930, 4178.974121, 4184.615234, 0.000000, 8218.000000, 8223.000000, 0.000000, 0.000000, 0.000000, 26676.000000, 725.640991, 4.000000, 4.000000, 4.000000, 4.000000, 4.000000, 4.000000, 4.000000, 4.000000, 4.000000, 4.000000, 4.000000, 4.000000, 4.000000, 4.000000, 4.000000, 4.000000
25.000000, 0.000000, 4190.769043, 4188.205078, 4183.589844, 4203.589844, 4186.153809, 4177.436035, 4184.615234, 4171.794922, 4186.666504, 4188.205078, 4178.974121, 4185.641113, 4177.948730, 4184.615234, 0.000000, 8225.000000, 8233.000000, 0.000000, 0.000000, 0.000000, 26676.000000, 733.333313, 4.000000, 4.000000, 4.000000, 4.000000, 4.000000, 4.000000, 4.000000, 4.000000, 4.000000, 4.000000, 4.000000, 4.000000, 4.000000, 4.000000, 4.000000, 4.000000
26.000000, 0.000000, 4197.436035, 4197.436035, 4192.307617, 4211.794922, 4183.076660, 4169.230469, 4171.794922, 4166.153809, 4187.692383, 4184.615234, 4185.127930, 4196.410156, 4182.563965, 4192.820313, 0.000000, 8225.000000, 8233.000000, 0.000000, 0.000000, 0.000000, 26676.000000, 741.538452, 4.000000, 4.000000, 4.000000, 4.000000, 4.000000, 4.000000, 4.000000, 4.000000, 4.000000, 4.000000, 4.000000, 4.000000, 4.000000, 4.000000, 4.000000, 4.000000
27.000000, 0.000000, 4194.358887, 4204.615234, 4199.487305, 4212.820313, 4187.692383, 4180.512695, 4170.769043, 4171.281738, 4185.127930, 4179.487305, 4186.153809, 4198.974121, 4176.410156, 4194.358887, 0.000000, 8237.000000, 8236.000000, 0.000000, 0.000000, 0.000000, 26676.000000, 749.230774, 4.000000, 4.000000, 4.000000, 4.000000, 4.000000, 4.000000, 4.000000, 4.000000, 4.000000, 4.000000, 4.000000, 4.000000, 4.000000, 4.000000, 4.000000, 4.000000
28.000000, 0.000000, 4187.179199, 4196.922852, 4197.948730, 4212.820313, 4194.358887, 4186.153809, 4189.230469, 4183.076660, 4190.256348, 4173.846191, 4174.358887, 4191.794922, 4165.641113, 4186.666504, 0.000000, 8237.000000, 8236.000000, 0.000000, 0.000000, 0.000000, 26676.000000, 757.435852, 4.000000, 4.000000, 4.000000, 4.000000, 4.000000, 4.000000, 4.000000, 4.000000, 4.000000, 4.000000, 4.000000, 4.000000, 4.000000, 4.000000, 4.000000, 4.000000
29.000000, 0.000000, 4189.230469, 4185.127930, 4191.794922, 4207.179199, 4196.922852, 4185.641113, 4201.538574, 4193.846191, 4198.461426, 4183.589844, 4171.281738, 4191.794922, 4165.127930, 4184.615234, 0.000000, 8241.000000, 8234.000000, 0.000000, 0.000000, 0.000000, 26676.000000, 765.128174, 4.000000, 4.000000, 4.000000, 4.000000, 4.000000, 4.000000, 4.000000, 4.000000, 4.000000, 4.000000, 4.000000, 4.000000, 4.000000, 4.000000, 4.000000, 4.000000
30.000000, 0.000000, 4202.051270, 4187.692383, 4189.743652, 4205.641113, 4195.384277, 4197.436035, 4204.615234, 4203.589844, 4206.666504, 4201.025391, 4184.102539, 4198.974121, 4175.384277, 4195.384277, 0.000000, 8241.000000, 8234.000000, 0.000000, 0.000000, 0.000000, 26676.000000, 773.333313, 4.000000, 4.000000, 4.000000, 4.000000, 4.000000, 4.000000, 4.000000, 4.000000, 4.000000, 4.000000, 4.000000, 4.000000, 4.000000, 4.000000, 4.000000, 4.000000
31.000000, 0.000000, 4198.974121, 4186.153809, 4193.333008, 4211.794922, 4189.743652, 4200.000000, 4205.127930, 4204.615234, 4213.846191, 4204.102539, 4190.769043, 4201.538574, 4177.436035, 4195.897461, 0.000000, 8249.000000, 8226.000000, 0.000000, 0.000000, 0.000000, 26676.000000, 781.025635, 4.000000, 4.000000, 4.000000, 4.000000, 4.000000, 4.000000, 4.000000, 4.000000, 4.000000, 4.000000, 4.000000, 4.000000, 4.000000, 4.000000, 4.000000, 4.000000
32.000000, 0.000000, 4184.615234, 4182.051270, 4196.410156, 4208.205078, 4185.127930, 4186.153809, 4196.410156, 4192.307617, 4209.743652, 4196.922852, 4184.615234, 4195.897461, 4174.358887, 4189.743652, 0.000000, 8249.000000, 8226.000000, 0.000000, 0.000000, 0.000000, 26676.000000, 788.717957, 4.000000, 4.000000, 4.000000, 4.000000, 4.000000, 4.000000, 4.000000, 4.000000, 4.000000, 4.000000, 4.000000, 4.000000, 4.000000, 4.000000, 4.000000, 4.000000
33.000000, 0.000000, 4194.871582, 4202.051270, 4196.410156, 4216.922852, 4189.743652, 4182.563965, 4177.948730, 4175.384277, 4194.358887, 4194.358887, 4188.205078, 4190.769043, 4185.127930, 4198.974121, 0.000000, 8262.000000, 8221.000000, 0.000000, 0.000000, 0.000000, 26676.000000, 796.923035, 4.000000, 4.000000, 4.000000, 4.000000, 4.000000, 4.000000, 4.000000, 4.000000, 4.000000, 4.000000, 4.000000, 4.000000, 4.000000, 4.000000, 4.000000, 4.000000
34.000000, 0.000000, 4210.769043, 4225.127930, 4195.897461, 4225.641113, 4201.538574, 4186.666504, 4171.794922, 4168.717773, 4185.641113, 4198.461426, 4199.487305, 4193.333008, 4195.897461, 4208.205078, 0.000000, 8262.000000, 8221.000000, 0.000000, 0.000000, 0.000000, 26676.000000, 805.128174, 4.000000, 4.000000, 4.000000, 4.000000, 4.000000, 4.000000, 4.000000, 4.000000, 4.000000, 4.000000, 4.000000, 4.000000, 4.000000, 4.000000, 4.000000, 4.000000
35.000000, 0.000000, 4207.179199, 4220.512695, 4197.948730, 4220.000000, 4204.615234, 4184.615234, 4182.563965, 4175.384277, 4189.230469, 4202.051270, 4202.051270, 4197.436035, 4191.794922, 4204.102539, 0.000000, 8265.000000, 8218.000000, 0.000000, 0.000000, 0.000000, 26676.000000, 812.820496, 4.000000, 4.000000, 4.000000, 4.000000, 4.000000, 4.000000, 4.000000, 4.000000, 4.000000, 4.000000, 4.000000, 4.000000, 4.000000, 4.000000, 4.000000, 4.000000
36.000000, 0.000000, 4200.512695, 4214.358887, 4199.487305, 4220.512695, 4200.512695, 4190.769043, 4190.769043, 4183.076660, 4195.384277, 4200.000000, 4202.563965, 4197.948730, 4190.769043, 4201.025391, 0.000000, 8265.000000, 8218.000000, 0.000000, 0.000000, 0.000000, 26676.000000, 820.512817, 4.000000, 4.000000, 4.000000, 4.000000, 4.000000, 4.000000, 4.000000, 4.000000, 4.000000, 4.000000, 4.000000, 4.000000, 4.000000, 4.000000, 4.000000, 4.000000
37.000000, 0.000000, 4206.666504, 4221.538574, 4200.512695, 4219.487305, 4203.076660, 4203.589844, 4189.230469, 4188.205078, 4198.974121, 4203.589844, 4210.256348, 4202.563965, 4200.512695, 4206.666504, 0.000000, 8273.000000, 8201.000000, 0.000000, 0.000000, 0.000000, 26676.000000, 828.717957, 4.000000, 4.000000, 4.000000, 4.000000, 4.000000, 4.000000, 4.000000, 4.000000, 4.000000, 4.000000, 4.000000, 4.000000, 4.000000, 4.000000, 4.000000, 4.000000
38.000000, 0.000000, 4207.692383, 4220.000000, 4202.563965, 4221.538574, 4203.589844, 4200.512695, 4187.179199, 4194.358887, 4198.974121, 4208.205078, 4214.871582, 4208.205078, 4200.512695, 4207.692383, 0.000000, 8273.000000, 8201.000000, 0.000000, 0.000000, 0.000000, 26676.000000, 836.410217, 4.000000, 4.000000, 4.000000, 4.000000, 4.000000, 4.000000, 4.000000, 4.000000, 4.000000, 4.000000, 4.000000, 4.000000, 4.000000, 4.000000, 4.000000, 4.000000
39.000000, 0.000000, 4201.025391, 4212.307617, 4202.563965, 4224.102539, 4201.538574, 4195.897461, 4195.897461, 4204.102539, 4202.563965, 4206.666504, 4208.717773, 4203.589844, 4194.358887, 4203.589844, 0.000000, 8276.000000, 8197.000000, 0.000000, 0.000000, 0.000000, 26676.000000, 844.615356, 4.000000, 4.000000, 4.000000, 4.000000, 4.000000, 4.000000, 4.000000, 4.000000, 4.000000, 4.000000, 4.000000, 4.000000, 4.000000, 4.000000, 4.000000, 4.000000
40.000000, 0.000000, 4198.461426, 4212.307617, 4199.487305, 4219.487305, 4202.051270, 4201.538574, 4206.153809, 4209.230469, 4211.281738, 4208.717773, 4205.127930, 4201.025391, 4194.358887, 4202.051270, 0.000000, 8276.000000, 8197.000000, 0.000000, 0.000000, 0.000000, 26676.000000, 852.820496, 4.000000, 4.000000, 4.000000, 4.000000, 4.000000, 4.000000, 4.000000, 4.000000, 4.000000, 4.000000, 4.000000, 4.000000, 4.000000, 4.000000, 4.000000, 4.000000
41.000000, 0.000000, 4196.410156, 4211.794922, 4195.384277, 4219.487305, 4201.538574, 4200.000000, 4206.666504, 4205.641113, 4211.281738, 4216.922852, 4207.179199, 4205.127930, 4196.410156, 4200.512695, 0.000000, 8282.000000, 8183.000000, 0.000000, 0.000000, 0.000000, 26676.000000, 860.512817, 4.000000, 4.000000, 4.000000, 4.000000, 4.000000, 4.000000, 4.000000, 4.000000, 4.000000, 4.000000, 4.000000, 4.000000, 4.000000, 4.000000, 4.000000, 4.000000
42.000000, 0.000000, 4199.487305, 4214.358887, 4196.922852, 4216.922852, 4201.538574, 4200.512695, 4194.871582, 4196.922852, 4211.794922, 4217.948730, 4211.281738, 4205.641113, 4198.974121, 4202.051270, 0.000000, 8282.000000, 8183.000000, 0.000000, 0.000000, 0.000000, 26676.000000, 868.717957, 4.000000, 4.000000, 4.000000, 4.000000, 4.000000, 4.000000, 4.000000, 4.000000, 4.000000, 4.000000, 4.000000, 4.000000, 4.000000, 4.000000, 4.000000, 4.000000
43.000000, 0.000000, 4204.615234, 4216.410156, 4201.538574, 4220.000000, 4203.589844, 4212.307617, 4195.384277, 4197.948730, 4215.897461, 4214.871582, 4215.897461, 4205.641113, 4202.051270, 4208.205078, 0.000000, 8272.000000, 8183.000000, 0.000000, 0.000000, 0.000000, 26676.000000, 876.410217, 4.000000, 4.000000, 4.000000, 4.000000, 4.000000, 4.000000, 4.000000, 4.000000, 4.000000, 4.000000, 4.000000, 4.000000, 4.000000, 4.000000, 4.000000, 4.000000
44.000000, 0.000000, 4198.974121, 4209.743652, 4195.897461, 4217.948730, 4202.051270, 4211.281738, 4210.769043, 4211.281738, 4211.794922, 4215.897461, 4213.846191, 4205.641113, 4197.436035, 4204.102539, 0.000000, 8272.000000, 8183.000000, 0.000000, 0.000000, 0.000000, 26676.000000, 884.615356, 4.000000, 4.000000, 4.000000, 4.000000, 4.000000, 4.000000, 4.000000, 4.000000, 4.000000, 4.000000, 4.000000, 4.000000, 4.000000, 4.000000, 4.000000, 4.000000
45.000000, 0.000000, 4191.281738, 4205.641113, 4188.205078, 4206.666504, 4202.051270, 4201.025391, 4212.307617, 4210.769043, 4202.051270, 4210.769043, 4203.076660, 4195.897461, 4188.717773, 4190.769043, 0.000000, 8268.000000, 8183.000000, 0.000000, 0.000000, 0.000000, 26676.000000, 892.307678, 4.000000, 4.000000, 4.000000, 4.000000, 4.000000, 4.000000, 4.000000, 4.000000, 4.000000, 4.000000, 4.000000, 4.000000, 4.000000, 4.000000, 4.000000, 4.000000
46.000000, 0.000000, 4193.846191, 4211.794922, 4190.256348, 4210.256348, 4208.205078, 4202.563965, 4202.051270, 4196.922852, 4197.948730, 4200.512695, 4196.922852, 4187.179199, 4183.589844, 4189.743652, 0.000000, 8268.000000, 8183.000000, 0.000000, 0.000000, 0.000000, 26676.000000, 900.512817, 4.000000, 4.000000, 4.000000, 4.000000, 4.000000, 4.000000, 4.000000, 4.000000, 4.000000, 4.000000, 4.000000, 4.000000, 4.000000, 4.000000, 4.000000, 4.000000
47.000000, 0.000000, 4198.974121, 4219.487305, 4189.230469, 4208.717773, 4214.871582, 4208.717773, 4201.025391, 4200.000000, 4205.641113, 4199.487305, 4198.974121, 4186.153809, 4184.615234, 4200.512695, 0.000000, 8251.000000, 8185.000000, 0.000000, 0.000000, 0.000000, 26676.000000, 908.205078, 4.000000, 4.000000, 4.000000, 4.000000, 4.000000, 4.000000, 4.000000, 4.000000, 4.000000, 4.000000, 4.000000, 4.000000, 4.000000, 4.000000, 4.000000, 4.000000
48.000000, 0.000000, 4202.563965, 4222.051270, 4185.127930, 4210.256348, 4218.461426, 4214.358887, 4212.307617, 4219.487305, 4216.922852, 4203.589844, 4201.538574, 4190.769043, 4187.179199, 4198.974121, 0.000000, 8251.000000, 8185.000000, 0.000000, 0.000000, 0.000000, 26676.000000, 916.410217, 4.000000, 4.000000, 4.000000, 4.000000, 4.000000, 4.000000, 4.000000, 4.000000, 4.000000, 4.000000, 4.000000, 4.000000, 4.000000, 4.000000, 4.000000, 4.000000
49.000000, 0.000000, 4201.538574, 4220.512695, 4188.205078, 4214.871582, 4216.410156, 4216.410156, 4214.871582, 4221.538574, 4214.358887, 4204.615234, 4198.461426, 4194.358887, 4184.102539, 4190.769043, 0.000000, 8242.000000, 8186.000000, 0.000000, 0.000000, 0.000000, 26676.000000, 924.102539, 4.000000, 4.000000, 4.000000, 4.000000, 4.000000, 4.000000, 4.000000, 4.000000, 4.000000, 4.000000, 4.000000, 4.000000, 4.000000, 4.000000, 4.000000, 4.000000
50.000000, 0.000000, 4196.922852, 4218.461426, 4192.307617, 4206.153809, 4211.281738, 4208.205078, 4205.127930, 4203.589844, 4203.076660, 4195.897461, 4190.256348, 4191.281738, 4175.384277, 4188.205078, 0.000000, 8242.000000, 8186.000000, 0.000000, 0.000000, 0.000000, 26676.000000, 932.307678, 4.000000, 4.000000, 4.000000, 4.000000, 4.000000, 4.000000, 4.000000, 4.000000, 4.000000, 4.000000, 4.000000, 4.000000, 4.000000, 4.000000, 4.000000, 4.000000
51.000000, 0.000000, 4196.410156, 4217.436035, 4186.666504, 4205.641113, 4203.589844, 4198.461426, 4195.384277, 4199.487305, 4197.436035, 4184.615234, 4183.589844, 4186.153809, 4168.205078, 4183.076660, 0.000000, 8226.000000, 8176.000000, 0.000000, 0.000000, 0.000000, 26676.000000, 940.000000, 4.000000, 4.000000, 4.000000, 4.000000, 4.000000, 4.000000, 4.000000, 4.000000, 4.000000, 4.000000, 4.000000, 4.000000, 4.000000, 4.000000, 4.000000, 4.000000
52.000000, 0.000000, 4198.461426, 4216.410156, 4178.974121, 4204.102539, 4202.051270, 4199.487305, 4193.333008, 4202.563965, 4194.358887, 4184.615234, 4183.589844, 4180.512695, 4167.692383, 4176.922852, 0.000000, 8226.000000, 8176.000000, 0.000000, 0.000000, 0.000000, 26676.000000, 948.205078, 4.000000, 4.000000, 4.000000, 4.000000, 4.000000, 4.000000, 4.000000, 4.000000, 4.000000, 4.000000, 4.000000, 4.000000, 4.000000, 4.000000, 4.000000, 4.000000
53.000000, 0.000000, 4206.153809, 4218.461426, 4185.641113, 4203.076660, 4211.281738, 4202.563965, 4193.333008, 4190.256348, 4189.230469, 4188.717773, 4185.127930, 4183.589844, 4171.281738, 4182.051270, 0.000000, 8222.000000, 8168.000000, 0.000000, 0.000000, 0.000000, 26676.000000, 955.897400, 4.000000, 4.000000, 4.000000, 4.000000, 4.000000, 4.000000, 4.000000, 4.000000, 4.000000, 4.000000, 4.000000, 4.000000, 4.000000, 4.000000, 4.000000, 4.000000
54.000000, 0.000000, 4215.897461, 4229.743652, 4197.436035, 4208.205078, 4214.871582, 4202.563965, 4185.641113, 4180.000000, 4190.256348, 4182.051270, 4186.666504, 4191.794922, 4172.307617, 4188.717773, 0.000000, 8222.000000, 8168.000000, 0.000000, 0.000000, 0.000000, 26676.000000, 964.102539, 4.000000, 4.000000, 4.000000, 4.000000, 4.000000, 4.000000, 4.000000, 4.000000, 4.000000, 4.000000, 4.000000, 4.000000, 4.000000, 4.000000, 4.000000, 4.000000
55.000000, 0.000000, 4214.871582, 4231.281738, 4194.358887, 4204.102539, 4208.717773, 4204.102539, 4184.615234, 4186.666504, 4196.922852, 4179.487305, 4188.205078, 4191.794922, 4171.794922, 4186.666504, 0.000000, 8211.000000, 8161.000000, 0.000000, 0.000000, 0.000000, 26676.000000, 971.794861, 4.000000, 4.000000, 4.000000, 4.000000, 4.000000, 4.000000, 4.000000, 4.000000, 4.000000, 4.000000, 4.000000, 4.000000, 4.000000, 4.000000, 4.000000, 4.000000
56.000000, 0.000000, 4203.076660, 4218.461426, 4184.102539, 4204.615234, 4204.102539, 4206.153809, 4189.743652, 4188.717773, 4196.410156, 4183.076660, 4181.025391, 4184.615234, 4171.281738, 4181.538574, 0.000000, 8211.000000, 8161.000000, 0.000000, 0.000000, 0.000000, 26676.000000, 980.000000, 4.000000, 4.000000, 4.000000, 4.000000, 4.000000, 4.000000, 4.000000, 4.000000, 4.000000, 4.000000, 4.000000, 4.000000, 4.000000, 4.000000, 4.000000, 4.000000
57.000000, 0.000000, 4195.897461, 4213.333008, 4180.512695, 4199.487305, 4201.538574, 4204.615234, 4196.922852, 4181.025391, 4189.743652, 4174.358887, 4171.794922, 4178.974121, 4166.153809, 4177.436035, 0.000000, 8199.000000, 8149.000000, 0.000000, 0.000000, 0.000000, 26676.000000, 988.205078, 4.000000, 4.000000, 4.000000, 4.000000, 4.000000, 4.000000, 4.000000, 4.000000, 4.000000, 4.000000, 4.000000, 4.000000, 4.000000, 4.000000, 4.000000, 4.000000
58.000000, 0.000000, 4197.948730, 4217.436035, 4184.102539, 4196.410156, 4202.051270, 4197.436035, 4198.461426, 4180.512695, 4186.666504, 4168.717773, 4176.410156, 4181.025391, 4162.051270, 4176.922852, 0.000000, 8199.000000, 8149.000000, 0.000000, 0.000000, 0.000000, 26676.000000, 995.897400, 4.000000, 4.000000, 4.000000, 4.000000, 4.000000, 4.000000, 4.000000, 4.000000, 4.000000, 4.000000, 4.000000, 4.000000, 4.000000, 4.000000, 4.000000, 4.000000
59.000000, 0.000000, 4196.410156, 4215.384277, 4191.794922, 4203.076660, 4208.717773, 4195.897461, 4188.717773, 4187.179199, 4195.384277, 4180.000000, 4185.127930, 4190.256348, 4166.153809, 4183.076660, 0.000000, 8189.000000, 8145.000000, 0.000000, 0.000000, 0.000000, 26677.000000, 4.102564, 4.000000, 4.000000, 4.000000, 4.000000, 4.000000, 4.000000, 4.000000, 4.000000, 4.000000, 4.000000, 4.000000, 4.000000, 4.000000, 4.000000, 4.000000, 4.000000
60.000000, 0.000000, 4200.512695, 4217.948730, 4196.922852, 4199.487305, 4211.794922, 4202.051270, 4187.692383, 4188.717773, 4203.589844, 4190.256348, 4188.205078, 4196.922852, 4170.256348, 4191.281738, 0.000000, 8189.000000, 8145.000000, 0.000000, 0.000000, 0.000000, 26677.000000, 11.794871, 4.000000, 4.000000, 4.000000, 4.000000, 4.000000, 4.000000, 4.000000, 4.000000, 4.000000, 4.000000, 4.000000, 4.000000, 4.000000, 4.000000, 4.000000, 4.000000
61.000000, 0.000000, 4212.307617, 4226.153809, 4195.384277, 4198.974121, 4204.615234, 4202.051270, 4204.102539, 4184.615234, 4200.000000, 4188.205078, 4189.743652, 4197.948730, 4173.333008, 4197.948730, 0.000000, 8183.000000, 8147.000000, 0.000000, 0.000000, 0.000000, 26677.000000, 20.000000, 4.000000, 4.000000, 4.000000, 4.000000, 4.000000, 4.000000, 4.000000, 4.000000, 4.000000, 4.000000, 4.000000, 4.000000, 4.000000, 4.000000, 4.000000, 4.000000
62.000000, 0.000000, 4212.307617, 4224.615234, 4197.436035, 4200.512695, 4204.615234, 4202.563965, 4205.127930, 4185.127930, 4202.563965, 4190.769043, 4193.846191, 4202.051270, 4180.512695, 4205.641113, 0.000000, 8183.000000, 8147.000000, 0.000000, 0.000000, 0.000000, 26677.000000, 27.692307, 4.000000, 4.000000, 4.000000, 4.000000, 4.000000, 4.000000, 4.000000, 4.000000, 4.000000, 4.000000, 4.000000, 4.000000, 4.000000, 4.000000, 4.000000, 4.000000
63.000000, 0.000000, 4212.307617, 4220.512695, 4204.615234, 4198.461426, 4200.000000, 4202.051270, 4186.153809, 4187.179199, 4205.127930, 4190.769043, 4197.436035, 4203.589844, 4183.076660, 4206.153809, 0.000000, 8180.000000, 8147.000000, 0.000000, 0.000000, 0.000000, 26677.000000, 35.897434, 4.000000, 4.000000, 4.000000, 4.000000, 4.000000, 4.000000, 4.000000, 4.000000, 4.000000, 4.000000, 4.000000, 4.000000, 4.000000, 4.000000, 4.000000, 4.000000
64.000000, 0.000000, 4220.512695, 4225.127930, 4207.179199, 4203.076660, 4187.179199, 4195.897461, 4186.666504, 4184.102539, 4197.948730, 4185.127930, 4197.436035, 4200.000000, 4178.974121, 4202.563965, 3490.000000, 8180.000000, 8147.000000, 0.000000, 0.000000, 0.000000, 26677.000000, 43.589741, 4.000000, 4.000000, 4.000000, 4.000000, 4.000000, 4.000000, 4.000000, 4.000000, 4.000000, 4.000000, 4.000000, 4.000000, 4.000000, 4.000000, 4.000000, 4.000000
65.000000, 0.000000, 4225.641113, 4234.358887, 4209.743652, 4203.076660, 4201.025391, 4203.076660, 4205.641113, 4190.769043, 4201.538574, 4195.384277, 4205.127930, 4207.179199, 4184.615234, 4208.717773, 2207.000000, 8179.000000, 8144.000000, 0.000000, 0.000000, 0.000000, 26677.000000, 51.794872, 4.000000, 4.000000, 4.000000, 4.000000, 4.000000, 4.000000, 4.000000, 4.000000, 4.000000, 4.000000, 4.000000, 4.000000, 4.000000, 4.000000, 4.000000, 4.000000
66.000000, 0.000000, 4228.205078, 4239.487305, 4213.846191, 4206.153809, 4225.127930, 4215.384277, 4205.641113, 4201.538574, 4211.281738, 4205.127930, 4212.307617, 4220.000000, 4194.358887, 4213.333008, 3085.000000, 8179.000000, 8144.000000, 0.000000, 0.000000, 0.000000, 26677.000000, 59.487179, 4.000000, 4.000000, 4.000000, 4.000000, 4.000000, 4.000000, 4.000000, 4.000000, 4.000000, 4.000000, 4.000000, 4.000000, 4.000000, 4.000000, 4.000000, 4.000000
67.000000, 0.000000, 4226.153809, 4238.461426, 4210.769043, 4205.127930, 4223.589844, 4211.794922, 4197.436035, 4198.461426, 4210.769043, 4200.512695, 4206.666504, 4217.436035, 4194.871582, 4211.281738, 3548.000000, 8163.000000, 8156.000000, 0.000000, 0.000000, 0.000000, 26677.000000, 67.692307, 4.000000, 4.000000, 4.000000, 4.000000, 4.000000, 4.000000, 4.000000, 4.000000, 4.000000, 4.000000, 4.000000, 4.000000, 4.000000, 4.000000, 4.000000, 4.000000
68.000000, 0.000000, 4221.538574, 4235.384277, 4211.794922, 4204.615234, 4218.461426, 4213.333008, 4207.692383, 4201.025391, 4213.846191, 4205.127930, 4207.692383, 4212.820313, 4195.384277, 4213.846191, 3539.000000, 8163.000000, 8156.000000, 0.000000, 0.000000, 0.000000, 26677.000000, 75.897430, 4.000000, 4.000000, 4.000000, 4.000000, 4.000000, 4.000000, 4.000000, 4.000000, 4.000000, 4.000000, 4.000000, 4.000000, 4.000000, 4.000000, 4.000000, 4.000000
69.000000, 0.000000, 4223.076660, 4234.871582, 4215.384277, 4213.333008, 4224.102539, 4217.948730, 4216.410156, 4211.794922, 4221.538574, 4212.307617, 4216.410156, 4217.436035, 4197.948730, 4214.358887, 3580.000000, 8171.000000, 8156.000000, 0.000000, 0.000000, 0.000000, 26677.000000, 83.589745, 4.000000, 4.000000, 4.000000, 4.000000, 4.000000, 4.000000, 4.000000, 4.000000, 4.000000, 4.000000, 4.000000, 4.000000, 4.000000, 4.000000, 4.000000, 4.000000
70.000000, 0.000000, 4225.127930, 4235.384277, 4207.179199, 4205.127930, 4215.897461, 4207.692383, 4209.743652, 4210.769043, 4219.487305, 4204.102539, 4210.256348, 4212.307617, 4190.769043, 4203.589844, 3502.000000, 8171.000000, 8156.000000, 0.000000, 0.000000, 0.000000, 26677.000000, 91.282051, 4.000000, 4.000000, 4.000000, 4.000000, 4.000000, 4.000000, 4.000000, 4.000000, 4.000000, 4.000000, 4.000000, 4.000000, 4.000000, 4.000000, 4.000000, 4.000000
71.000000, 0.000000, 4220.512695, 4231.281738, 4197.436035, 4200.000000, 4206.666504, 4202.051270, 4207.179199, 4210.256348, 4216.922852, 4202.051270, 4196.922852, 4202.563965, 4183.589844, 4196.922852, 3505.000000, 8179.000000, 8160.000000, 0.000000, 0.000000, 0.000000, 26677.000000, 99.487175, 4.000000, 4.000000, 4.000000, 4.000000, 4.000000, 4.000000, 4.000000, 4.000000, 4.000000, 4.000000, 4.000000, 4.000000, 4.000000, 4.000000, 4.000000, 4.000000
72.000000, 0.000000, 4221.538574, 4232.307617, 4199.487305, 4202.051270, 4217.948730, 4213.846191, 4209.230469, 4213.846191, 4215.897461, 4213.846191, 4200.512695, 4205.127930, 4190.769043, 4204.615234, 3342.000000, 8179.000000, 8160.000000, 0.000000, 0.000000, 0.000000, 26677.000000, 107.692307, 4.000000, 4.000000, 4.000000, 4.000000, 4.000000, 4.000000, 4.000000, 4.000000, 4.000000, 4.000000, 4.000000, 4.000000, 4.000000, 4.000000, 4.000000, 4.000000
73.000000, 0.000000, 4225.641113, 4232.307617, 4200.000000, 4196.922852, 4220.512695, 4218.974121, 4204.102539, 4202.051270, 4206.666504, 4213.846191, 4209.230469, 4205.641113, 4197.436035, 4211.281738, 3541.000000, 8180.000000, 8171.000000, 0.000000, 0.000000, 0.000000, 26677.000000, 115.384613, 4.000000, 4.000000, 4.000000, 4.000000, 4.000000, 4.000000, 4.000000, 4.000000, 4.000000, 4.000000, 4.000000, 4.000000, 4.000000, 4.000000, 4.000000, 4.000000
74.000000, 0.000000, 4217.948730, 4221.025391, 4189.230469, 4195.384277, 4202.051270, 4212.820313, 4200.000000, 4185.641113, 4201.025391, 4200.000000, 4198.461426, 4198.974121, 4184.102539, 4201.025391, 3061.000000, 8180.000000, 8171.000000, 0.000000, 0.000000, 0.000000, 26677.000000, 123.589737, 4.000000, 4.000000, 4.000000, 4.000000, 4.000000, 4.000000, 4.000000, 4.000000, 4.000000, 4.000000, 4.000000, 4.000000, 4.000000, 4.000000, 4.000000, 4.000000
75.000000, 0.000000, 4207.692383, 4211.281738, 4186.666504, 4191.794922, 4196.922852, 4207.179199, 4197.436035, 4189.743652, 4201.538574, 4191.794922, 4185.641113, 4196.922852, 4170.256348, 4188.205078, 3559.000000, 8197.000000, 8166.000000, 0.000000, 0.000000, 0.000000, 26677.000000, 131.282043, 4.000000, 4.000000, 4.000000, 4.000000, 4.000000, 4.000000, 4.000000, 4.000000, 4.000000, 4.000000, 4.000000, 4.000000, 4.000000, 4.000000, 4.000000, 4.000000
76.000000, 0.000000, 4212.307617, 4213.333008, 4197.436035, 4194.358887, 4211.794922, 4203.589844, 4185.641113, 4197.436035, 4200.512695, 4196.410156, 4193.846191, 4203.076660, 4176.922852, 4194.871582, 3528.000000, 8197.000000, 8166.000000, 0.000000, 0.000000, 0.000000, 26677.000000, 139.487183, 4.000000, 4.000000, 4.000000, 4.000000, 4.000000, 4.000000, 4.000000, 4.000000, 4.000000, 4.000000, 4.000000, 4.000000, 4.000000, 4.000000, 4.000000, 4.000000
77.000000, 0.000000, 4224.102539, 4221.025391, 4204.615234, 4196.922852, 4212.307617, 4203.076660, 4178.974121, 4187.179199, 4198.461426, 4201.538574, 4205.127930, 4203.589844, 4190.769043, 4209.230469, 3478.000000, 8201.000000, 8162.000000, 0.000000, 0.000000, 0.000000, 26677.000000, 147.179489, 4.000000, 4.000000, 4.000000, 4.000000, 4.000000, 4.000000, 4.000000, 4.000000, 4.000000, 4.000000, 4.000000, 4.000000, 4.000000, 4.000000, 4.000000, 4.000000
78.000000, 0.000000, 4219.487305, 4216.922852, 4199.487305, 4192.307617, 4198.461426, 4199.487305, 4190.256348, 4170.256348, 4186.666504, 4192.307617, 4192.307617, 4191.281738, 4183.589844, 4201.025391, 3061.000000, 8201.000000, 8162.000000, 0.000000, 0.000000, 0.000000, 26677.000000, 155.384613, 4.000000, 4.000000, 4.000000, 4.000000, 4.000000, 4.000000, 4.000000, 4.000000, 4.000000, 4.000000, 4.000000, 4.000000, 4.000000, 4.000000, 4.000000, 4.000000
79.000000, 0.000000, 4204.615234, 4205.127930, 4189.230469, 4192.820313, 4196.922852, 4199.487305, 4200.512695, 4165.127930, 4178.461426, 4180.000000, 4176.410156, 4182.051270, 4165.641113, 4182.563965, 3559.000000, 8200.000000, 8164.000000, 0.000000, 0.000000, 0.000000, 26677.000000, 163.076920, 4.000000, 4.000000, 4.000000, 4.000000, 4.000000, 4.000000, 4.000000, 4.000000, 4.000000, 4.000000, 4.000000, 4.000000, 4.000000, 4.000000, 4.000000, 4.000000
80.000000, 0.000000, 4197.436035, 4200.512695, 4185.127930, 4187.179199, 4202.051270, 4205.641113, 4196.922852, 4178.461426, 4191.281738, 4179.487305, 4180.000000, 4182.051270, 4164.615234, 4180.512695, 3528.000000, 8200.000000, 8164.000000, 0.000000, 0.000000, 0.000000, 26677.000000, 171.282043, 4.000000, 4.000000, 4.000000, 4.000000, 4.000000, 4.000000, 4.000000, 4.000000, 4.000000, 4.000000, 4.000000, 4.000000, 4.000000, 4.000000, 4.000000, 4.000000
81.000000, 0.000000, 4196.410156, 4198.974121, 4186.153809, 4187.179199, 4196.922852, 4201.025391, 4191.281738, 4189.743652, 4203.589844, 4180.512695, 4183.076660, 4184.615234, 4170.769043, 4183.076660, 3478.000000, 8215.000000, 8157.000000, 0.000000, 0.000000, 0.000000, 26677.000000, 179.487183, 4.000000, 4.000000, 4.000000, 4.000000, 4.000000, 4.000000, 4.000000, 4.000000, 4.000000, 4.000000, 4.000000, 4.000000, 4.000000, 4.000000, 4.000000, 4.000000
82.000000, 0.000000, 4197.436035, 4199.487305, 4191.281738, 4194.358887, 4200.512695, 4204.615234, 4200.512695, 4186.666504, 4198.461426, 4182.051270, 4179.487305, 4187.692383, 4170.256348, 4181.025391, 3061.000000, 8215.000000, 8157.000000, 0.000000, 0.000000, 0.000000, 26677.000000, 187.179489, 4.000000, 4.000000, 4.000000, 4.000000, 4.000000, 4.000000, 4.000000, 4.000000, 4.000000, 4.000000, 4.000000, 4.000000, 4.000000, 4.000000, 4.000000, 4.000000
83.000000, 0.000000, 4206.153809, 4210.256348, 4197.436035, 4193.846191, 4214.358887, 4217.948730, 4210.769043, 4186.666504, 4198.974121, 4191.794922, 4188.717773, 4190.769043, 4175.384277, 4185.641113, 3559.000000, 8220.000000, 8146.000000, 0.000000, 0.000000, 0.000000, 26677.000000, 195.384613, 4.000000, 4.000000, 4.000000, 4.000000, 4.000000, 4.000000, 4.000000, 4.000000, 4.000000, 4.000000, 4.000000, 4.000000, 4.000000, 4.000000, 4.000000, 4.000000
84.000000, 0.000000, 4213.846191, 4215.384277, 4201.025391, 4200.000000, 4213.333008, 4210.256348, 4201.025391, 4190.256348, 4198.974121, 4198.974121, 4196.922852, 4190.769043, 4183.076660, 4190.256348, 3528.000000, 8220.000000, 8146.000000, 0.000000, 0.000000, 0.000000, 26677.000000, 203.076920, 4.000000, 4.000000, 4.000000, 4.000000, 4.000000, 4.000000, 4.000000, 4.000000, 4.000000, 4.000000, 4.000000, 4.000000, 4.000000, 4.000000, 4.000000, 4.000000
85.000000, 0.000000, 4212.820313, 4208.205078, 4202.051270, 4199.487305, 4204.102539, 4194.871582, 4190.769043, 4182.563965, 4189.743652, 4196.922852, 4189.743652, 4191.794922, 4184.102539, 4188.717773, 3478.000000, 8222.000000, 8147.000000, 0.000000, 0.000000, 0.000000, 26677.000000, 211.282043, 4.000000, 4.000000, 4.000000, 4.000000, 4.000000, 4.000000, 4.000000, 4.000000, 4.000000, 4.000000, 4.000000, 4.000000, 4.000000, 4.000000, 4.000000, 4.000000
86.000000, 0.000000, 4213.846191, 4209.230469, 4200.512695, 4197.436035, 4205.127930, 4199.487305, 4197.436035, 4174.871582, 4192.307617, 4195.897461, 4189.743652, 4197.948730, 4184.102539, 4194.358887, 3061.000000, 8222.000000, 8147.000000, 0.000000, 0.000000, 0.000000, 26677.000000, 218.974350, 4.000000, 4.000000, 4.000000, 4.000000, 4.000000, 4.000000, 4.000000, 4.000000, 4.000000, 4.000000, 4.000000, 4.000000, 4.000000, 4.000000, 4.000000, 4.000000
87.000000, 0.000000, 4211.281738, 4210.769043, 4191.794922, 4199.487305, 4207.179199, 4203.589844, 4202.051270, 4183.589844, 4203.076660, 4197.948730, 4199.487305, 4203.076660, 4185.641113, 4203.589844, 3559.000000, 8224.000000, 8158.000000, 0.000000, 0.000000, 0.000000, 26677.000000, 227.179489, 4.000000, 4.000000, 4.000000, 4.000000, 4.000000, 4.000000, 4.000000, 4.000000, 4.000000, 4.000000, 4.000000, 4.000000, 4.000000, 4.000000, 4.000000, 4.000000
88.000000, 0.000000, 4207.179199, 4204.102539, 4185.127930, 4191.794922, 4200.000000, 4191.281738, 4197.436035, 4190.256348, 4202.563965, 4196.922852, 4195.384277, 4198.974121, 4184.102539, 4197.436035, 3528.000000, 8224.000000, 8158.000000, 0.000000, 0.000000, 0.000000, 26677.000000, 234.871796, 4.000000, 4.000000, 4.000000, 4.000000, 4.000000, 4.000000, 4.000000, 4.000000, 4.000000, 4.000000, 4.000000, 4.000000, 4.000000, 4.000000, 4.000000, 4.000000
89.000000, 0.000000, 4208.717773, 4205.641113, 4187.692383, 4193.333008, 4196.410156, 4182.563965, 4193.846191, 4187.179199, 4198.974121, 4195.384277, 4186.666504, 4190.769043, 4183.076660, 4188.717773, 3478.000000, 8216.000000, 8170.000000, 0.000000, 0.000000, 0.000000, 26677.000000, 243.076920, 4.000000, 4.000000, 4.000000, 4.000000, 4.000000, 4.000000, 4.000000, 4.000000, 4.000000, 4.000000, 4.000000, 4.000000, 4.000000, 4.000000, 4.000000, 4.000000
90.000000, 0.000000, 4208.717773, 4210.256348, 4188.205078, 4193.846191, 4203.076660, 4190.256348, 4192.820313, 4187.179199, 4202.563965, 4198.974121, 4189.743652, 4186.153809, 4182.563965, 4189.743652, 3061.000000, 8216.000000, 8170.000000, 0.000000, 0.000000, 0.000000, 26677.000000, 251.282043, 4.000000, 4.000000, 4.000000, 4.000000, 4.000000, 4.000000, 4.000000, 4.000000, 4.000000, 4.000000, 4.000000, 4.000000, 4.000000, 4.000000, 4.000000, 4.000000
91.000000, 0.000000, 4204.615234, 4203.076660, 4180.512695, 4189.230469, 4207.179199, 4201.538574, 4190.769043, 4191.281738, 4201.025391, 4201.538574, 4189.743652, 4186.666504, 4175.384277, 4184.615234, 3559.000000, 8219.000000, 8153.000000, 0.000000, 0.000000, 0.000000, 26677.000000, 258.974365, 4.000000, 4.000000, 4.000000, 4.000000, 4.000000, 4.000000, 4.000000, 4.000000, 4.000000, 4.000000, 4.000000, 4.000000, 4.000000, 4.000000, 4.000000, 4.000000
92.000000, 0.000000, 4200.512695, 4195.897461, 4172.307617, 4189.230469, 4203.589844, 4195.384277, 4193.333008, 4189.230469, 4197.948730, 4197.948730, 4185.127930, 4185.127930, 4170.256348, 4172.820313, 3528.000000, 8219.000000, 8153.000000, 0.000000, 0.000000, 0.000000, 26677.000000, 267.179474, 4.000000, 4.000000, 4.000000, 4.000000, 4.000000, 4.000000, 4.000000, 4.000000, 4.000000, 4.000000, 4.000000, 4.000000, 4.000000, 4.000000, 4.000000, 4.000000
93.000000, 0.000000, 4196.410156, 4198.974121, 4169.743652, 4183.076660, 4198.974121, 4186.666504, 4203.589844, 4187.179199, 4206.153809, 4195.897461, 4186.153809, 4180.512695, 4171.281738, 4170.256348, 3478.000000, 8228.000000, 8140.000000, 0.000000, 0.000000, 0.000000, 26677.000000, 274.871796, 4.000000, 4.000000, 4.000000, 4.000000, 4.000000, 4.000000, 4.000000, 4.000000, 4.000000, 4.000000, 4.000000, 4.000000, 4.000000, 4.000000, 4.000000, 4.000000
94.000000, 0.000000, 4193.846191, 4200.000000, 4170.769043, 4187.179199, 4199.487305, 4194.871582, 4209.743652, 4192.307617, 4212.307617, 4196.922852, 4185.127930, 4183.076660, 4169.230469, 4172.820313, 3061.000000, 8228.000000, 8140.000000, 0.000000, 0.000000, 0.000000, 26677.000000, 283.076904, 4.000000, 4.000000, 4.000000, 4.000000, 4.000000, 4.000000, 4.000000, 4.000000, 4.000000, 4.000000, 4.000000, 4.000000, 4.000000, 4.000000, 4.000000, 4.000000
95.000000, 0.000000, 4192.820313, 4193.846191, 4172.307617, 4189.743652, 4201.538574, 4196.922852, 4196.410156, 4195.384277, 4209.743652, 4194.871582, 4181.538574, 4185.127930, 4166.153809, 4168.205078, 3559.000000, 8239.000000, 8134.000000, 0.000000, 0.000000, 0.000000, 26677.000000, 290.769226, 4.000000, 4.000000, 4.000000, 4.000000, 4.000000, 4.000000, 4.000000, 4.000000, 4.000000, 4.000000, 4.000000, 4.000000, 4.000000, 4.000000, 4.000000, 4.000000
96.000000, 0.000000, 4189.230469, 4185.641113, 4170.769043, 4184.102539, 4197.948730, 4188.205078, 4183.076660, 4186.666504, 4200.512695, 4186.153809, 4180.000000, 4175.384277, 4166.666504, 4164.102539, 3528.000000, 8239.000000, 8134.000000, 0.000000, 0.000000, 0.000000, 26677.000000, 298.974365, 4.000000, 4.000000, 4.000000, 4.000000, 4.000000, 4.000000, 4.000000, 4.000000, 4.000000, 4.000000, 4.000000, 4.000000, 4.000000, 4.000000, 4.000000, 4.000000
97.000000, 0.000000, 4185.641113, 4187.179199, 4166.666504, 4187.179199, 4194.358887, 4187.692383, 4183.589844, 4180.000000, 4188.205078, 4182.563965, 4181.025391, 4169.743652, 4171.281738, 4167.692383, 3478.000000, 8247.000000, 8141.000000, 0.000000, 0.000000, 0.000000, 26677.000000, 306.666656, 4.000000, 4.000000, 4.000000, 4.000000, 4.000000, 4.000000, 4.000000, 4.000000, 4.000000, 4.000000, 4.000000, 4.000000, 4.000000, 4.000000, 4.000000, 4.000000
98.000000, 0.000000, 4185.127930, 4189.230469, 4167.179199, 4185.641113, 4199.487305, 4190.256348, 4184.102539, 4181.538574, 4182.563965, 4189.230469, 4183.076660, 4176.922852, 4171.794922, 4170.256348, 3061.000000, 8247.000000, 8141.000000, 0.000000, 0.000000, 0.000000, 26677.000000, 314.871796, 4.000000, 4.000000, 4.000000, 4.000000, 4.000000, 4.000000, 4.000000, 4.000000, 4.000000, 4.000000, 4.000000, 4.000000, 4.000000, 4.000000, 4.000000, 4.000000
99.000000, 0.000000, 4186.666504, 4178.461426, 4181.025391, 4188.205078, 4198.974121, 4186.153809, 4186.666504, 4184.102539, 4191.281738, 4193.846191, 4187.692383, 4188.717773, 4168.717773, 4168.205078, 3559.000000, 8259.000000, 8148.000000, 0.000000, 0.000000, 0.000000, 26677.000000, 323.076904, 4.000000, 4.000000, 4.000000, 4.000000, 4.000000, 4.000000, 4.000000, 4.000000, 4.000000, 4.000000, 4.000000, 4.000000, 4.000000, 4.000000, 4.000000, 4.000000
100.000000, 0.000000, 4197.948730, 4187.692383, 4196.410156, 4195.897461, 4196.922852, 4187.179199, 4194.871582, 4192.820313, 4207.179199, 4200.000000, 4199.487305, 4200.512695, 4179.487305, 4178.461426, 3528.000000, 8259.000000, 8148.000000, 0.000000, 0.000000, 0.000000, 26677.000000, 330.769226, 4.000000, 4.000000, 4.000000, 4.000000, 4.000000, 4.000000, 4.000000, 4.000000, 4.000000, 4.000000, 4.000000, 4.000000, 4.000000, 4.000000, 4.000000, 4.000000
101.000000, 0.000000, 4208.717773, 4213.846191, 4193.846191, 4198.974121, 4201.538574, 4189.743652, 4198.461426, 4200.512695, 4210.256348, 4206.666504, 4205.641113, 4204.615234, 4192.820313, 4191.794922, 3478.000000, 8300.000000, 8145.000000, 0.000000, 0.000000, 0.000000, 26677.000000, 338.974365, 4.000000, 4.000000, 4.000000, 4.000000, 4.000000, 4.000000, 4.000000, 4.000000, 4.000000, 4.000000, 4.000000, 4.000000, 4.000000, 4.000000, 4.000000, 4.000000
102.000000, 0.000000, 4206.666504, 4215.897461, 4187.179199, 4200.512695, 4201.025391, 4184.615234, 4196.922852, 4200.000000, 4204.102539, 4203.589844, 4200.000000, 4202.563965, 4188.205078, 4188.205078, 3061.000000, 8300.000000, 8145.000000, 0.000000, 0.000000, 0.000000, 26677.000000, 346.666656, 4.000000, 4.000000, 4.000000, 4.000000, 4.000000, 4.000000, 4.000000, 4.000000, 4.000000, 4.000000, 4.000000, 4.000000, 4.000000, 4.000000, 4.000000, 4.000000
103.000000, 0.000000, 4208.205078, 4210.256348, 4196.922852, 4196.922852, 4198.461426, 4188.205078, 4198.461426, 4210.256348, 4206.666504, 4202.563965, 4199.487305, 4202.563965, 4180.000000, 4185.127930, 3559.000000, 8317.000000, 8147.000000, 0.000000, 0.000000, 0.000000, 26677.000000, 354.871796, 4.000000, 4.000000, 4.000000, 4.000000, 4.000000, 4.000000, 4.000000, 4.000000, 4.000000, 4.000000, 4.000000, 4.000000, 4.000000, 4.000000, 4.000000, 4.000000
104.000000, 0.000000, 4214.871582, 4217.436035, 4204.615234, 4201.025391, 4204.615234, 4198.974121, 4199.487305, 4214.871582, 4205.641113, 4204.102539, 4203.589844, 4204.615234, 4185.127930, 4190.769043, 3528.000000, 8317.000000, 8147.000000, 0.000000, 0.000000, 0.000000, 26677.000000, 362.564087, 4.000000, 4.000000, 4.000000, 4.000000, 4.000000, 4.000000, 4.000000, 4.000000, 4.000000, 4.000000, 4.000000, 4.000000, 4.000000, 4.000000, 4.000000, 4.000000
105.000000, 0.000000, 4212.307617, 4220.000000, 4198.461426, 4200.000000, 4206.153809, 4204.102539, 4205.641113, 4200.512695, 4198.461426, 4201.025391, 4200.512695, 4200.000000, 4187.179199, 4189.230469, 3478.000000, 8343.000000, 8145.000000, 0.000000, 0.000000, 0.000000, 26677.000000, 370.769226, 4.000000, 4.000000, 4.000000, 4.000000, 4.000000, 4.000000, 4.000000, 4.000000, 4.000000, 4.000000, 4.000000, 4.000000, 4.000000, 4.000000, 4.000000, 4.000000
106.000000, 0.000000, 4211.281738, 4213.846191, 4197.948730, 4193.333008, 4201.025391, 4201.025391, 4205.641113, 4205.127930, 4207.179199, 4198.974121, 4197.436035, 4199.487305, 4178.461426, 4186.153809, 3061.000000, 8343.000000, 8145.000000, 0.000000, 0.000000, 0.000000, 26677.000000, 378.461517, 4.000000, 4.000000, 4.000000, 4.000000, 4.000000, 4.000000, 4.000000, 4.000000, 4.000000, 4.000000, 4.000000, 4.000000, 4.000000, 4.000000, 4.000000, 4.000000
107.000000, 0.000000, 4215.897461, 4213.846191, 4203.589844, 4198.974121, 4200.000000, 4198.461426, 4189.743652, 4217.436035, 4209.743652, 4202.051270, 4194.871582, 4203.076660, 4173.333008, 4188.717773, 3559.000000, 8350.000000, 8140.000000, 0.000000, 0.000000, 0.000000, 26677.000000, 386.666656, 4.000000, 4.000000, 4.000000, 4.000000, 4.000000, 4.000000, 4.000000, 4.000000, 4.000000, 4.000000, 4.000000, 4.000000, 4.000000, 4.000000, 4.000000, 4.000000
108.000000, 0.000000, 4210.769043, 4214.871582, 4195.384277, 4197.948730, 4205.127930, 4192.820313, 4183.076660, 4202.051270, 4190.769043, 4201.538574, 4188.717773, 4195.897461, 4172.820313, 4187.692383, 3528.000000, 8350.000000, 8140.000000, 0.000000, 0.000000, 0.000000, 26677.000000, 394.871796, 4.000000, 4.000000, 4.000000, 4.000000, 4.000000, 4.000000, 4.000000, 4.000000, 4.000000, 4.000000, 4.000000, 4.000000, 4.000000, 4.000000, 4.000000, 4.000000
109.000000, 0.000000, 4203.589844, 4214.358887, 4184.615234, 4196.922852, 4206.666504, 4184.102539, 4185.641113, 4188.717773, 4186.153809, 4193.333008, 4184.102539, 4186.153809, 4177.948730, 4182.051270, 3478.000000, 8355.000000, 8131.000000, 0.000000, 0.000000, 0.000000, 26677.000000, 402.564087, 4.000000, 4.000000, 4.000000, 4.000000, 4.000000, 4.000000, 4.000000, 4.000000, 4.000000, 4.000000, 4.000000, 4.000000, 4.000000, 4.000000, 4.000000, 4.000000
110.000000, 0.000000, 4205.641113, 4213.333008, 4187.692383, 4198.974121, 4206.153809, 4189.230469, 4187.692383, 4191.281738, 4200.512695, 4188.205078, 4187.692383, 4187.692383, 4183.076660, 4181.538574, 3061.000000, 8355.000000, 8131.000000, 0.000000, 0.000000, 0.000000, 26677.000000, 410.769226, 4.000000, 4.000000, 4.000000, 4.000000, 4.000000, 4.000000, 4.000000, 4.000000, 4.000000, 4.000000, 4.000000, 4.000000, 4.000000, 4.000000, 4.000000, 4.000000
111.000000, 0.000000, 4215.384277, 4216.922852, 4196.410156, 4198.461426, 4208.205078, 4200.000000, 4190.256348, 4186.153809, 4202.051270, 4192.820313, 4195.897461, 4194.871582, 4185.641113, 4191.281738, 3559.000000, 8350.000000, 8112.000000, 0.000000, 0.000000, 0.000000, 26677.000000, 418.461517, 4.000000, 4.000000, 4.000000, 4.000000, 4.000000, 4.000000, 4.000000, 4.000000, 4.000000, 4.000000, 4.000000, 4.000000, 4.000000, 4.000000, 4.000000, 4.000000
112.000000, 0.000000, 4220.000000, 4221.538574, 4197.436035, 4206.153809, 4210.256348, 4202.051270, 4191.281738, 4187.179199, 4198.974121, 4200.512695, 4202.051270, 4200.000000, 4194.358887, 4202.563965, 3528.000000, 8350.000000, 8112.000000, 0.000000, 0.000000, 0.000000, 26677.000000, 426.666656, 4.000000, 4.000000, 4.000000, 4.000000, 4.000000, 4.000000, 4.000000, 4.000000, 4.000000, 4.000000, 4.000000, 4.000000, 4.000000, 4.000000, 4.000000, 4.000000
113.000000, 0.000000, 4212.307617, 4219.487305, 4192.307617, 4201.538574, 4205.641113, 4197.436035, 4193.333008, 4202.563965, 4203.589844, 4200.512695, 4198.461426, 4196.410156, 4197.948730, 4199.487305, 3478.000000, 8343.000000, 8106.000000, 0.000000, 0.000000, 0.000000, 26677.000000, 434.358978, 4.000000, 4.000000, 4.000000, 4.000000, 4.000000, 4.000000, 4.000000, 4.000000, 4.000000, 4.000000, 4.000000, 4.000000, 4.000000, 4.000000, 4.000000, 4.000000
114.000000, 0.000000, 4205.127930, 4211.281738, 4186.666504, 4192.307617, 4199.487305, 4198.461426, 4200.000000, 4203.076660, 4200.512695, 4196.410156, 4192.307617, 4186.666504, 4188.717773, 4186.666504, 3061.000000, 8343.000000, 8106.000000, 0.000000, 0.000000, 0.000000, 26677.000000, 442.564087, 4.000000, 4.000000, 4.000000, 4.000000, 4.000000, 4.000000, 4.000000, 4.000000, 4.000000, 4.000000, 4.000000, 4.000000, 4.000000, 4.000000, 4.000000, 4.000000
115.000000, 0.000000, 4203.589844, 4203.589844, 4183.589844, 4193.846191, 4206.666504, 4202.051270, 4202.051270, 4192.820313, 4195.897461, 4197.436035, 4196.410156, 4185.127930, 4182.563965, 4183.076660, 3559.000000, 8326.000000, 8102.000000, 0.000000, 0.000000, 0.000000, 26677.000000, 450.769226, 4.000000, 4.000000, 4.000000, 4.000000, 4.000000, 4.000000, 4.000000, 4.000000, 4.000000, 4.000000, 4.000000, 4.000000, 4.000000, 4.000000, 4.000000, 4.000000
116.000000, 0.000000, 4203.076660, 4206.153809, 4189.743652, 4191.794922, 4217.436035, 4198.461426, 4195.897461, 4203.589844, 4204.615234, 4201.538574, 4201.025391, 4191.281738, 4186.153809, 4187.179199, 3528.000000, 8326.000000, 8102.000000, 0.000000, 0.000000, 0.000000, 26677.000000, 458.461517, 4.000000, 4.000000, 4.000000, 4.000000, 4.000000, 4.000000, 4.000000, 4.000000, 4.000000, 4.000000, 4.000000, 4.000000, 4.000000, 4.000000, 4.000000, 4.000000
117.000000, 0.000000, 4205.641113, 4214.358887, 4199.487305, 4197.948730, 4217.436035, 4201.538574, 4204.615234, 4217.948730, 4213.846191, 4199.487305, 4198.974121, 4196.922852, 4191.794922, 4187.179199, 3478.000000, 8316.000000, 8106.000000, 0.000000, 0.000000, 0.000000, 26677.000000, 466.666656, 4.000000, 4.000000, 4.000000, 4.000000, 4.000000, 4.000000, 4.000000, 4.000000, 4.000000, 4.000000, 4.000000, 4.000000, 4.000000, 4.000000, 4.000000, 4.000000
118.000000, 0.000000, 4210.769043, 4216.410156, 4202.563965, 4200.000000, 4215.897461, 4214.871582, 4216.410156, 4208.717773, 4212.307617, 4201.025391, 4200.512695, 4197.436035, 4197.948730, 4186.666504, 3061.000000, 8316.000000, 8106.000000, 0.000000, 0.000000, 0.000000, 26677.000000, 474.358948, 4.000000, 4.000000, 4.000000, 4.000000, 4.000000, 4.000000, 4.000000, 4.000000, 4.000000, 4.000000, 4.000000, 4.000000, 4.000000, 4.000000, 4.000000, 4.000000
119.000000, 0.000000, 4209.743652, 4215.384277, 4203.589844, 4200.000000, 4215.897461, 4214.871582, 4205.127930, 4207.179199, 4212.820313, 4209.743652, 4208.717773, 4198.461426, 4202.563965, 4195.384277, 3559.000000, 8307.000000, 8118.000000, 0.000000, 0.000000, 0.000000, 26677.000000, 482.564087, 4.000000, 4.000000, 4.000000, 4.000000, 4.000000, 4.000000, 4.000000, 4.000000, 4.000000, 4.000000, 4.000000, 4.000000, 4.000000, 4.000000, 4.000000, 4.000000
120.000000, 0.000000, 4200.512695, 4210.769043, 4203.076660, 4201.025391, 4209.743652, 4200.000000, 4201.025391, 4224.615234, 4217.948730, 4210.769043, 4214.358887, 4206.153809, 4200.512695, 4202.563965, 3528.000000, 8307.000000, 8118.000000, 0.000000, 0.000000, 0.000000, 26677.000000, 490.256409, 4.000000, 4.000000, 4.000000, 4.000000, 4.000000, 4.000000, 4.000000, 4.000000, 4.000000, 4.000000, 4.000000, 4.000000, 4.000000, 4.000000, 4.000000, 4.000000
121.000000, 0.000000, 4198.974121, 4206.666504, 4198.974121, 4192.307617, 4205.641113, 4202.051270, 4217.948730, 4237.436035, 4221.538574, 4212.307617, 4216.410156, 4211.794922, 4202.563965, 4202.051270, 3478.000000, 8303.000000, 8117.000000, 0.000000, 0.000000, 0.000000, 26677.000000, 498.461517, 4.000000, 4.000000, 4.000000, 4.000000, 4.000000, 4.000000, 4.000000, 4.000000, 4.000000, 4.000000, 4.000000, 4.000000, 4.000000, 4.000000, 4.000000, 4.000000
122.000000, 0.000000, 4203.076660, 4210.769043, 4197.436035, 4195.384277, 4211.794922, 4214.871582, 4223.589844, 4237.436035, 4221.538574, 4223.589844, 4217.436035, 4210.256348, 4204.615234, 4202.563965, 3061.000000, 8303.000000, 8117.000000, 0.000000, 0.000000, 0.000000, 26677.000000, 506.153839, 4.000000, 4.000000, 4.000000, 4.000000, 4.000000, 4.000000, 4.000000, 4.000000, 4.000000, 4.000000, 4.000000, 4.000000, 4.000000, 4.000000, 4.000000, 4.000000
123.000000, 0.000000, 4200.000000, 4212.820313, 4197.948730, 4196.410156, 4216.410156, 4214.358887, 4213.333008, 4233.846191, 4217.436035, 4228.205078, 4216.922852, 4206.666504, 4203.589844, 4202.563965, 3559.000000, 8296.000000, 8111.000000, 0.000000, 0.000000, 0.000000, 26677.000000, 514.358948, 4.000000, 4.000000, 4.000000, 4.000000, 4.000000, 4.000000, 4.000000, 4.000000, 4.000000, 4.000000, 4.000000, 4.000000, 4.000000, 4.000000, 4.000000, 4.000000
124.000000, 0.000000, 4198.974121, 4208.205078, 4197.948730, 4193.846191, 4214.871582, 4213.333008, 4218.461426, 4227.179199, 4215.897461, 4219.487305, 4216.410156, 4205.127930, 4204.102539, 4203.589844, 3528.000000, 8296.000000, 8111.000000, 0.000000, 0.000000, 0.000000, 26677.000000, 522.564087, 4.000000, 4.000000, 4.000000, 4.000000, 4.000000, 4.000000, 4.000000, 4.000000, 4.000000, 4.000000, 4.000000, 4.000000, 4.000000, 4.000000, 4.000000, 4.000000
125.000000, 0.000000, 4205.641113, 4212.307617, 4200.512695, 4201.538574, 4215.384277, 4213.846191, 4226.153809, 4221.025391, 4214.358887, 4216.410156, 4212.307617, 4210.256348, 4202.051270, 4209.230469, 3478.000000, 8296.000000, 8087.000000, 0.000000, 0.000000, 0.000000, 26677.000000, 530.256409, 4.000000, 4.000000, 4.000000, 4.000000, 4.000000, 4.000000, 4.000000, 4.000000, 4.000000, 4.000000, 4.000000, 4.000000, 4.000000, 4.000000, 4.000000, 4.000000
126.000000, 0.000000, 4208.717773, 4216.410156, 4201.538574, 4197.948730, 4215.384277, 4207.692383, 4211.281738, 4220.000000, 4206.153809, 4217.948730, 4206.153809, 4213.333008, 4199.487305, 4209.230469, 3061.000000, 8296.000000, 8087.000000, 0.000000, 0.000000, 0.000000, 26677.000000, 538.461548, 4.000000, 4.000000, 4.000000, 4.000000, 4.000000, 4.000000, 4.000000, 4.000000, 4.000000, 4.000000, 4.000000, 4.000000, 4.000000, 4.000000, 4.000000, 4.000000
127.000000, 0.000000, 4202.563965, 4208.205078, 4197.948730, 4195.897461, 4208.717773, 4197.948730, 4197.948730, 4210.769043, 4203.076660, 4213.846191, 4202.051270, 4207.692383, 4200.512695, 4199.487305, 52.000000, 8287.000000, 8074.000000, 0.000000, 0.000000, 0.000000, 26677.000000, 546.153809, 4.000000, 4.000000, 4.000000, 4.000000, 4.000000, 4.000000, 4.000000, 4.000000, 4.000000, 4.000000, 4.000000, 4.000000, 4.000000, 4.000000, 4.000000, 4.000000
0.000000, 0.000000, 4199.487305, 4203.589844, 4196.922852, 4197.436035, 4208.205078, 4201.538574, 4206.666504, 4204.102539, 4209.230469, 4215.897461, 4204.102539, 4204.615234, 4199.487305, 4197.436035, 3490.000000, 8287.000000, 8074.000000, 0.000000, 0.000000, 0.000000, 26677.000000, 554.358948, 4.000000, 4.000000, 4.000000, 4.000000, 4.000000, 4.000000, 4.000000, 4.000000, 4.000000, 4.000000, 4.000000, 4.000000, 4.000000, 4.000000, 4.000000, 4.000000
1.000000, 0.000000, 4200.000000, 4205.127930, 4201.538574, 4195.897461, 4215.897461, 4212.307617, 4218.461426, 4209.230469, 4208.205078, 4214.871582, 4204.615234, 4209.230469, 4189.230469, 4198.974121, 2201.000000, 8257.000000, 8052.000000, 0.000000, 0.000000, 0.000000, 26677.000000, 562.051270, 4.000000, 4.000000, 4.000000, 4.000000, 4.000000, 4.000000, 4.000000, 4.000000, 4.000000, 4.000000, 4.000000, 4.000000, 4.000000, 4.000000, 4.000000, 4.000000
2.000000, 0.000000, 4194.871582, 4201.538574, 4201.025391, 4196.410156, 4217.948730, 4207.179199, 4213.333008, 4211.794922, 4197.436035, 4197.948730, 4193.846191, 4204.102539, 4178.461426, 4187.179199, 3084.000000, 8257.000000, 8052.000000, 0.000000, 0.000000, 0.000000, 26677.000000, 570.256409, 4.000000, 4.000000, 4.000000, 4.000000, 4.000000, 4.000000, 4.000000, 4.000000, 4.000000, 4.000000, 4.000000, 4.000000, 4.000000, 4.000000, 4.000000, 4.000000
3.000000, 0.000000, 4189.743652, 4197.948730, 4196.410156, 4190.769043, 4215.897461, 4205.127930, 4209.743652, 4213.333008, 4198.974121, 4193.333008, 4192.307617, 4198.461426, 4183.076660, 4184.102539, 3552.000000, 8230.000000, 8044.000000, 0.000000, 0.000000, 0.000000, 26677.000000, 577.948730, 4.000000, 4.000000, 4.000000, 4.000000, 4.000000, 4.000000, 4.000000, 4.000000, 4.000000, 4.000000, 4.000000, 4.000000, 4.000000, 4.000000, 4.000000, 4.000000
4.000000, 0.000000, 4186.153809, 4188.717773, 4195.897461, 4191.281738, 4211.794922, 4214.358887, 4216.410156, 4226.153809, 4214.871582, 4203.589844, 4195.897461, 4205.127930, 4181.538574, 4185.127930, 3539.000000, 8230.000000, 8044.000000, 0.000000, 0.000000, 0.000000, 26677.000000, 586.153809, 4.000000, 4.000000, 4.000000, 4.000000, 4.000000, 4.000000, 4.000000, 4.000000, 4.000000, 4.000000, 4.000000, 4.000000, 4.000000, 4.000000, 4.000000, 4.000000
5.000000, 0.000000, 4180.000000, 4175.384277, 4196.922852, 4189.230469, 4203.076660, 4210.256348, 4219.487305, 4238.461426, 4224.102539, 4204.102539, 4187.179199, 4205.641113, 4168.717773, 4176.922852, 3577.000000, 8179.000000, 8043.000000, 0.000000, 0.000000, 0.000000, 26677.000000, 593.846130, 4.000000, 4.000000, 4.000000, 4.000000, 4.000000, 4.000000, 4.000000, 4.000000, 4.000000, 4.000000, 4.000000, 4.000000, 4.000000, 4.000000, 4.000000, 4.000000
6.000000, 0.000000, 4190.256348, 4186.666504, 4198.974121, 4190.769043, 4202.051270, 4197.436035, 4217.436035, 4225.127930, 4216.922852, 4204.615234, 4190.256348, 4203.076660, 4180.000000, 4188.717773, 3504.000000, 8179.000000, 8043.000000, 0.000000, 0.000000, 0.000000, 26677.000000, 602.051270, 4.000000, 4.000000, 4.000000, 4.000000, 4.000000, 4.000000, 4.000000, 4.000000, 4.000000, 4.000000, 4.000000, 4.000000, 4.000000, 4.000000, 4.000000, 4.000000
7.000000, 0.000000, 4223.076660, 4222.051270, 4212.820313, 4209.230469, 4215.384277, 4203.076660, 4211.794922, 4211.281738, 4213.333008, 4216.410156, 4220.000000, 4215.384277, 4216.922852, 4224.615234, 3505.000000, 8147.000000, 8035.000000, 0.000000, 0.000000, 0.000000, 26677.000000, 609.743591, 4.000000, 4.000000, 4.000000, 4.000000, 4.000000, 4.000000, 4.000000, 4.000000, 4.000000, 4.000000, 4.000000, 4.000000, 4.000000, 4.000000, 4.000000, 4.000000
8.000000, 0.000000, 4242.051270, 4241.025391, 4227.179199, 4214.358887, 4222.563965, 4215.384277, 4206.666504, 4220.512695, 4220.512695, 4223.076660, 4239.487305, 4229.230469, 4231.794922, 4248.717773, 3342.000000, 8147.000000, 8035.000000, 0.000000, 0.000000, 0.000000, 26677.000000, 617.948730, 4.000000, 4.000000, 4.000000, 4.000000, 4.000000, 4.000000, 4.000000, 4.000000, 4.000000, 4.000000, 4.000000, 4.000000, 4.000000, 4.000000, 4.000000, 4.000000
9.000000, 0.000000, 4239.487305, 4233.333008, 4226.153809, 4214.358887, 4212.820313, 4212.307617, 4206.153809, 4216.922852, 4214.358887, 4218.461426, 4230.256348, 4228.205078, 4223.076660, 4249.743652, 3532.000000, 8126.000000, 8032.000000, 0.000000, 0.000000, 0.000000, 26677.000000, 626.153809, 4.000000, 4.000000, 4.000000, 4.000000, 4.000000, 4.000000, 4.000000, 4.000000, 4.000000, 4.000000, 4.000000, 4.000000, 4.000000, 4.000000, 4.000000, 4.000000
10.000000, 0.000000, 4237.948730, 4227.692383, 4214.871582, 4213.333008, 4205.641113, 4204.615234, 4200.512695, 4198.974121, 4204.102539, 4211.794922, 4219.487305, 4216.410156, 4217.948730, 4243.076660, 3057.000000, 8126.000000, 8032.000000, 0.000000, 0.000000, 0.000000, 26677.000000, 633.846130, 4.000000, 4.000000, 4.000000, 4.000000, 4.000000, 4.000000, 4.000000, 4.000000, 4.000000, 4.000000, 4.000000, 4.000000, 4.000000, 4.000000, 4.000000, 4.000000
11.000000, 0.000000, 4240.000000, 4229.230469, 4205.641113, 4206.666504, 4207.692383, 4200.512695, 4199.487305, 4201.025391, 4200.512695, 4207.179199, 4217.436035, 4206.666504, 4220.000000, 4239.487305, 3554.000000, 8077.000000, 8055.000000, 0.000000, 0.000000, 0.000000, 26677.000000, 642.051270, 4.000000, 4.000000, 4.000000, 4.000000, 4.000000, 4.000000, 4.000000, 4.000000, 4.000000, 4.000000, 4.000000, 4.000000, 4.000000, 4.000000, 4.000000, 4.000000
12.000000, 0.000000, 4241.025391, 4219.487305, 4205.127930, 4208.205078, 4203.589844, 4198.461426, 4212.307617, 4213.333008, 4197.436035, 4208.717773, 4215.384277, 4207.692383, 4222.563965, 4243.589844, 3513.000000, 8077.000000, 8055.000000, 0.000000, 0.000000, 0.000000, 26677.000000, 649.743591, 4.000000, 4.000000, 4.000000, 4.000000, 4.000000, 4.000000, 4.000000, 4.000000, 4.000000, 4.000000, 4.000000, 4.000000, 4.000000, 4.000000, 4.000000, 4.000000
13.000000, 0.000000, 4246.153809, 4216.410156, 4211.794922, 4206.153809, 4201.025391, 4201.538574, 4218.461426, 4216.922852, 4205.127930, 4218.461426, 4224.102539, 4220.000000, 4229.743652, 4260.512695, 3478.000000, 8065.000000, 8065.000000, 0.000000, 0.000000, 0.000000, 26677.000000, 657.948730, 4.000000, 4.000000, 4.000000, 4.000000, 4.000000, 4.000000, 4.000000, 4.000000, 4.000000, 4.000000, 4.000000, 4.000000, 4.000000, 4.000000, 4.000000, 4.000000
14.000000, 0.000000, 4256.410156, 4230.256348, 4215.897461, 4210.256348, 4208.717773, 4212.307617, 4217.436035, 4222.051270, 4218.461426, 4230.769043, 4243.589844, 4232.307617, 4245.127930, 4280.000000, 3057.000000, 8065.000000, 8065.000000, 0.000000, 0.000000, 0.000000, 26677.000000, 665.640991, 4.000000, 4.000000, 4.000000, 4.000000, 4.000000, 4.000000, 4.000000, 4.000000, 4.000000, 4.000000, 4.000000, 4.000000, 4.000000, 4.000000, 4.000000, 4.000000
15.000000, 0.000000, 4256.922852, 4228.205078, 4214.871582, 4213.846191, 4208.717773, 4213.846191, 4217.948730, 4226.153809, 4218.461426, 4233.846191, 4248.205078, 4232.820313, 4253.846191, 4285.127930, 3554.000000, 8059.000000, 8072.000000, 0.000000, 0.000000, 0.000000, 26677.000000, 673.846130, 4.000000, 4.000000, 4.000000, 4.000000, 4.000000, 4.000000, 4.000000, 4.000000, 4.000000, 4.000000, 4.000000, 4.000000, 4.000000, 4.000000, 4.000000, 4.000000
16.000000, 0.000000, 4255.384277, 4218.974121, 4217.436035, 4210.256348, 4202.563965, 4201.538574, 4206.666504, 4218.461426, 4213.333008, 4228.205078, 4237.436035, 4227.692383, 4246.666504, 4281.538574, 0.000000, 8059.000000, 8072.000000, 0.000000, 0.000000, 0.000000, 26677.000000, 681.538452, 4.000000, 4.000000, 4.000000, 4.000000, 4.000000, 4.000000, 4.000000, 4.000000, 4.000000, 4.000000, 4.000000, 4.000000, 4.000000, 4.000000, 4.000000, 4.000000
17.000000, 0.000000, 4264.102539, 4227.692383, 4223.076660, 4217.436035, 4207.179199, 4197.436035, 4201.025391, 4214.871582, 4216.922852, 4228.205078, 4241.538574, 4232.820313, 4245.641113, 4288.717773, 0.000000, 8061.000000, 8077.000000, 0.000000, 0.000000, 0.000000, 26677.000000, 689.743591, 4.000000, 4.000000, 4.000000, 4.000000, 4.000000, 4.000000, 4.000000, 4.000000, 4.000000, 4.000000, 4.000000, 4.000000, 4.000000, 4.000000, 4.000000, 4.000000
18.000000, 0.000000, 4263.076660, 4229.230469, 4215.384277, 4212.820313, 4208.717773, 4203.589844, 4214.358887, 4221.025391, 4217.948730, 4231.281738, 4252.820313, 4233.333008, 4251.281738, 4291.281738, 0.000000, 8061.000000, 8077.000000, 0.000000, 0.000000, 0.000000, 26677.000000, 697.948730, 4.000000, 4.000000, 4.000000, 4.000000, 4.000000, 4.000000, 4.000000, 4.000000, 4.000000, 4.000000, 4.000000, 4.000000, 4.000000, 4.000000, 4.000000, 4.000000
19.000000, 0.000000, 4255.897461, 4215.384277, 4205.641113, 4207.179199, 4198.974121, 4205.127930, 4214.358887, 4217.948730, 4215.897461, 4228.717773, 4247.179199, 4224.615234, 4248.717773, 4281.025391, 0.000000, 8062.000000, 8075.000000, 0.000000, 0.000000, 0.000000, 26677.000000, 705.640991, 4.000000, 4.000000, 4.000000, 4.000000, 4.000000, 4.000000, 4.000000, 4.000000, 4.000000, 4.000000, 4.000000, 4.000000, 4.000000, 4.000000, 4.000000, 4.000000
20.000000, 0.000000, 4253.333008, 4210.256348, 4206.666504, 4211.281738, 4200.512695, 4201.538574, 4198.974121, 4206.666504, 4212.820313, 4222.563965, 4241.025391, 4222.563965, 4246.153809, 4277.948730, 0.000000, 8062.000000, 8075.000000, 0.000000, 0.000000, 0.000000, 26677.000000, 713.846130, 4.000000, 4.000000, 4.000000, 4.000000, 4.000000, 4.000000, 4.000000, 4.000000, 4.000000, 4.000000, 4.000000, 4.000000, 4.000000, 4.000000, 4.000000, 4.000000
21.000000, 0.000000, 4248.205078, 4204.615234, 4208.205078, 4208.205078, 4203.076660, 4201.538574, 4197.948730, 4209.230469, 4209.230469, 4216.410156, 4243.589844, 4221.025391, 4248.717773, 4276.922852, 0.000000, 8089.000000, 8115.000000, 0.000000, 0.000000, 0.000000, 26677.000000, 721.538452, 4.000000, 4.000000, 4.000000, 4.000000, 4.000000, 4.000000, 4.000000, 4.000000, 4.000000, 4.000000, 4.000000, 4.000000, 4.000000, 4.000000, 4.000000, 4.000000
22.000000, 0.000000, 4242.563965, 4197.436035, 4202.051270, 4208.717773, 4200.512695, 4207.179199, 4211.281738, 4223.076660, 4213.846191, 4221.538574, 4243.589844, 4218.461426, 4249.230469, 4272.307617, 0.000000, 8089.000000, 8115.000000, 0.000000, 0.000000, 0.000000, 26677.000000, 729.743591, 4.000000, 4.000000, 4.000000, 4.000000, 4.000000, 4.000000, 4.000000, 4.000000, 4.000000, 4.000000, 4.000000, 4.000000, 4.000000, 4.000000, 4.000000, 4.000000
23.000000, 0.000000, 4244.615234, 4204.102539, 4200.000000, 4208.717773, 4206.666504, 4217.436035, 4218.974121, 4223.076660, 4218.461426, 4234.871582, 4243.076660, 4221.538574, 4248.205078, 4272.820313, 0.000000, 8122.000000, 8157.000000, 0.000000, 0.000000, 0.000000, 26677.000000, 737.435852, 4.000000, 4.000000, 4.000000, 4.000000, 4.000000, 4.000000, 4.000000, 4.000000, 4.000000, 4.000000, 4.000000, 4.000000, 4.000000, 4.000000, 4.000000, 4.000000
24.000000, 0.000000, 4243.076660, 4207.692383, 4202.051270, 4211.281738, 4210.769043, 4220.512695, 4216.410156, 4216.410156, 4215.897461, 4235.384277, 4240.000000, 4222.563965, 4248.717773, 4269.230469, 0.000000, 8122.000000, 8157.000000, 0.000000, 0.000000, 0.000000, 26677.000000, 745.640991, 4.000000, 4.000000, 4.000000, 4.000000, 4.000000, 4.000000, 4.000000, 4.000000, 4.000000, 4.000000, 4.000000, 4.000000, 4.000000, 4.000000, 4.000000, 4.000000
25.000000, 0.000000, 4228.717773, 4193.333008, 4198.461426, 4211.794922, 4202.051270, 4211.281738, 4214.871582, 4217.436035, 4214.358887, 4230.256348, 4232.307617, 4214.871582, 4245.127930, 4260.000000, 0.000000, 8214.000000, 8265.000000, 0.000000, 0.000000, 0.000000, 26677.000000, 753.333313, 4.000000, 4.000000, 4.000000, 4.000000, 4.000000, 4.000000, 4.000000, 4.000000, 4.000000, 4.000000, 4.000000, 4.000000, 4.000000, 4.000000, 4.000000, 4.000000
26.000000, 0.000000, 4224.102539, 4187.692383, 4196.410156, 4202.563965, 4197.948730, 4200.000000, 4213.333008, 4211.794922, 4216.410156, 4236.922852, 4236.410156, 4214.358887, 4239.487305, 4261.538574, 0.000000, 8214.000000, 8265.000000, 0.000000, 0.000000, 0.000000, 26677.000000, 761.538452, 4.000000, 4.000000, 4.000000, 4.000000, 4.000000, 4.000000, 4.000000, 4.000000, 4.000000, 4.000000, 4.000000, 4.000000, 4.000000, 4.000000, 4.000000, 4.000000
27.000000, 0.000000, 4228.717773, 4192.820313, 4201.025391, 4204.615234, 4202.051270, 4198.974121, 4208.205078, 4206.666504, 4212.307617, 4238.974121, 4245.127930, 4221.538574, 4237.436035, 4263.589844, 0.000000, 8270.000000, 8302.000000, 0.000000, 0.000000, 0.000000, 26677.000000, 769.230774, 4.000000, 4.000000, 4.000000, 4.000000, 4.000000, 4.000000, 4.000000, 4.000000, 4.000000, 4.000000, 4.000000, 4.000000, 4.000000, 4.000000, 4.000000, 4.000000
28.000000, 0.000000, 4224.102539, 4190.256348, 4202.051270, 4204.615234, 4198.461426, 4206.153809, 4213.333008, 4204.615234, 4202.051270, 4234.871582, 4235.384277, 4216.922852, 4229.743652, 4252.820313, 0.000000, 8270.000000, 8302.000000, 0.000000, 0.000000, 0.000000, 26677.000000, 776.923035, 4.000000, 4.000000, 4.000000, 4.000000, 4.000000, 4.000000, 4.000000, 4.000000, 4.000000, 4.000000, 4.000000, 4.000000, 4.000000, 4.000000, 4.000000, 4.000000
29.000000, 0.000000, 4217.436035, 4182.051270, 4196.410156, 4204.615234, 4193.846191, 4204.615234, 4222.563965, 4197.436035, 4197.948730, 4232.307617, 4217.436035, 4206.153809, 4217.436035, 4242.563965, 0.000000, 8358.000000, 8306.000000, 0.000000, 0.000000, 0.000000, 26677.000000, 785.128174, 4.000000, 4.000000, 4.000000, 4.000000, 4.000000, 4.000000, 4.000000, 4.000000, 4.000000, 4.000000, 4.000000, 4.000000, 4.000000, 4.000000, 4.000000, 4.000000
30.000000, 0.000000, 4212.820313, 4181.025391, 4193.333008, 4208.717773, 4196.410156, 4195.897461, 4215.384277, 4202.563965, 4205.641113, 4229.743652, 4214.358887, 4205.641113, 4213.333008, 4238.974121, 0.000000, 8358.000000, 8306.000000, 0.000000, 0.000000, 0.000000, 26677.000000, 792.820496, 4.000000, 4.000000, 4.000000, 4.000000, 4.000000, 4.000000, 4.000000, 4.000000, 4.000000, 4.000000, 4.000000, 4.000000, 4.000000, 4.000000, 4.000000, 4.000000
31.000000, 0.000000, 4209.230469, 4188.717773, 4196.922852, 4206.153809, 4201.538574, 4197.948730, 4209.230469, 4216.922852, 4216.410156, 4238.974121, 4222.563965, 4213.846191, 4222.051270, 4237.948730, 0.000000, 8385.000000, 8274.000000, 0.000000, 0.000000, 0.000000, 26677.000000, 801.025635, 4.000000, 4.000000, 4.000000, 4.000000, 4.000000, 4.000000, 4.000000, 4.000000, 4.000000, 4.000000, 4.000000, 4.000000, 4.000000, 4.000000, 4.000000, 4.000000
32.000000, 0.000000, 4208.205078, 4189.743652, 4201.538574, 4214.871582, 4202.051270, 4205.127930, 4217.436035, 4210.769043, 4213.846191, 4247.179199, 4228.205078, 4217.948730, 4228.205078, 4238.974121, 0.000000, 8385.000000, 8274.000000, 0.000000, 0.000000, 0.000000, 26677.000000, 808.717957, 4.000000, 4.000000, 4.000000, 4.000000, 4.000000, 4.000000, 4.000000, 4.000000, 4.000000, 4.000000, 4.000000, 4.000000, 4.000000, 4.000000, 4.000000, 4.000000
33.000000, 0.000000, 4209.230469, 4192.307617, 4206.666504, 4216.922852, 4198.974121, 4202.563965, 4219.487305, 4201.025391, 4204.615234, 4237.436035, 4226.666504, 4215.384277, 4223.076660, 4242.563965, 0.000000, 8404.000000, 8237.000000, 0.000000, 0.000000, 0.000000, 26677.000000, 816.923035, 4.000000, 4.000000, 4.000000, 4.000000, 4.000000, 4.000000, 4.000000, 4.000000, 4.000000, 4.000000, 4.000000, 4.000000, 4.000000, 4.000000, 4.000000, 4.000000
34.000000, 0.000000, 4219.487305, 4200.000000, 4214.358887, 4215.384277, 4200.000000, 4200.512695, 4211.281738, 4204.102539, 4202.563965, 4229.230469, 4226.666504, 4216.410156, 4220.000000, 4246.666504, 0.000000, 8404.000000, 8237.000000, 0.000000, 0.000000, 0.000000, 26677.000000, 824.615356, 4.000000, 4.000000, 4.000000, 4.000000, 4.000000, 4.000000, 4.000000, 4.000000, 4.000000, 4.000000, 4.000000, 4.000000, 4.000000, 4.000000, 4.000000, 4.000000
35.000000, 0.000000, 4226.153809, 4203.076660, 4217.436035, 4223.076660, 4205.127930, 4214.871582, 4215.384277, 4200.000000, 4202.563965, 4226.666504, 4228.205078, 4220.000000, 4218.974121, 4246.666504, 0.000000, 8403.000000, 8177.000000, 0.000000, 0.000000, 0.000000, 26677.000000, 832.820496, 4.000000, 4.000000, 4.000000, 4.000000, 4.000000, 4.000000, 4.000000, 4.000000, 4.000000, 4.000000, 4.000000, 4.000000, 4.000000, 4.000000, 4.000000, 4.000000
36.000000, 0.000000, 4214.871582, 4198.974121, 4212.307617, 4215.897461, 4204.615234, 4221.025391, 4229.230469, 4202.563965, 4203.589844, 4217.948730, 4226.153809, 4219.487305, 4216.410156, 4239.487305, 0.000000, 8403.000000, 8177.000000, 0.000000, 0.000000, 0.000000, 26677.000000, 840.512817, 4.000000, 4.000000, 4.000000, 4.000000, 4.000000, 4.000000, 4.000000, 4.000000, 4.000000, 4.000000, 4.000000, 4.000000, 4.000000, 4.000000, 4.000000, 4.000000
37.000000, 0.000000, 4206.666504, 4198.461426, 4210.256348, 4213.846191, 4197.948730, 4203.589844, 4221.538574, 4213.846191, 4205.641113, 4211.794922, 4225.127930, 4218.461426, 4217.436035, 4231.794922, 0.000000, 8391.000000, 8156.000000, 0.000000, 0.000000, 0.000000, 26677.000000, 848.717957, 4.000000, 4.000000, 4.000000, 4.000000, 4.000000, 4.000000, 4.000000, 4.000000, 4.000000, 4.000000, 4.000000, 4.000000, 4.000000, 4.000000, 4.000000, 4.000000
38.000000, 0.000000, 4210.769043, 4202.051270, 4212.307617, 4215.897461, 4199.487305, 4195.384277, 4208.205078, 4215.897461, 4205.641113, 4213.333008, 4228.205078, 4220.512695, 4218.461426, 4233.333008, 0.000000, 8391.000000, 8156.000000, 0.000000, 0.000000, 0.000000, 26677.000000, 856.410217, 4.000000, 4.000000, 4.000000, 4.000000, 4.000000, 4.000000, 4.000000, 4.000000, 4.000000, 4.000000, 4.000000, 4.000000, 4.000000, 4.000000, 4.000000, 4.000000
39.000000, 0.000000, 4209.230469, 4193.846191, 4209.743652, 4210.256348, 4198.461426, 4204.102539, 4219.487305, 4216.410156, 4210.769043, 4211.281738, 4223.589844, 4220.512695, 4209.743652, 4231.794922, 0.000000, 8341.000000, 8138.000000, 0.000000, 0.000000, 0.000000, 26677.000000, 864.615356, 4.000000, 4.000000, 4.000000, 4.000000, 4.000000, 4.000000, 4.000000, 4.000000, 4.000000, 4.000000, 4.000000, 4.000000, 4.000000, 4.000000, 4.000000, 4.000000
40.000000, 0.000000, 4200.000000, 4184.615234, 4203.076660, 4210.769043, 4186.666504, 4206.153809, 4233.846191, 4217.948730, 4212.307617, 4209.743652, 4215.384277, 4216.922852, 4202.563965, 4226.666504, 0.000000, 8341.000000, 8138.000000, 0.000000, 0.000000, 0.000000, 26677.000000, 872.307678, 4.000000, 4.000000, 4.000000, 4.000000, 4.000000, 4.000000, 4.000000, 4.000000, 4.000000, 4.000000, 4.000000, 4.000000, 4.000000, 4.000000, 4.000000, 4.000000
41.000000, 0.000000, 4198.461426, 4185.641113, 4201.025391, 4206.666504, 4185.127930, 4202.051270, 4235.384277, 4218.461426, 4209.230469, 4210.256348, 4215.897461, 4212.820313, 4205.641113, 4229.230469, 0.000000, 8311.000000, 8138.000000, 0.000000, 0.000000, 0.000000, 26677.000000, 880.000000, 4.000000, 4.000000, 4.000000, 4.000000, 4.000000, 4.000000, 4.000000, 4.000000, 4.000000, 4.000000, 4.000000, 4.000000, 4.000000, 4.000000, 4.000000, 4.000000
42.000000, 0.000000, 4201.538574, 4183.076660, 4202.051270, 4203.589844, 4188.717773, 4201.538574, 4225.641113, 4216.922852, 4209.743652, 4209.743652, 4216.410156, 4211.794922, 4205.127930, 4228.717773, 0.000000, 8311.000000, 8138.000000, 0.000000, 0.000000, 0.000000, 26677.000000, 888.205078, 4.000000, 4.000000, 4.000000, 4.000000, 4.000000, 4.000000, 4.000000, 4.000000, 4.000000, 4.000000, 4.000000, 4.000000, 4.000000, 4.000000, 4.000000, 4.000000
43.000000, 0.000000, 4198.461426, 4178.974121, 4200.512695, 4201.538574, 4187.692383, 4207.179199, 4215.897461, 4211.281738, 4211.281738, 4214.358887, 4216.410156, 4213.333008, 4201.025391, 4224.102539, 0.000000, 8276.000000, 8142.000000, 0.000000, 0.000000, 0.000000, 26677.000000, 895.897400, 4.000000, 4.000000, 4.000000, 4.000000, 4.000000, 4.000000, 4.000000, 4.000000, 4.000000, 4.000000, 4.000000, 4.000000, 4.000000, 4.000000, 4.000000, 4.000000
44.000000, 0.000000, 4197.436035, 4183.589844, 4203.076660, 4200.512695, 4194.358887, 4216.410156, 4225.127930, 4209.743652, 4211.281738, 4221.538574, 4220.512695, 4215.897461, 4202.563965, 4226.666504, 0.000000, 8276.000000, 8142.000000, 0.000000, 0.000000, 0.000000, 26677.000000, 904.102539, 4.000000, 4.000000, 4.000000, 4.000000, 4.000000, 4.000000, 4.000000, 4.000000, 4.000000, 4.000000, 4.000000, 4.000000, 4.000000, 4.000000, 4.000000, 4.000000
45.000000, 0.000000, 4199.487305, 4183.589844, 4205.127930, 4204.615234, 4199.487305, 4218.974121, 4230.769043, 4213.333008, 4210.769043, 4218.461426, 4218.461426, 4214.871582, 4203.589844, 4224.615234, 0.000000, 8212.000000, 8154.000000, 0.000000, 0.000000, 0.000000, 26677.000000, 911.794861, 4.000000, 4.000000, 4.000000, 4.000000, 4.000000, 4.000000, 4.000000, 4.000000, 4.000000, 4.000000, 4.000000, 4.000000, 4.000000, 4.000000, 4.000000, 4.000000
46.000000, 1.000000, 4197.436035, 4181.538574, 4203.589844, 4203.076660, 4198.974121, 4217.436035, 4230.769043, 4213.846191, 4212.307617, 4220.000000, 4215.897461, 4211.281738, 4202.563965, 4222.051270, 0.000000, 8202.000000, 8154.000000, 0.000000, 0.000000, 0.000000, 26677.000000, 920.000000, 4.000000, 4.000000, 4.000000, 4.000000, 4.000000, 4.000000, 4.000000, 4.000000, 4.000000, 4.000000, 4.000000, 4.000000, 4.000000, 4.000000, 4.000000, 4.000000
47.000000, 1.000000, 4195.384277, 4178.974121, 4202.051270, 4201.538574, 4197.948730, 4215.897461, 4230.256348, 4214.871582, 4213.333008, 4221.025391, 4213.846191, 4208.205078, 4201.538574, 4218.974121, 0.000000, 8192.000000, 8154.000000, 0.000000, 0.000000, 0.000000, 26677.000000, 927.692261, 4.000000, 4.000000, 4.000000, 4.000000, 4.000000, 4.000000, 4.000000, 4.000000, 4.000000, 4.000000, 4.000000, 4.000000, 4.000000, 4.000000, 4.000000, 4.000000
48.000000, 1.000000, 4193.333008, 4176.922852, 4200.512695, 4200.000000, 4196.922852, 4214.871582, 4230.256348, 4215.384277, 4214.871582, 4222.563965, 4211.794922, 4204.615234, 4200.512695, 4215.897461, 0.000000, 8182.000000, 8154.000000, 0.000000, 0.000000, 0.000000, 26677.000000, 935.384583, 4.000000, 4.000000, 4.000000, 4.000000, 4.000000, 4.000000, 4.000000, 4.000000, 4.000000, 4.000000, 4.000000, 4.000000, 4.000000, 4.000000, 4.000000, 4.000000
49.000000, 1.000000, 4191.281738, 4174.358887, 4198.974121, 4198.461426, 4195.897461, 4213.333008, 4230.256348, 4216.410156, 4215.897461, 4223.589844, 4209.743652, 4201.538574, 4200.000000, 4212.820313, 0.000000, 8172.000000, 8154.000000, 0.000000, 0.000000, 0.000000, 26677.000000, 943.589722, 4.000000, 4.000000, 4.000000, 4.000000, 4.000000, 4.000000, 4.000000, 4.000000, 4.000000, 4.000000, 4.000000, 4.000000, 4.000000, 4.000000, 4.000000, 4.000000
50.000000, 1.000000, 4189.230469, 4172.307617, 4197.436035, 4196.922852, 4195.384277, 4211.794922, 4230.256348, 4216.922852, 4217.436035, 4225.127930, 4207.179199, 4197.948730, 4198.974121, 4210.256348, 0.000000, 8162.000000, 8154.000000, 0.000000, 0.000000, 0.000000, 26677.000000, 951.282043, 4.000000, 4.000000, 4.000000, 4.000000, 4.000000, 4.000000, 4.000000, 4.000000, 4.000000, 4.000000, 4.000000, 4.000000, 4.000000, 4.000000, 4.000000, 4.000000
51.000000, 0.000000, 4186.666504, 4169.743652, 4195.384277, 4194.871582, 4193.846191, 4209.743652, 4229.230469, 4217.948730, 4218.974121, 4226.666504, 4204.615234, 4194.871582, 4197.436035, 4207.179199, 0.000000, 8149.000000, 8149.000000, 0.000000, 0.000000, 0.000000, 26677.000000, 959.487183, 4.000000, 4.000000, 4.000000, 4.000000, 4.000000, 4.000000, 4.000000, 4.000000, 4.000000, 4.000000, 4.000000, 4.000000, 4.000000, 4.000000, 4.000000, 4.000000
52.000000, 0.000000, 4188.717773, 4182.051270, 4201.538574, 4197.436035, 4197.948730, 4207.179199, 4210.769043, 4203.589844, 4214.871582, 4229.743652, 4210.256348, 4201.538574, 4201.538574, 4214.358887, 0.000000, 8149.000000, 8149.000000, 0.000000, 0.000000, 0.000000, 26677.000000, 967.179443, 4.000000, 4.000000, 4.000000, 4.000000, 4.000000, 4.000000, 4.000000, 4.000000, 4.000000, 4.000000, 4.000000, 4.000000, 4.000000, 4.000000, 4.000000, 4.000000
53.000000, 0.000000, 4191.281738, 4181.538574, 4205.127930, 4202.563965, 4201.538574, 4213.333008, 4213.333008, 4200.000000, 4210.256348, 4226.666504, 4211.281738, 4210.769043, 4195.384277, 4213.333008, 0.000000, 8156.000000, 8142.000000, 0.000000, 0.000000, 0.000000, 26677.000000, 974.871765, 4.000000, 4.000000, 4.000000, 4.000000, 4.000000, 4.000000, 4.000000, 4.000000, 4.000000, 4.000000, 4.000000, 4.000000, 4.000000, 4.000000, 4.000000, 4.000000
54.000000, 0.000000, 4190.256348, 4175.897461, 4198.461426, 4195.384277, 4201.025391, 4210.769043, 4213.846191, 4202.051270, 4211.281738, 4226.666504, 4209.743652, 4204.102539, 4195.897461, 4212.820313, 0.000000, 8156.000000, 8142.000000, 0.000000, 0.000000, 0.000000, 26677.000000, 983.076904, 4.000000, 4.000000, 4.000000, 4.000000, 4.000000, 4.000000, 4.000000, 4.000000, 4.000000, 4.000000, 4.000000, 4.000000, 4.000000, 4.000000, 4.000000, 4.000000
55.000000, 0.000000, 4195.897461, 4185.641113, 4196.922852, 4204.615234, 4200.000000, 4206.666504, 4202.563965, 4196.410156, 4212.307617, 4232.307617, 4221.538574, 4200.000000, 4214.871582, 4227.692383, 0.000000, 8161.000000, 8129.000000, 0.000000, 0.000000, 0.000000, 26677.000000, 990.769226, 4.000000, 4.000000, 4.000000, 4.000000, 4.000000, 4.000000, 4.000000, 4.000000, 4.000000, 4.000000, 4.000000, 4.000000, 4.000000, 4.000000, 4.000000, 4.000000
56.000000, 0.000000, 4204.102539, 4192.820313, 4201.538574, 4206.153809, 4200.000000, 4208.205078, 4208.717773, 4198.974121, 4206.666504, 4235.897461, 4227.692383, 4211.281738, 4223.076660, 4236.922852, 0.000000, 8161.000000, 8129.000000, 0.000000, 0.000000, 0.000000, 26677.000000, 998.461487, 4.000000, 4.000000, 4.000000, 4.000000, 4.000000, 4.000000, 4.000000, 4.000000, 4.000000, 4.000000, 4.000000, 4.000000, 4.000000, 4.000000, 4.000000, 4.000000
57.000000, 0.000000, 4204.615234, 4183.589844, 4203.076660, 4197.436035, 4196.410156, 4206.153809, 4211.281738, 4206.153809, 4204.102539, 4236.922852, 4223.076660, 4219.487305, 4221.538574, 4236.410156, 0.000000, 8174.000000, 8117.000000, 0.000000, 0.000000, 0.000000, 26678.000000, 6.666667, 4.000000, 4.000000, 4.000000, 4.000000, 4.000000, 4.000000, 4.000000, 4.000000, 4.000000, 4.000000, 4.000000, 4.000000, 4.000000, 4.000000, 4.000000, 4.000000
58.000000, 0.000000, 4200.000000, 4175.897461, 4201.025391, 4200.512695, 4196.922852, 4199.487305, 4200.512695, 4200.000000, 4214.358887, 4236.922852, 4230.256348, 4217.436035, 4230.769043, 4241.025391, 0.000000, 8174.000000, 8117.000000, 0.000000, 0.000000, 0.000000, 26678.000000, 14.358974, 4.000000, 4.000000, 4.000000, 4.000000, 4.000000, 4.000000, 4.000000, 4.000000, 4.000000, 4.000000, 4.000000, 4.000000, 4.000000, 4.000000, 4.000000, 4.000000
59.000000, 0.000000, 4197.948730, 4173.333008, 4199.487305, 4194.871582, 4198.974121, 4202.563965, 4210.256348, 4200.512695, 4217.948730, 4238.974121, 4236.922852, 4213.846191, 4236.922852, 4242.051270, 0.000000, 8191.000000, 8105.000000, 0.000000, 0.000000, 0.000000, 26678.000000, 22.051281, 4.000000, 4.000000, 4.000000, 4.000000, 4.000000, 4.000000, 4.000000, 4.000000, 4.000000, 4.000000, 4.000000, 4.000000, 4.000000, 4.000000, 4.000000, 4.000000
60.000000, 0.000000, 4200.512695, 4173.333008, 4198.974121, 4194.358887, 4197.948730, 4211.281738, 4220.000000, 4212.820313, 4213.333008, 4241.025391, 4228.717773, 4215.384277, 4231.281738, 4238.461426, 0.000000, 8191.000000, 8105.000000, 0.000000, 0.000000, 0.000000, 26678.000000, 29.743589, 4.000000, 4.000000, 4.000000, 4.000000, 4.000000, 4.000000, 4.000000, 4.000000, 4.000000, 4.000000, 4.000000, 4.000000, 4.000000, 4.000000, 4.000000, 4.000000
61.000000, 0.000000, 4198.974121, 4175.897461, 4201.025391, 4196.922852, 4198.461426, 4212.307617, 4206.153809, 4213.846191, 4215.897461, 4240.000000, 4227.179199, 4212.820313, 4227.692383, 4237.436035, 0.000000, 8200.000000, 8097.000000, 0.000000, 0.000000, 0.000000, 26678.000000, 37.948715, 4.000000, 4.000000, 4.000000, 4.000000, 4.000000, 4.000000, 4.000000, 4.000000, 4.000000, 4.000000, 4.000000, 4.000000, 4.000000, 4.000000, 4.000000, 4.000000
62.000000, 0.000000, 4190.256348, 4170.256348, 4200.000000, 4192.820313, 4198.461426, 4203.076660, 4203.589844, 4208.717773, 4218.461426, 4241.025391, 4230.769043, 4206.153809, 4227.179199, 4233.333008, 0.000000, 8200.000000, 8097.000000, 0.000000, 0.000000, 0.000000, 26678.000000, 45.641026, 4.000000, 4.000000, 4.000000, 4.000000, 4.000000, 4.000000, 4.000000, 4.000000, 4.000000, 4.000000, 4.000000, 4.000000, 4.000000, 4.000000, 4.000000, 4.000000
63.000000, 0.000000, 4187.179199, 4165.641113, 4191.281738, 4192.307617, 4194.871582, 4198.974121, 4215.897461, 4208.717773, 4215.897461, 4247.692383, 4230.769043, 4207.179199, 4229.230469, 4229.743652, 0.000000, 8207.000000, 8076.000000, 0.000000, 0.000000, 0.000000, 26678.000000, 53.333332, 4.000000, 4.000000, 4.000000, 4.000000, 4.000000, 4.000000, 4.000000, 4.000000, 4.000000, 4.000000, 4.000000, 4.000000, 4.000000, 4.000000, 4.000000, 4.000000
64.000000, 0.000000, 4192.307617, 4172.307617, 4183.589844, 4188.717773, 4196.410156, 4203.589844, 4214.358887, 4214.871582, 4219.487305, 4252.307617, 4233.333008, 4216.410156, 4232.820313, 4232.820313, 3491.000000, 8207.000000, 8076.000000, 0.000000, 0.000000, 0.000000, 26678.000000, 61.025639, 4.000000, 4.000000, 4.000000, 4.000000, 4.000000, 4.000000, 4.000000, 4.000000, 4.000000, 4.000000, 4.000000, 4.000000, 4.000000, 4.000000, 4.000000, 4.000000
65.000000, 0.000000, 4196.922852, 4175.384277, 4193.846191, 4190.256348, 4203.589844, 4203.589844, 4213.333008, 4215.897461, 4221.025391, 4244.615234, 4233.333008, 4220.512695, 4234.358887, 4236.410156, 2052.000000, 8204.000000, 8073.000000, 0.000000, 0.000000, 0.000000, 26678.000000, 69.230766, 4.000000, 4.000000, 4.000000, 4.000000, 4.000000, 4.000000, 4.000000, 4.000000, 4.000000, 4.000000, 4.000000, 4.000000, 4.000000, 4.000000, 4.000000, 4.000000
66.000000, 0.000000, 4197.436035, 4171.794922, 4203.076660, 4188.717773, 4197.948730, 4200.512695, 4218.974121, 4204.102539, 4211.794922, 4231.794922, 4225.127930, 4210.256348, 4229.230469, 4229.230469, 3087.000000, 8204.000000, 8073.000000, 0.000000, 0.000000, 0.000000, 26678.000000, 76.923073, 4.000000, 4.000000, 4.000000, 4.000000, 4.000000, 4.000000, 4.000000, 4.000000, 4.000000, 4.000000, 4.000000, 4.000000, 4.000000, 4.000000, 4.000000, 4.000000
67.000000, 0.000000, 4191.281738, 4168.717773, 4192.820313, 4185.127930, 4188.717773, 4201.025391, 4209.230469, 4195.897461, 4206.153809, 4226.153809, 4215.897461, 4197.948730, 4218.974121, 4217.948730, 3553.000000, 8198.000000, 8072.000000, 0.000000, 0.000000, 0.000000, 26678.000000, 84.615379, 4.000000, 4.000000, 4.000000, 4.000000, 4.000000, 4.000000, 4.000000, 4.000000, 4.000000, 4.000000, 4.000000, 4.000000, 4.000000, 4.000000, 4.000000, 4.000000
68.000000, 0.000000, 4188.717773, 4167.179199, 4190.769043, 4188.717773, 4193.846191, 4207.179199, 4201.538574, 4204.615234, 4210.256348, 4228.205078, 4216.922852, 4200.512695, 4219.487305, 4216.410156, 3537.000000, 8198.000000, 8072.000000, 0.000000, 0.000000, 0.000000, 26678.000000, 92.307693, 4.000000, 4.000000, 4.000000, 4.000000, 4.000000, 4.000000, 4.000000, 4.000000, 4.000000, 4.000000, 4.000000, 4.000000, 4.000000, 4.000000, 4.000000, 4.000000
69.000000, 0.000000, 4196.922852, 4175.384277, 4208.205078, 4188.205078, 4204.615234, 4215.897461, 4214.871582, 4220.512695, 4220.512695, 4240.512695, 4230.769043, 4214.871582, 4234.871582, 4233.333008, 3575.000000, 8176.000000, 8075.000000, 0.000000, 0.000000, 0.000000, 26678.000000, 100.000000, 4.000000, 4.000000, 4.000000, 4.000000, 4.000000, 4.000000, 4.000000, 4.000000, 4.000000, 4.000000, 4.000000, 4.000000, 4.000000, 4.000000, 4.000000, 4.000000
70.000000, 0.000000, 4204.102539, 4187.692383, 4213.333008, 4196.410156, 4205.127930, 4215.897461, 4220.000000, 4222.051270, 4227.179199, 4251.794922, 4238.974121, 4224.102539, 4244.615234, 4245.127930, 3501.000000, 8176.000000, 8075.000000, 0.000000, 0.000000, 0.000000, 26678.000000, 107.692307, 4.000000, 4.000000, 4.000000, 4.000000, 4.000000, 4.000000, 4.000000, 4.000000, 4.000000, 4.000000, 4.000000, 4.000000, 4.000000, 4.000000, 4.000000, 4.000000
71.000000, 0.000000, 4196.922852, 4185.127930, 4201.025391, 4195.897461, 4201.025391, 4213.333008, 4216.410156, 4214.358887, 4222.051270, 4252.307617, 4232.307617, 4217.436035, 4236.922852, 4237.436035, 3507.000000, 8162.000000, 8077.000000, 0.000000, 0.000000, 0.000000, 26678.000000, 115.897430, 4.000000, 4.000000, 4.000000, 4.000000, 4.000000, 4.000000, 4.000000, 4.000000, 4.000000, 4.000000, 4.000000, 4.000000, 4.000000, 4.000000, 4.000000, 4.000000
72.000000, 0.000000, 4192.307617, 4172.307617, 4193.846191, 4184.615234, 4201.025391, 4215.384277, 4218.461426, 4211.281738, 4213.846191, 4247.179199, 4227.179199, 4204.615234, 4227.692383, 4228.205078, 3347.000000, 8162.000000, 8077.000000, 0.000000, 0.000000, 0.000000, 26678.000000, 123.589737, 4.000000, 4.000000, 4.000000, 4.000000, 4.000000, 4.000000, 4.000000, 4.000000, 4.000000, 4.000000, 4.000000, 4.000000, 4.000000, 4.000000, 4.000000, 4.000000
73.000000, 0.000000, 4194.358887, 4169.743652, 4195.897461, 4187.179199, 4203.076660, 4212.820313, 4218.974121, 4214.358887, 4215.384277, 4243.589844, 4228.717773, 4205.127930, 4227.692383, 4229.743652, 3537.000000, 8144.000000, 8092.000000, 0.000000, 0.000000, 0.000000, 26678.000000, 131.282043, 4.000000, 4.000000, 4.000000, 4.000000, 4.000000, 4.000000, 4.000000, 4.000000, 4.000000, 4.000000, 4.000000, 4.000000, 4.000000, 4.000000, 4.000000, 4.000000
74.000000, 0.000000, 4191.794922, 4173.846191, 4194.871582, 4184.615234, 4203.076660, 4212.307617, 4216.922852, 4222.563965, 4223.076660, 4240.000000, 4229.743652, 4211.281738, 4229.743652, 4232.307617, 3057.000000, 8144.000000, 8092.000000, 0.000000, 0.000000, 0.000000, 26678.000000, 138.974350, 4.000000, 4.000000, 4.000000, 4.000000, 4.000000, 4.000000, 4.000000, 4.000000, 4.000000, 4.000000, 4.000000, 4.000000, 4.000000, 4.000000, 4.000000, 4.000000
75.000000, 0.000000, 4190.256348, 4169.743652, 4190.769043, 4182.051270, 4201.538574, 4214.358887, 4218.461426, 4225.641113, 4220.000000, 4232.820313, 4227.692383, 4207.179199, 4230.769043, 4230.256348, 3554.000000, 8142.000000, 8099.000000, 0.000000, 0.000000, 0.000000, 26678.000000, 146.666656, 4.000000, 4.000000, 4.000000, 4.000000, 4.000000, 4.000000, 4.000000, 4.000000, 4.000000, 4.000000, 4.000000, 4.000000, 4.000000, 4.000000, 4.000000, 4.000000
76.000000, 0.000000, 4195.384277, 4167.692383, 4191.281738, 4182.563965, 4204.102539, 4217.436035, 4222.051270, 4218.974121, 4212.307617, 4229.743652, 4224.615234, 4205.127930, 4230.256348, 4230.256348, 3513.000000, 8142.000000, 8099.000000, 0.000000, 0.000000, 0.000000, 26678.000000, 154.871796, 4.000000, 4.000000, 4.000000, 4.000000, 4.000000, 4.000000, 4.000000, 4.000000, 4.000000, 4.000000, 4.000000, 4.000000, 4.000000, 4.000000, 4.000000, 4.000000
77.000000, 0.000000, 4200.512695, 4176.410156, 4197.948730, 4184.102539, 4204.615234, 4224.615234, 4229.230469, 4214.358887, 4209.743652, 4228.205078, 4220.000000, 4208.205078, 4224.102539, 4232.307617, 3479.000000, 8139.000000, 8112.000000, 0.000000, 0.000000, 0.000000, 26678.000000, 162.564102, 4.000000, 4.000000, 4.000000, 4.000000, 4.000000, 4.000000, 4.000000, 4.000000, 4.000000, 4.000000, 4.000000, 4.000000, 4.000000, 4.000000, 4.000000, 4.000000
78.000000, 0.000000, 4200.512695, 4181.538574, 4202.051270, 4194.871582, 4200.512695, 4227.692383, 4234.358887, 4214.358887, 4207.692383, 4224.102539, 4216.410156, 4210.256348, 4219.487305, 4228.205078, 3057.000000, 8139.000000, 8112.000000, 0.000000, 0.000000, 0.000000, 26678.000000, 170.256409, 4.000000, 4.000000, 4.000000, 4.000000, 4.000000, 4.000000, 4.000000, 4.000000, 4.000000, 4.000000, 4.000000, 4.000000, 4.000000, 4.000000, 4.000000, 4.000000
79.000000, 0.000000, 4197.436035, 4177.436035, 4201.025391, 4190.256348, 4201.538574, 4226.153809, 4225.641113, 4209.230469, 4204.615234, 4227.179199, 4220.512695, 4214.358887, 4224.102539, 4229.230469, 3554.000000, 8139.000000, 8127.000000, 0.000000, 0.000000, 0.000000, 26678.000000, 177.948715, 4.000000, 4.000000, 4.000000, 4.000000, 4.000000, 4.000000, 4.000000, 4.000000, 4.000000, 4.000000, 4.000000, 4.000000, 4.000000, 4.000000, 4.000000, 4.000000
80.000000, 0.000000, 4195.384277, 4171.281738, 4200.000000, 4185.641113, 4202.051270, 4224.102539, 4217.436035, 4200.000000, 4204.102539, 4230.769043, 4226.153809, 4218.461426, 4228.717773, 4231.281738, 3513.000000, 8139.000000, 8127.000000, 0.000000, 0.000000, 0.000000, 26678.000000, 185.641022, 4.000000, 4.000000, 4.000000, 4.000000, 4.000000, 4.000000, 4.000000, 4.000000, 4.000000, 4.000000, 4.000000, 4.000000, 4.000000, 4.000000, 4.000000, 4.000000
81.000000, 0.000000, 4194.871582, 4168.717773, 4206.153809, 4188.205078, 4201.025391, 4223.076660, 4221.025391, 4207.179199, 4213.333008, 4234.871582, 4229.230469, 4223.589844, 4228.717773, 4231.281738, 3479.000000, 8148.000000, 8138.000000, 0.000000, 0.000000, 0.000000, 26678.000000, 193.846146, 4.000000, 4.000000, 4.000000, 4.000000, 4.000000, 4.000000, 4.000000, 4.000000, 4.000000, 4.000000, 4.000000, 4.000000, 4.000000, 4.000000, 4.000000, 4.000000
82.000000, 0.000000, 4198.974121, 4180.512695, 4212.307617, 4187.692383, 4206.666504, 4220.000000, 4221.025391, 4218.974121, 4221.025391, 4246.153809, 4236.410156, 4230.769043, 4233.333008, 4240.512695, 3057.000000, 8148.000000, 8138.000000, 0.000000, 0.000000, 0.000000, 26678.000000, 201.538452, 4.000000, 4.000000, 4.000000, 4.000000, 4.000000, 4.000000, 4.000000, 4.000000, 4.000000, 4.000000, 4.000000, 4.000000, 4.000000, 4.000000, 4.000000, 4.000000
83.000000, 0.000000, 4200.000000, 4181.538574, 4212.307617, 4193.333008, 4207.179199, 4215.384277, 4216.922852, 4217.948730, 4217.948730, 4250.769043, 4237.948730, 4228.205078, 4236.922852, 4247.692383, 3554.000000, 8161.000000, 8158.000000, 0.000000, 0.000000, 0.000000, 26678.000000, 209.230759, 4.000000, 4.000000, 4.000000, 4.000000, 4.000000, 4.000000, 4.000000, 4.000000, 4.000000, 4.000000, 4.000000, 4.000000, 4.000000, 4.000000, 4.000000, 4.000000
84.000000, 0.000000, 4190.769043, 4155.897461, 4211.281738, 4185.127930, 4198.974121, 4214.358887, 4218.461426, 4215.384277, 4216.410156, 4241.025391, 4228.205078, 4217.948730, 4225.641113, 4236.922852, 3513.000000, 8161.000000, 8158.000000, 0.000000, 0.000000, 0.000000, 26678.000000, 216.923065, 4.000000, 4.000000, 4.000000, 4.000000, 4.000000, 4.000000, 4.000000, 4.000000, 4.000000, 4.000000, 4.000000, 4.000000, 4.000000, 4.000000, 4.000000, 4.000000
85.000000, 0.000000, 4187.692383, 4154.358887, 4216.410156, 4185.127930, 4197.948730, 4214.871582, 4221.538574, 4213.846191, 4216.410156, 4231.794922, 4218.461426, 4215.897461, 4216.922852, 4228.205078, 3479.000000, 8166.000000, 8161.000000, 0.000000, 0.000000, 0.000000, 26678.000000, 224.615372, 4.000000, 4.000000, 4.000000, 4.000000, 4.000000, 4.000000, 4.000000, 4.000000, 4.000000, 4.000000, 4.000000, 4.000000, 4.000000, 4.000000, 4.000000, 4.000000
86.000000, 0.000000, 4193.846191, 4183.589844, 4214.358887, 4195.897461, 4202.051270, 4215.384277, 4216.410156, 4212.820313, 4211.794922, 4224.102539, 4211.794922, 4209.743652, 4214.871582, 4227.179199, 3057.000000, 8166.000000, 8161.000000, 0.000000, 0.000000, 0.000000, 26678.000000, 232.307693, 4.000000, 4.000000, 4.000000, 4.000000, 4.000000, 4.000000, 4.000000, 4.000000, 4.000000, 4.000000, 4.000000, 4.000000, 4.000000, 4.000000, 4.000000, 4.000000
87.000000, 0.000000, 4193.846191, 4191.281738, 4204.102539, 4191.281738, 4208.717773, 4222.563965, 4217.948730, 4216.922852, 4208.717773, 4209.230469, 4205.127930, 4197.436035, 4209.230469, 4219.487305, 3554.000000, 8184.000000, 8177.000000, 0.000000, 0.000000, 0.000000, 26678.000000, 240.512817, 4.000000, 4.000000, 4.000000, 4.000000, 4.000000, 4.000000, 4.000000, 4.000000, 4.000000, 4.000000, 4.000000, 4.000000, 4.000000, 4.000000, 4.000000, 4.000000
88.000000, 0.000000, 4186.666504, 4181.538574, 4203.589844, 4192.307617, 4212.307617, 4230.256348, 4226.666504, 4214.871582, 4203.589844, 4197.948730, 4195.384277, 4191.794922, 4195.897461, 4208.717773, 3513.000000, 8184.000000, 8177.000000, 0.000000, 0.000000, 0.000000, 26678.000000, 248.205124, 4.000000, 4.000000, 4.000000, 4.000000, 4.000000, 4.000000, 4.000000, 4.000000, 4.000000, 4.000000, 4.000000, 4.000000, 4.000000, 4.000000, 4.000000, 4.000000
89.000000, 0.000000, 4180.000000, 4187.179199, 4197.436035, 4189.743652, 4207.692383, 4224.615234, 4218.461426, 4204.102539, 4196.922852, 4198.461426, 4185.127930, 4184.102539, 4185.127930, 4198.461426, 3479.000000, 8189.000000, 8183.000000, 0.000000, 0.000000, 0.000000, 26678.000000, 255.897430, 4.000000, 4.000000, 4.000000, 4.000000, 4.000000, 4.000000, 4.000000, 4.000000, 4.000000, 4.000000, 4.000000, 4.000000, 4.000000, 4.000000, 4.000000, 4.000000
90.000000, 0.000000, 4183.076660, 4198.974121, 4180.512695, 4188.205078, 4207.179199, 4215.384277, 4202.563965, 4196.922852, 4194.871582, 4198.461426, 4181.538574, 4176.410156, 4182.563965, 4191.794922, 3057.000000, 8189.000000, 8183.000000, 0.000000, 0.000000, 0.000000, 26678.000000, 263.589752, 4.000000, 4.000000, 4.000000, 4.000000, 4.000000, 4.000000, 4.000000, 4.000000, 4.000000, 4.000000, 4.000000, 4.000000, 4.000000, 4.000000, 4.000000, 4.000000
91.000000, 0.000000, 4188.205078, 4210.256348, 4174.358887, 4196.410156, 4212.307617, 4216.922852, 4201.025391, 4199.487305, 4198.974121, 4197.948730, 4184.102539, 4180.512695, 4184.102539, 4195.384277, 3554.000000, 8197.000000, 8195.000000, 0.000000, 0.000000, 0.000000, 26678.000000, 271.282043, 4.000000, 4.000000, 4.000000, 4.000000, 4.000000, 4.000000, 4.000000, 4.000000, 4.000000, 4.000000, 4.000000, 4.000000, 4.000000, 4.000000, 4.000000, 4.000000
92.000000, 0.000000, 4188.717773, 4221.025391, 4178.461426, 4197.436035, 4213.333008, 4215.897461, 4202.563965, 4197.948730, 4207.692383, 4207.179199, 4186.153809, 4180.512695, 4185.127930, 4200.000000, 3513.000000, 8197.000000, 8195.000000, 0.000000, 0.000000, 0.000000, 26678.000000, 278.974365, 4.000000, 4.000000, 4.000000, 4.000000, 4.000000, 4.000000, 4.000000, 4.000000, 4.000000, 4.000000, 4.000000, 4.000000, 4.000000, 4.000000, 4.000000, 4.000000
93.000000, 0.000000, 4188.717773, 4219.487305, 4182.563965, 4200.000000, 4212.820313, 4211.794922, 4202.051270, 4198.974121, 4213.846191, 4213.846191, 4183.076660, 4177.948730, 4183.589844, 4198.461426, 3479.000000, 8200.000000, 8211.000000, 0.000000, 0.000000, 0.000000, 26678.000000, 287.179474, 4.000000, 4.000000, 4.000000, 4.000000, 4.000000, 4.000000, 4.000000, 4.000000, 4.000000, 4.000000, 4.000000, 4.000000, 4.000000, 4.000000, 4.000000, 4.000000
94.000000, 0.000000, 4190.256348, 4217.948730, 4184.102539, 4199.487305, 4213.333008, 4209.743652, 4206.153809, 4208.717773, 4210.256348, 4209.230469, 4186.666504, 4179.487305, 4181.025391, 4197.436035, 3057.000000, 8200.000000, 8211.000000, 0.000000, 0.000000, 0.000000, 26678.000000, 294.871796, 4.000000, 4.000000, 4.000000, 4.000000, 4.000000, 4.000000, 4.000000, 4.000000, 4.000000, 4.000000, 4.000000, 4.000000, 4.000000, 4.000000, 4.000000, 4.000000
95.000000, 0.000000, 4192.820313, 4225.127930, 4186.666504, 4200.512695, 4210.256348, 4203.076660, 4205.127930, 4200.512695, 4199.487305, 4200.512695, 4188.205078, 4176.410156, 4175.384277, 4196.922852, 3554.000000, 8198.000000, 8217.000000, 0.000000, 0.000000, 0.000000, 26678.000000, 302.564087, 4.000000, 4.000000, 4.000000, 4.000000, 4.000000, 4.000000, 4.000000, 4.000000, 4.000000, 4.000000, 4.000000, 4.000000, 4.000000, 4.000000, 4.000000, 4.000000
96.000000, 0.000000, 4196.922852, 4231.794922, 4191.281738, 4208.205078, 4210.256348, 4197.436035, 4201.025391, 4183.589844, 4197.436035, 4200.000000, 4183.589844, 4174.871582, 4171.281738, 4196.922852, 3513.000000, 8198.000000, 8217.000000, 0.000000, 0.000000, 0.000000, 26678.000000, 310.256409, 4.000000, 4.000000, 4.000000, 4.000000, 4.000000, 4.000000, 4.000000, 4.000000, 4.000000, 4.000000, 4.000000, 4.000000, 4.000000, 4.000000, 4.000000, 4.000000
97.000000, 0.000000, 4199.487305, 4232.820313, 4197.436035, 4207.179199, 4216.922852, 4196.922852, 4203.076660, 4190.256348, 4201.538574, 4201.025391, 4184.102539, 4182.563965, 4169.743652, 4196.922852, 3479.000000, 8198.000000, 8233.000000, 0.000000, 0.000000, 0.000000, 26678.000000, 317.948700, 4.000000, 4.000000, 4.000000, 4.000000, 4.000000, 4.000000, 4.000000, 4.000000, 4.000000, 4.000000, 4.000000, 4.000000, 4.000000, 4.000000, 4.000000, 4.000000
