title:neutral-1, recorded:15.05.18 09.09.46, timestamp started:2018-05-12T20:28:52.032863+02:00            , sampling:128, subject:Noé, labels:COUNTER INTERPOLATED AF3 F7 F3 FC5 T7 P7 O1 O2 P8 T8 FC6 F4 F8 AF4 RAW_CQ GYROX GYROY MARKER MARKER_HARDWARE SYNC TIME_STAMP_s TIME_STAMP_ms CQ_AF3 CQ_F7 CQ_F3 CQ_FC5 CQ_T7 CQ_P7 CQ_O1 CQ_O2 CQ_P8 CQ_T8 CQ_FC6 CQ_F4 CQ_F8 CQ_AF4 CQ_CMS CQ_DRL, chan:40, samples:6692, units:emotiv
109.000000, 0.000000, 4207.179199, 4210.256348, 4187.692383, 4195.384277, 4190.769043, 4186.153809, 4182.563965, 4197.948730, 4200.512695, 4204.615234, 4185.641113, 4170.769043, 4319.487305, 4200.000000, 3512.000000, 8228.000000, 8070.000000, 0.000000, 0.000000, 0.000000, 21847.000000, 202.051270, 4.000000, 4.000000, 4.000000, 4.000000, 4.000000, 4.000000, 4.000000, 4.000000, 4.000000, 4.000000, 4.000000, 4.000000, 4.000000, 4.000000, 4.000000, 4.000000
110.000000, 0.000000, 4197.436035, 4196.410156, 4182.563965, 4183.076660, 4187.179199, 4187.179199, 4169.743652, 4197.436035, 4197.948730, 4197.948730, 4175.897461, 4167.179199, 4310.256348, 4191.281738, 2810.000000, 8228.000000, 8070.000000, 0.000000, 0.000000, 0.000000, 21847.000000, 209.743591, 4.000000, 4.000000, 4.000000, 4.000000, 4.000000, 4.000000, 4.000000, 4.000000, 4.000000, 4.000000, 4.000000, 4.000000, 4.000000, 4.000000, 4.000000, 4.000000
111.000000, 0.000000, 4202.563965, 4200.000000, 4184.102539, 4183.589844, 4188.205078, 4188.717773, 4178.974121, 4197.436035, 4199.487305, 4198.974121, 4183.076660, 4177.436035, 4311.794922, 4195.897461, 3133.000000, 8247.000000, 8075.000000, 0.000000, 0.000000, 0.000000, 21847.000000, 217.948715, 4.000000, 4.000000, 4.000000, 4.000000, 4.000000, 4.000000, 4.000000, 4.000000, 4.000000, 4.000000, 4.000000, 4.000000, 4.000000, 4.000000, 4.000000, 4.000000
112.000000, 0.000000, 4203.589844, 4206.153809, 4189.743652, 4189.230469, 4190.256348, 4190.256348, 4195.897461, 4197.436035, 4199.487305, 4202.051270, 4192.820313, 4187.179199, 4318.974121, 4204.615234, 3514.000000, 8247.000000, 8075.000000, 0.000000, 0.000000, 0.000000, 21847.000000, 225.641022, 4.000000, 4.000000, 4.000000, 4.000000, 4.000000, 4.000000, 4.000000, 4.000000, 4.000000, 4.000000, 4.000000, 4.000000, 4.000000, 4.000000, 4.000000, 4.000000
113.000000, 0.000000, 4198.461426, 4200.000000, 4194.358887, 4186.666504, 4190.769043, 4195.384277, 4205.127930, 4198.974121, 4200.000000, 4201.025391, 4191.281738, 4187.179199, 4303.589844, 4202.051270, 3512.000000, 8251.000000, 8072.000000, 0.000000, 0.000000, 0.000000, 21847.000000, 233.846146, 4.000000, 4.000000, 4.000000, 4.000000, 4.000000, 4.000000, 4.000000, 4.000000, 4.000000, 4.000000, 4.000000, 4.000000, 4.000000, 4.000000, 4.000000, 4.000000
114.000000, 0.000000, 4202.051270, 4199.487305, 4197.436035, 4186.153809, 4191.281738, 4196.922852, 4202.563965, 4199.487305, 4201.538574, 4200.512695, 4188.205078, 4181.538574, 4279.487305, 4198.461426, 2810.000000, 8251.000000, 8072.000000, 0.000000, 0.000000, 0.000000, 21847.000000, 241.538452, 4.000000, 4.000000, 4.000000, 4.000000, 4.000000, 4.000000, 4.000000, 4.000000, 4.000000, 4.000000, 4.000000, 4.000000, 4.000000, 4.000000, 4.000000, 4.000000
115.000000, 0.000000, 4198.974121, 4196.410156, 4191.281738, 4186.153809, 4188.717773, 4191.794922, 4198.974121, 4195.897461, 4199.487305, 4195.384277, 4186.666504, 4174.358887, 4271.794922, 4191.281738, 3133.000000, 8254.000000, 8074.000000, 0.000000, 0.000000, 0.000000, 21847.000000, 249.743576, 4.000000, 4.000000, 4.000000, 4.000000, 4.000000, 4.000000, 4.000000, 4.000000, 4.000000, 4.000000, 4.000000, 4.000000, 4.000000, 4.000000, 4.000000, 4.000000
116.000000, 0.000000, 4190.769043, 4189.230469, 4183.076660, 4182.563965, 4184.615234, 4190.256348, 4202.051270, 4193.333008, 4197.436035, 4187.692383, 4183.589844, 4171.794922, 4274.358887, 4184.615234, 3514.000000, 8254.000000, 8074.000000, 0.000000, 0.000000, 0.000000, 21847.000000, 257.435883, 4.000000, 4.000000, 4.000000, 4.000000, 4.000000, 4.000000, 4.000000, 4.000000, 4.000000, 4.000000, 4.000000, 4.000000, 4.000000, 4.000000, 4.000000, 4.000000
117.000000, 0.000000, 4193.846191, 4193.846191, 4188.205078, 4183.076660, 4187.179199, 4197.948730, 4205.127930, 4197.948730, 4203.076660, 4191.794922, 4188.717773, 4180.000000, 4273.333008, 4193.846191, 3512.000000, 8248.000000, 8066.000000, 0.000000, 0.000000, 0.000000, 21847.000000, 265.641022, 4.000000, 4.000000, 4.000000, 4.000000, 4.000000, 4.000000, 4.000000, 4.000000, 4.000000, 4.000000, 4.000000, 4.000000, 4.000000, 4.000000, 4.000000, 4.000000
118.000000, 0.000000, 4201.025391, 4202.051270, 4203.076660, 4188.717773, 4192.307617, 4204.615234, 4206.666504, 4202.051270, 4211.281738, 4205.127930, 4201.538574, 4193.846191, 4281.025391, 4204.102539, 2810.000000, 8248.000000, 8066.000000, 0.000000, 0.000000, 0.000000, 21847.000000, 273.333313, 4.000000, 4.000000, 4.000000, 4.000000, 4.000000, 4.000000, 4.000000, 4.000000, 4.000000, 4.000000, 4.000000, 4.000000, 4.000000, 4.000000, 4.000000, 4.000000
119.000000, 0.000000, 4203.589844, 4201.538574, 4211.794922, 4186.666504, 4190.256348, 4196.410156, 4210.769043, 4198.461426, 4208.717773, 4208.205078, 4206.666504, 4195.897461, 4287.692383, 4201.025391, 3133.000000, 8242.000000, 8065.000000, 0.000000, 0.000000, 0.000000, 21847.000000, 281.538452, 4.000000, 4.000000, 4.000000, 4.000000, 4.000000, 4.000000, 4.000000, 4.000000, 4.000000, 4.000000, 4.000000, 4.000000, 4.000000, 4.000000, 4.000000, 4.000000
120.000000, 0.000000, 4197.436035, 4198.461426, 4204.615234, 4177.436035, 4185.127930, 4183.076660, 4213.846191, 4196.410156, 4198.461426, 4199.487305, 4201.538574, 4186.666504, 4281.025391, 4196.410156, 3514.000000, 8242.000000, 8065.000000, 0.000000, 0.000000, 0.000000, 21847.000000, 289.230774, 4.000000, 4.000000, 4.000000, 4.000000, 4.000000, 4.000000, 4.000000, 4.000000, 4.000000, 4.000000, 4.000000, 4.000000, 4.000000, 4.000000, 4.000000, 4.000000
121.000000, 0.000000, 4191.794922, 4201.025391, 4198.461426, 4178.461426, 4184.615234, 4187.692383, 4216.410156, 4199.487305, 4202.563965, 4204.102539, 4205.127930, 4183.076660, 4291.281738, 4198.974121, 3512.000000, 8229.000000, 8057.000000, 0.000000, 0.000000, 0.000000, 21847.000000, 297.435883, 4.000000, 4.000000, 4.000000, 4.000000, 4.000000, 4.000000, 4.000000, 4.000000, 4.000000, 4.000000, 4.000000, 4.000000, 4.000000, 4.000000, 4.000000, 4.000000
122.000000, 0.000000, 4194.871582, 4204.615234, 4208.717773, 4187.692383, 4187.692383, 4203.589844, 4222.051270, 4199.487305, 4217.948730, 4220.000000, 4215.897461, 4189.743652, 4311.794922, 4202.051270, 2810.000000, 8229.000000, 8057.000000, 0.000000, 0.000000, 0.000000, 21847.000000, 305.641022, 4.000000, 4.000000, 4.000000, 4.000000, 4.000000, 4.000000, 4.000000, 4.000000, 4.000000, 4.000000, 4.000000, 4.000000, 4.000000, 4.000000, 4.000000, 4.000000
123.000000, 0.000000, 4194.871582, 4204.615234, 4213.846191, 4184.102539, 4189.743652, 4203.076660, 4225.641113, 4198.974121, 4216.410156, 4220.512695, 4214.358887, 4189.743652, 4314.358887, 4197.948730, 3133.000000, 8224.000000, 8054.000000, 0.000000, 0.000000, 0.000000, 21847.000000, 313.333313, 4.000000, 4.000000, 4.000000, 4.000000, 4.000000, 4.000000, 4.000000, 4.000000, 4.000000, 4.000000, 4.000000, 4.000000, 4.000000, 4.000000, 4.000000, 4.000000
124.000000, 0.000000, 4189.743652, 4198.974121, 4203.589844, 4173.333008, 4183.076660, 4188.205078, 4220.000000, 4198.461426, 4202.563965, 4206.153809, 4204.615234, 4185.127930, 4310.256348, 4192.307617, 3514.000000, 8224.000000, 8054.000000, 0.000000, 0.000000, 0.000000, 21847.000000, 321.538452, 4.000000, 4.000000, 4.000000, 4.000000, 4.000000, 4.000000, 4.000000, 4.000000, 4.000000, 4.000000, 4.000000, 4.000000, 4.000000, 4.000000, 4.000000, 4.000000
125.000000, 0.000000, 4186.153809, 4187.179199, 4202.051270, 4166.153809, 4171.281738, 4183.076660, 4216.410156, 4197.948730, 4200.000000, 4200.000000, 4199.487305, 4183.076660, 4309.230469, 4187.692383, 3512.000000, 8213.000000, 8058.000000, 0.000000, 0.000000, 0.000000, 21847.000000, 329.230774, 4.000000, 4.000000, 4.000000, 4.000000, 4.000000, 4.000000, 4.000000, 4.000000, 4.000000, 4.000000, 4.000000, 4.000000, 4.000000, 4.000000, 4.000000, 4.000000
126.000000, 0.000000, 4191.281738, 4186.666504, 4213.333008, 4168.717773, 4172.820313, 4183.076660, 4220.000000, 4198.461426, 4200.512695, 4199.487305, 4198.974121, 4176.410156, 4305.641113, 4183.589844, 2810.000000, 8213.000000, 8058.000000, 0.000000, 0.000000, 0.000000, 21847.000000, 336.923065, 4.000000, 4.000000, 4.000000, 4.000000, 4.000000, 4.000000, 4.000000, 4.000000, 4.000000, 4.000000, 4.000000, 4.000000, 4.000000, 4.000000, 4.000000, 4.000000
127.000000, 0.000000, 4197.948730, 4197.948730, 4218.974121, 4178.461426, 4183.589844, 4184.615234, 4218.461426, 4195.384277, 4190.769043, 4191.794922, 4195.897461, 4171.794922, 4306.666504, 4185.127930, 57.000000, 8208.000000, 8059.000000, 0.000000, 0.000000, 0.000000, 21847.000000, 345.128204, 4.000000, 4.000000, 4.000000, 4.000000, 4.000000, 4.000000, 4.000000, 4.000000, 4.000000, 4.000000, 4.000000, 4.000000, 4.000000, 4.000000, 4.000000, 4.000000
0.000000, 0.000000, 4193.846191, 4195.384277, 4216.922852, 4181.538574, 4180.512695, 4184.615234, 4213.846191, 4188.717773, 4183.076660, 4187.179199, 4190.256348, 4173.333008, 4304.615234, 4185.127930, 3526.000000, 8208.000000, 8059.000000, 0.000000, 0.000000, 0.000000, 21847.000000, 353.333313, 4.000000, 4.000000, 4.000000, 4.000000, 4.000000, 4.000000, 4.000000, 4.000000, 4.000000, 4.000000, 4.000000, 4.000000, 4.000000, 4.000000, 4.000000, 4.000000
1.000000, 0.000000, 4188.717773, 4187.692383, 4215.384277, 4173.333008, 4167.692383, 4178.461426, 4211.281738, 4186.153809, 4180.512695, 4186.153809, 4184.102539, 4172.307617, 4294.871582, 4181.025391, 3537.000000, 8210.000000, 8062.000000, 0.000000, 0.000000, 0.000000, 21847.000000, 361.025635, 4.000000, 4.000000, 4.000000, 4.000000, 4.000000, 4.000000, 4.000000, 4.000000, 4.000000, 4.000000, 4.000000, 4.000000, 4.000000, 4.000000, 4.000000, 4.000000
2.000000, 0.000000, 4195.897461, 4198.974121, 4217.948730, 4171.794922, 4168.717773, 4176.922852, 4208.205078, 4187.692383, 4181.025391, 4187.692383, 4183.076660, 4170.769043, 4297.436035, 4188.717773, 2298.000000, 8210.000000, 8062.000000, 0.000000, 0.000000, 0.000000, 21847.000000, 369.230774, 4.000000, 4.000000, 4.000000, 4.000000, 4.000000, 4.000000, 4.000000, 4.000000, 4.000000, 4.000000, 4.000000, 4.000000, 4.000000, 4.000000, 4.000000, 4.000000
3.000000, 0.000000, 4201.025391, 4210.256348, 4221.025391, 4177.436035, 4177.436035, 4182.051270, 4204.102539, 4188.717773, 4184.102539, 4187.692383, 4187.692383, 4172.307617, 4302.563965, 4201.538574, 3557.000000, 8207.000000, 8061.000000, 0.000000, 0.000000, 0.000000, 21847.000000, 376.923065, 4.000000, 4.000000, 4.000000, 4.000000, 4.000000, 4.000000, 4.000000, 4.000000, 4.000000, 4.000000, 4.000000, 4.000000, 4.000000, 4.000000, 4.000000, 4.000000
4.000000, 1.000000, 4199.487305, 4208.717773, 4218.461426, 4176.410156, 4178.974121, 4182.051270, 4203.076660, 4189.230469, 4184.102539, 4189.230469, 4187.692383, 4171.794922, 4306.153809, 4200.000000, 3554.000000, 8207.000000, 8061.000000, 0.000000, 0.000000, 0.000000, 21847.000000, 385.128204, 4.000000, 4.000000, 4.000000, 4.000000, 4.000000, 4.000000, 4.000000, 4.000000, 4.000000, 4.000000, 4.000000, 4.000000, 4.000000, 4.000000, 4.000000, 4.000000
5.000000, 1.000000, 4197.948730, 4207.179199, 4215.897461, 4175.384277, 4180.000000, 4182.563965, 4202.051270, 4189.743652, 4184.102539, 4191.281738, 4187.179199, 4170.769043, 4309.743652, 4198.461426, 3551.000000, 8207.000000, 8061.000000, 0.000000, 0.000000, 0.000000, 21847.000000, 392.820496, 4.000000, 4.000000, 4.000000, 4.000000, 4.000000, 4.000000, 4.000000, 4.000000, 4.000000, 4.000000, 4.000000, 4.000000, 4.000000, 4.000000, 4.000000, 4.000000
6.000000, 1.000000, 4196.410156, 4205.641113, 4213.333008, 4174.358887, 4181.538574, 4182.563965, 4201.025391, 4190.256348, 4184.102539, 4192.820313, 4187.179199, 4169.743652, 4313.333008, 4197.436035, 3548.000000, 8207.000000, 8061.000000, 0.000000, 0.000000, 0.000000, 21847.000000, 400.512817, 4.000000, 4.000000, 4.000000, 4.000000, 4.000000, 4.000000, 4.000000, 4.000000, 4.000000, 4.000000, 4.000000, 4.000000, 4.000000, 4.000000, 4.000000, 4.000000
7.000000, 1.000000, 4194.871582, 4204.102539, 4210.256348, 4173.333008, 4182.563965, 4183.076660, 4200.000000, 4190.769043, 4184.102539, 4194.871582, 4187.179199, 4168.717773, 4316.410156, 4195.897461, 3545.000000, 8207.000000, 8061.000000, 0.000000, 0.000000, 0.000000, 21847.000000, 408.717926, 4.000000, 4.000000, 4.000000, 4.000000, 4.000000, 4.000000, 4.000000, 4.000000, 4.000000, 4.000000, 4.000000, 4.000000, 4.000000, 4.000000, 4.000000, 4.000000
8.000000, 1.000000, 4193.333008, 4202.563965, 4207.692383, 4172.307617, 4184.102539, 4183.076660, 4198.974121, 4191.281738, 4184.102539, 4196.410156, 4187.179199, 4168.205078, 4320.000000, 4194.358887, 3542.000000, 8207.000000, 8061.000000, 0.000000, 0.000000, 0.000000, 21847.000000, 416.410248, 4.000000, 4.000000, 4.000000, 4.000000, 4.000000, 4.000000, 4.000000, 4.000000, 4.000000, 4.000000, 4.000000, 4.000000, 4.000000, 4.000000, 4.000000, 4.000000
9.000000, 0.000000, 4191.281738, 4200.512695, 4204.615234, 4171.281738, 4185.641113, 4183.589844, 4197.436035, 4192.307617, 4184.615234, 4198.461426, 4186.153809, 4166.666504, 4323.589844, 4192.307617, 3539.000000, 8207.000000, 8061.000000, 0.000000, 0.000000, 0.000000, 21847.000000, 424.102539, 4.000000, 4.000000, 4.000000, 4.000000, 4.000000, 4.000000, 4.000000, 4.000000, 4.000000, 4.000000, 4.000000, 4.000000, 4.000000, 4.000000, 4.000000, 4.000000
10.000000, 0.000000, 4195.897461, 4204.615234, 4206.666504, 4172.307617, 4188.717773, 4194.358887, 4212.820313, 4198.461426, 4194.358887, 4203.076660, 4192.820313, 4170.256348, 4324.102539, 4200.512695, 2791.000000, 8207.000000, 8061.000000, 0.000000, 0.000000, 0.000000, 21847.000000, 432.307678, 4.000000, 4.000000, 4.000000, 4.000000, 4.000000, 4.000000, 4.000000, 4.000000, 4.000000, 4.000000, 4.000000, 4.000000, 4.000000, 4.000000, 4.000000, 4.000000
11.000000, 0.000000, 4194.871582, 4213.333008, 4214.358887, 4174.871582, 4188.717773, 4194.358887, 4208.205078, 4193.846191, 4198.461426, 4198.461426, 4196.410156, 4176.410156, 4334.358887, 4200.512695, 3133.000000, 8207.000000, 8064.000000, 0.000000, 0.000000, 0.000000, 21847.000000, 440.000000, 4.000000, 4.000000, 4.000000, 4.000000, 4.000000, 4.000000, 4.000000, 4.000000, 4.000000, 4.000000, 4.000000, 4.000000, 4.000000, 4.000000, 4.000000, 4.000000
12.000000, 0.000000, 4193.333008, 4215.897461, 4213.846191, 4180.000000, 4193.846191, 4187.692383, 4203.076660, 4189.743652, 4197.436035, 4202.563965, 4198.461426, 4183.076660, 4335.897461, 4200.512695, 3512.000000, 8207.000000, 8064.000000, 0.000000, 0.000000, 0.000000, 21847.000000, 447.692291, 4.000000, 4.000000, 4.000000, 4.000000, 4.000000, 4.000000, 4.000000, 4.000000, 4.000000, 4.000000, 4.000000, 4.000000, 4.000000, 4.000000, 4.000000, 4.000000
13.000000, 0.000000, 4196.922852, 4214.871582, 4212.820313, 4185.127930, 4198.974121, 4194.358887, 4216.410156, 4200.000000, 4203.589844, 4214.871582, 4209.230469, 4188.205078, 4328.205078, 4207.179199, 3512.000000, 8213.000000, 8068.000000, 0.000000, 0.000000, 0.000000, 21847.000000, 455.897430, 4.000000, 4.000000, 4.000000, 4.000000, 4.000000, 4.000000, 4.000000, 4.000000, 4.000000, 4.000000, 4.000000, 4.000000, 4.000000, 4.000000, 4.000000, 4.000000
14.000000, 0.000000, 4198.461426, 4216.410156, 4213.333008, 4186.153809, 4200.000000, 4203.076660, 4221.025391, 4204.102539, 4213.846191, 4220.000000, 4222.051270, 4191.281738, 4325.127930, 4208.717773, 2791.000000, 8213.000000, 8068.000000, 0.000000, 0.000000, 0.000000, 21847.000000, 463.589722, 4.000000, 4.000000, 4.000000, 4.000000, 4.000000, 4.000000, 4.000000, 4.000000, 4.000000, 4.000000, 4.000000, 4.000000, 4.000000, 4.000000, 4.000000, 4.000000
15.000000, 0.000000, 4191.794922, 4216.922852, 4205.127930, 4185.641113, 4193.333008, 4199.487305, 4215.897461, 4193.333008, 4210.256348, 4216.410156, 4217.436035, 4186.153809, 4317.436035, 4202.563965, 3133.000000, 8222.000000, 8058.000000, 0.000000, 0.000000, 0.000000, 21847.000000, 471.282043, 4.000000, 4.000000, 4.000000, 4.000000, 4.000000, 4.000000, 4.000000, 4.000000, 4.000000, 4.000000, 4.000000, 4.000000, 4.000000, 4.000000, 4.000000, 4.000000
16.000000, 0.000000, 4188.717773, 4213.333008, 4197.436035, 4185.641113, 4187.692383, 4196.410156, 4215.384277, 4190.769043, 4199.487305, 4212.820313, 4204.102539, 4174.358887, 4308.205078, 4201.025391, 0.000000, 8222.000000, 8058.000000, 0.000000, 0.000000, 0.000000, 21847.000000, 479.487183, 4.000000, 4.000000, 4.000000, 4.000000, 4.000000, 4.000000, 4.000000, 4.000000, 4.000000, 4.000000, 4.000000, 4.000000, 4.000000, 4.000000, 4.000000, 4.000000
17.000000, 0.000000, 4188.717773, 4217.948730, 4197.948730, 4186.153809, 4194.358887, 4201.538574, 4215.897461, 4197.436035, 4200.000000, 4212.307617, 4206.153809, 4173.846191, 4317.948730, 4202.051270, 0.000000, 8236.000000, 8037.000000, 0.000000, 0.000000, 0.000000, 21847.000000, 487.179474, 4.000000, 4.000000, 4.000000, 4.000000, 4.000000, 4.000000, 4.000000, 4.000000, 4.000000, 4.000000, 4.000000, 4.000000, 4.000000, 4.000000, 4.000000, 4.000000
18.000000, 0.000000, 4188.205078, 4225.127930, 4198.974121, 4186.153809, 4204.615234, 4203.589844, 4216.410156, 4201.025391, 4205.127930, 4215.897461, 4215.897461, 4183.076660, 4328.205078, 4201.538574, 0.000000, 8236.000000, 8037.000000, 0.000000, 0.000000, 0.000000, 21847.000000, 494.871796, 4.000000, 4.000000, 4.000000, 4.000000, 4.000000, 4.000000, 4.000000, 4.000000, 4.000000, 4.000000, 4.000000, 4.000000, 4.000000, 4.000000, 4.000000, 4.000000
19.000000, 0.000000, 4188.205078, 4222.051270, 4197.436035, 4185.641113, 4199.487305, 4203.076660, 4217.948730, 4198.461426, 4202.563965, 4214.871582, 4213.846191, 4185.127930, 4318.461426, 4205.127930, 0.000000, 8244.000000, 8018.000000, 0.000000, 0.000000, 0.000000, 21847.000000, 502.564087, 4.000000, 4.000000, 4.000000, 4.000000, 4.000000, 4.000000, 4.000000, 4.000000, 4.000000, 4.000000, 4.000000, 4.000000, 4.000000, 4.000000, 4.000000, 4.000000
20.000000, 0.000000, 4185.127930, 4213.846191, 4190.256348, 4182.051270, 4188.717773, 4201.025391, 4220.512695, 4197.436035, 4198.974121, 4204.615234, 4205.127930, 4177.436035, 4309.743652, 4200.512695, 0.000000, 8244.000000, 8018.000000, 0.000000, 0.000000, 0.000000, 21847.000000, 510.769226, 4.000000, 4.000000, 4.000000, 4.000000, 4.000000, 4.000000, 4.000000, 4.000000, 4.000000, 4.000000, 4.000000, 4.000000, 4.000000, 4.000000, 4.000000, 4.000000
21.000000, 0.000000, 4185.641113, 4210.769043, 4182.051270, 4178.974121, 4192.820313, 4198.974121, 4223.589844, 4199.487305, 4197.436035, 4198.974121, 4200.000000, 4169.743652, 4311.281738, 4189.743652, 0.000000, 8266.000000, 7953.000000, 0.000000, 0.000000, 0.000000, 21847.000000, 518.461548, 4.000000, 4.000000, 4.000000, 4.000000, 4.000000, 4.000000, 4.000000, 4.000000, 4.000000, 4.000000, 4.000000, 4.000000, 4.000000, 4.000000, 4.000000, 4.000000
22.000000, 0.000000, 4192.307617, 4215.897461, 4187.179199, 4188.205078, 4203.589844, 4200.512695, 4220.000000, 4197.436035, 4191.281738, 4201.025391, 4202.051270, 4173.333008, 4312.820313, 4193.333008, 0.000000, 8266.000000, 7953.000000, 0.000000, 0.000000, 0.000000, 21847.000000, 526.153809, 4.000000, 4.000000, 4.000000, 4.000000, 4.000000, 4.000000, 4.000000, 4.000000, 4.000000, 4.000000, 4.000000, 4.000000, 4.000000, 4.000000, 4.000000, 4.000000
23.000000, 0.000000, 4196.922852, 4227.179199, 4200.512695, 4203.076660, 4205.127930, 4203.076660, 4216.922852, 4197.948730, 4189.230469, 4206.666504, 4210.256348, 4184.102539, 4315.897461, 4203.076660, 0.000000, 8278.000000, 7925.000000, 0.000000, 0.000000, 0.000000, 21847.000000, 533.846130, 4.000000, 4.000000, 4.000000, 4.000000, 4.000000, 4.000000, 4.000000, 4.000000, 4.000000, 4.000000, 4.000000, 4.000000, 4.000000, 4.000000, 4.000000, 4.000000
24.000000, 0.000000, 4195.897461, 4233.846191, 4202.563965, 4205.641113, 4202.563965, 4200.512695, 4220.000000, 4199.487305, 4193.333008, 4210.256348, 4217.948730, 4189.230469, 4317.948730, 4202.563965, 0.000000, 8278.000000, 7925.000000, 0.000000, 0.000000, 0.000000, 21847.000000, 541.538452, 4.000000, 4.000000, 4.000000, 4.000000, 4.000000, 4.000000, 4.000000, 4.000000, 4.000000, 4.000000, 4.000000, 4.000000, 4.000000, 4.000000, 4.000000, 4.000000
25.000000, 0.000000, 4191.794922, 4228.717773, 4190.769043, 4200.512695, 4198.461426, 4196.410156, 4206.666504, 4198.974121, 4192.307617, 4206.666504, 4218.461426, 4183.076660, 4310.769043, 4197.436035, 0.000000, 8286.000000, 7910.000000, 0.000000, 0.000000, 0.000000, 21847.000000, 549.230774, 4.000000, 4.000000, 4.000000, 4.000000, 4.000000, 4.000000, 4.000000, 4.000000, 4.000000, 4.000000, 4.000000, 4.000000, 4.000000, 4.000000, 4.000000, 4.000000
26.000000, 0.000000, 4189.230469, 4225.641113, 4183.076660, 4200.000000, 4192.820313, 4197.436035, 4185.127930, 4199.487305, 4185.641113, 4200.000000, 4211.794922, 4174.358887, 4299.487305, 4191.794922, 0.000000, 8286.000000, 7910.000000, 0.000000, 0.000000, 0.000000, 21847.000000, 557.435913, 4.000000, 4.000000, 4.000000, 4.000000, 4.000000, 4.000000, 4.000000, 4.000000, 4.000000, 4.000000, 4.000000, 4.000000, 4.000000, 4.000000, 4.000000, 4.000000
27.000000, 0.000000, 4190.256348, 4230.769043, 4188.717773, 4203.076660, 4195.897461, 4200.000000, 4185.641113, 4198.974121, 4182.563965, 4200.512695, 4203.589844, 4171.281738, 4295.384277, 4187.179199, 0.000000, 8305.000000, 7890.000000, 0.000000, 0.000000, 0.000000, 21847.000000, 565.128174, 4.000000, 4.000000, 4.000000, 4.000000, 4.000000, 4.000000, 4.000000, 4.000000, 4.000000, 4.000000, 4.000000, 4.000000, 4.000000, 4.000000, 4.000000, 4.000000
28.000000, 0.000000, 4192.307617, 4228.205078, 4194.358887, 4203.589844, 4203.076660, 4200.000000, 4198.974121, 4197.436035, 4185.127930, 4199.487305, 4196.922852, 4172.307617, 4283.589844, 4187.179199, 0.000000, 8305.000000, 7890.000000, 0.000000, 0.000000, 0.000000, 21847.000000, 572.820496, 4.000000, 4.000000, 4.000000, 4.000000, 4.000000, 4.000000, 4.000000, 4.000000, 4.000000, 4.000000, 4.000000, 4.000000, 4.000000, 4.000000, 4.000000, 4.000000
29.000000, 0.000000, 4187.692383, 4215.384277, 4190.769043, 4194.871582, 4198.974121, 4198.461426, 4206.666504, 4196.922852, 4184.102539, 4187.692383, 4187.692383, 4169.230469, 4262.051270, 4184.615234, 0.000000, 8310.000000, 7883.000000, 0.000000, 0.000000, 0.000000, 21847.000000, 580.512817, 4.000000, 4.000000, 4.000000, 4.000000, 4.000000, 4.000000, 4.000000, 4.000000, 4.000000, 4.000000, 4.000000, 4.000000, 4.000000, 4.000000, 4.000000, 4.000000
30.000000, 0.000000, 4181.025391, 4211.281738, 4186.666504, 4186.666504, 4188.717773, 4198.974121, 4210.769043, 4197.948730, 4183.076660, 4187.179199, 4183.076660, 4166.666504, 4254.871582, 4183.076660, 0.000000, 8310.000000, 7883.000000, 0.000000, 0.000000, 0.000000, 21847.000000, 588.205139, 4.000000, 4.000000, 4.000000, 4.000000, 4.000000, 4.000000, 4.000000, 4.000000, 4.000000, 4.000000, 4.000000, 4.000000, 4.000000, 4.000000, 4.000000, 4.000000
31.000000, 0.000000, 4186.666504, 4213.846191, 4186.153809, 4184.615234, 4183.076660, 4198.461426, 4218.974121, 4197.948730, 4187.179199, 4196.922852, 4188.205078, 4171.281738, 4263.589844, 4186.666504, 0.000000, 8327.000000, 7865.000000, 0.000000, 0.000000, 0.000000, 21847.000000, 595.897400, 4.000000, 4.000000, 4.000000, 4.000000, 4.000000, 4.000000, 4.000000, 4.000000, 4.000000, 4.000000, 4.000000, 4.000000, 4.000000, 4.000000, 4.000000, 4.000000
32.000000, 0.000000, 4189.743652, 4210.256348, 4184.102539, 4182.051270, 4182.051270, 4191.794922, 4224.615234, 4194.358887, 4187.179199, 4192.820313, 4188.205078, 4171.794922, 4258.974121, 4184.615234, 0.000000, 8327.000000, 7865.000000, 0.000000, 0.000000, 0.000000, 21847.000000, 604.102539, 4.000000, 4.000000, 4.000000, 4.000000, 4.000000, 4.000000, 4.000000, 4.000000, 4.000000, 4.000000, 4.000000, 4.000000, 4.000000, 4.000000, 4.000000, 4.000000
33.000000, 0.000000, 4186.153809, 4214.358887, 4188.205078, 4187.179199, 4186.666504, 4185.127930, 4222.563965, 4193.846191, 4181.538574, 4190.256348, 4190.256348, 4174.871582, 4255.897461, 4188.717773, 0.000000, 8333.000000, 7853.000000, 0.000000, 0.000000, 0.000000, 21847.000000, 611.794861, 4.000000, 4.000000, 4.000000, 4.000000, 4.000000, 4.000000, 4.000000, 4.000000, 4.000000, 4.000000, 4.000000, 4.000000, 4.000000, 4.000000, 4.000000, 4.000000
34.000000, 0.000000, 4194.358887, 4230.769043, 4197.436035, 4201.538574, 4189.743652, 4182.563965, 4216.410156, 4197.436035, 4188.717773, 4210.256348, 4210.769043, 4191.794922, 4271.281738, 4203.076660, 0.000000, 8333.000000, 7853.000000, 0.000000, 0.000000, 0.000000, 21847.000000, 619.487183, 4.000000, 4.000000, 4.000000, 4.000000, 4.000000, 4.000000, 4.000000, 4.000000, 4.000000, 4.000000, 4.000000, 4.000000, 4.000000, 4.000000, 4.000000, 4.000000
35.000000, 0.000000, 4197.948730, 4237.948730, 4202.051270, 4201.025391, 4188.205078, 4184.615234, 4216.410156, 4198.461426, 4202.051270, 4223.589844, 4220.512695, 4201.025391, 4277.436035, 4206.666504, 0.000000, 8337.000000, 7852.000000, 0.000000, 0.000000, 0.000000, 21847.000000, 627.179443, 4.000000, 4.000000, 4.000000, 4.000000, 4.000000, 4.000000, 4.000000, 4.000000, 4.000000, 4.000000, 4.000000, 4.000000, 4.000000, 4.000000, 4.000000, 4.000000
36.000000, 0.000000, 4188.717773, 4229.230469, 4200.000000, 4189.230469, 4188.205078, 4188.205078, 4218.974121, 4197.948730, 4204.615234, 4215.897461, 4208.717773, 4193.333008, 4266.153809, 4202.051270, 0.000000, 8337.000000, 7852.000000, 0.000000, 0.000000, 0.000000, 21847.000000, 634.871765, 4.000000, 4.000000, 4.000000, 4.000000, 4.000000, 4.000000, 4.000000, 4.000000, 4.000000, 4.000000, 4.000000, 4.000000, 4.000000, 4.000000, 4.000000, 4.000000
37.000000, 0.000000, 4183.076660, 4218.461426, 4192.820313, 4187.692383, 4182.563965, 4188.717773, 4214.871582, 4198.974121, 4196.922852, 4209.230469, 4203.076660, 4181.025391, 4254.871582, 4196.922852, 0.000000, 8344.000000, 7868.000000, 0.000000, 0.000000, 0.000000, 21847.000000, 643.076904, 4.000000, 4.000000, 4.000000, 4.000000, 4.000000, 4.000000, 4.000000, 4.000000, 4.000000, 4.000000, 4.000000, 4.000000, 4.000000, 4.000000, 4.000000, 4.000000
38.000000, 0.000000, 4183.076660, 4213.333008, 4188.205078, 4189.230469, 4175.384277, 4184.615234, 4214.871582, 4194.871582, 4187.179199, 4203.076660, 4197.948730, 4171.794922, 4249.230469, 4187.179199, 0.000000, 8344.000000, 7868.000000, 0.000000, 0.000000, 0.000000, 21847.000000, 650.769226, 4.000000, 4.000000, 4.000000, 4.000000, 4.000000, 4.000000, 4.000000, 4.000000, 4.000000, 4.000000, 4.000000, 4.000000, 4.000000, 4.000000, 4.000000, 4.000000
39.000000, 0.000000, 4183.076660, 4212.820313, 4193.333008, 4185.641113, 4179.487305, 4185.127930, 4217.436035, 4190.769043, 4182.051270, 4195.897461, 4187.179199, 4168.717773, 4250.769043, 4185.127930, 0.000000, 8346.000000, 7869.000000, 0.000000, 0.000000, 0.000000, 21847.000000, 658.461548, 4.000000, 4.000000, 4.000000, 4.000000, 4.000000, 4.000000, 4.000000, 4.000000, 4.000000, 4.000000, 4.000000, 4.000000, 4.000000, 4.000000, 4.000000, 4.000000
40.000000, 0.000000, 4186.153809, 4213.846191, 4200.512695, 4187.692383, 4186.153809, 4191.281738, 4213.846191, 4191.281738, 4185.127930, 4198.974121, 4189.230469, 4178.974121, 4254.358887, 4195.897461, 0.000000, 8346.000000, 7869.000000, 0.000000, 0.000000, 0.000000, 21847.000000, 666.153809, 4.000000, 4.000000, 4.000000, 4.000000, 4.000000, 4.000000, 4.000000, 4.000000, 4.000000, 4.000000, 4.000000, 4.000000, 4.000000, 4.000000, 4.000000, 4.000000
41.000000, 0.000000, 4189.743652, 4213.846191, 4207.692383, 4193.333008, 4183.589844, 4196.922852, 4215.384277, 4192.307617, 4190.256348, 4210.256348, 4201.025391, 4188.717773, 4246.153809, 4202.563965, 0.000000, 8352.000000, 7857.000000, 0.000000, 0.000000, 0.000000, 21847.000000, 673.846130, 4.000000, 4.000000, 4.000000, 4.000000, 4.000000, 4.000000, 4.000000, 4.000000, 4.000000, 4.000000, 4.000000, 4.000000, 4.000000, 4.000000, 4.000000, 4.000000
42.000000, 0.000000, 4187.179199, 4214.871582, 4213.333008, 4194.358887, 4183.076660, 4199.487305, 4221.538574, 4191.281738, 4188.717773, 4211.794922, 4201.025391, 4188.717773, 4227.692383, 4200.000000, 0.000000, 8352.000000, 7857.000000, 0.000000, 0.000000, 0.000000, 21847.000000, 682.051270, 4.000000, 4.000000, 4.000000, 4.000000, 4.000000, 4.000000, 4.000000, 4.000000, 4.000000, 4.000000, 4.000000, 4.000000, 4.000000, 4.000000, 4.000000, 4.000000
43.000000, 0.000000, 4183.589844, 4216.922852, 4207.692383, 4193.333008, 4187.179199, 4195.897461, 4211.794922, 4187.692383, 4185.641113, 4203.076660, 4200.512695, 4188.717773, 4208.717773, 4196.410156, 0.000000, 8350.000000, 7857.000000, 0.000000, 0.000000, 0.000000, 21847.000000, 689.743591, 4.000000, 4.000000, 4.000000, 4.000000, 4.000000, 4.000000, 4.000000, 4.000000, 4.000000, 4.000000, 4.000000, 4.000000, 4.000000, 4.000000, 4.000000, 4.000000
44.000000, 0.000000, 4184.615234, 4218.461426, 4200.000000, 4194.358887, 4184.615234, 4192.820313, 4204.102539, 4188.205078, 4181.538574, 4198.461426, 4200.000000, 4187.692383, 4188.717773, 4195.384277, 0.000000, 8350.000000, 7857.000000, 0.000000, 0.000000, 0.000000, 21847.000000, 697.435852, 4.000000, 4.000000, 4.000000, 4.000000, 4.000000, 4.000000, 4.000000, 4.000000, 4.000000, 4.000000, 4.000000, 4.000000, 4.000000, 4.000000, 4.000000, 4.000000
45.000000, 0.000000, 4191.281738, 4219.487305, 4207.692383, 4197.948730, 4184.102539, 4196.922852, 4209.743652, 4191.281738, 4183.589844, 4204.615234, 4198.974121, 4186.666504, 4170.256348, 4196.922852, 0.000000, 8344.000000, 7859.000000, 0.000000, 0.000000, 0.000000, 21847.000000, 705.128174, 4.000000, 4.000000, 4.000000, 4.000000, 4.000000, 4.000000, 4.000000, 4.000000, 4.000000, 4.000000, 4.000000, 4.000000, 4.000000, 4.000000, 4.000000, 4.000000
46.000000, 0.000000, 4193.846191, 4221.538574, 4215.897461, 4200.000000, 4187.692383, 4201.538574, 4211.794922, 4191.281738, 4187.179199, 4210.256348, 4207.179199, 4191.794922, 4147.692383, 4200.000000, 0.000000, 8344.000000, 7859.000000, 0.000000, 0.000000, 0.000000, 21847.000000, 712.820496, 4.000000, 4.000000, 4.000000, 4.000000, 4.000000, 4.000000, 4.000000, 4.000000, 4.000000, 4.000000, 4.000000, 4.000000, 4.000000, 4.000000, 4.000000, 4.000000
47.000000, 0.000000, 4192.307617, 4226.153809, 4216.410156, 4200.512695, 4187.179199, 4203.076660, 4210.256348, 4193.846191, 4184.615234, 4205.641113, 4211.281738, 4192.820313, 4112.307617, 4202.563965, 0.000000, 8338.000000, 7871.000000, 0.000000, 0.000000, 0.000000, 21847.000000, 720.512817, 4.000000, 4.000000, 4.000000, 4.000000, 4.000000, 4.000000, 4.000000, 4.000000, 4.000000, 4.000000, 4.000000, 4.000000, 4.000000, 4.000000, 4.000000, 4.000000
48.000000, 0.000000, 4196.922852, 4230.256348, 4223.076660, 4205.641113, 4187.692383, 4203.076660, 4208.717773, 4196.410156, 4186.153809, 4203.076660, 4210.256348, 4187.179199, 4076.923096, 4212.307617, 0.000000, 8338.000000, 7871.000000, 0.000000, 0.000000, 0.000000, 21847.000000, 728.205139, 4.000000, 4.000000, 4.000000, 4.000000, 4.000000, 4.000000, 4.000000, 4.000000, 4.000000, 4.000000, 4.000000, 4.000000, 4.000000, 4.000000, 4.000000, 4.000000
49.000000, 0.000000, 4205.127930, 4231.794922, 4236.410156, 4212.820313, 4182.563965, 4195.384277, 4204.615234, 4190.769043, 4185.127930, 4203.589844, 4215.897461, 4191.794922, 4053.845947, 4226.666504, 0.000000, 8335.000000, 7877.000000, 0.000000, 0.000000, 0.000000, 21847.000000, 736.410217, 4.000000, 4.000000, 4.000000, 4.000000, 4.000000, 4.000000, 4.000000, 4.000000, 4.000000, 4.000000, 4.000000, 4.000000, 4.000000, 4.000000, 4.000000, 4.000000
50.000000, 0.000000, 4207.692383, 4232.820313, 4245.127930, 4214.358887, 4168.717773, 4188.717773, 4199.487305, 4187.179199, 4173.846191, 4195.384277, 4216.410156, 4198.974121, 4036.923096, 4234.358887, 0.000000, 8335.000000, 7877.000000, 0.000000, 0.000000, 0.000000, 21847.000000, 744.102539, 4.000000, 4.000000, 4.000000, 4.000000, 4.000000, 4.000000, 4.000000, 4.000000, 4.000000, 4.000000, 4.000000, 4.000000, 4.000000, 4.000000, 4.000000, 4.000000
51.000000, 0.000000, 4210.769043, 4237.948730, 4254.871582, 4215.897461, 4171.281738, 4193.846191, 4202.051270, 4189.743652, 4169.743652, 4190.256348, 4217.948730, 4202.563965, 4033.333252, 4241.025391, 0.000000, 8341.000000, 7882.000000, 0.000000, 0.000000, 0.000000, 21847.000000, 751.794861, 4.000000, 4.000000, 4.000000, 4.000000, 4.000000, 4.000000, 4.000000, 4.000000, 4.000000, 4.000000, 4.000000, 4.000000, 4.000000, 4.000000, 4.000000, 4.000000
52.000000, 0.000000, 4218.974121, 4252.307617, 4271.281738, 4226.666504, 4184.615234, 4193.333008, 4200.000000, 4187.179199, 4173.846191, 4198.974121, 4232.820313, 4209.230469, 4046.153809, 4260.512695, 0.000000, 8341.000000, 7882.000000, 0.000000, 0.000000, 0.000000, 21847.000000, 759.487183, 4.000000, 4.000000, 4.000000, 4.000000, 4.000000, 4.000000, 4.000000, 4.000000, 4.000000, 4.000000, 4.000000, 4.000000, 4.000000, 4.000000, 4.000000, 4.000000
53.000000, 0.000000, 4214.358887, 4260.512695, 4278.461426, 4233.846191, 4177.948730, 4187.692383, 4198.974121, 4183.589844, 4169.743652, 4196.410156, 4237.436035, 4209.743652, 4047.692139, 4267.692383, 0.000000, 8347.000000, 7884.000000, 0.000000, 0.000000, 0.000000, 21847.000000, 767.179443, 4.000000, 4.000000, 4.000000, 4.000000, 4.000000, 4.000000, 4.000000, 4.000000, 4.000000, 4.000000, 4.000000, 4.000000, 4.000000, 4.000000, 4.000000, 4.000000
54.000000, 0.000000, 4204.615234, 4255.897461, 4274.358887, 4228.717773, 4168.717773, 4193.333008, 4213.846191, 4186.666504, 4163.589844, 4180.512695, 4226.666504, 4201.538574, 4033.845947, 4254.358887, 0.000000, 8347.000000, 7884.000000, 0.000000, 0.000000, 0.000000, 21847.000000, 774.871765, 4.000000, 4.000000, 4.000000, 4.000000, 4.000000, 4.000000, 4.000000, 4.000000, 4.000000, 4.000000, 4.000000, 4.000000, 4.000000, 4.000000, 4.000000, 4.000000
55.000000, 0.000000, 4200.512695, 4249.230469, 4275.384277, 4223.076660, 4174.871582, 4198.974121, 4221.025391, 4187.692383, 4167.179199, 4184.102539, 4232.307617, 4203.076660, 4035.384521, 4248.205078, 0.000000, 8359.000000, 7878.000000, 0.000000, 0.000000, 0.000000, 21847.000000, 782.564087, 4.000000, 4.000000, 4.000000, 4.000000, 4.000000, 4.000000, 4.000000, 4.000000, 4.000000, 4.000000, 4.000000, 4.000000, 4.000000, 4.000000, 4.000000, 4.000000
56.000000, 0.000000, 4193.333008, 4237.948730, 4276.410156, 4218.974121, 4173.333008, 4192.307617, 4207.179199, 4186.666504, 4168.205078, 4189.743652, 4236.410156, 4202.051270, 4044.615234, 4249.230469, 0.000000, 8359.000000, 7878.000000, 0.000000, 0.000000, 0.000000, 21847.000000, 790.769226, 4.000000, 4.000000, 4.000000, 4.000000, 4.000000, 4.000000, 4.000000, 4.000000, 4.000000, 4.000000, 4.000000, 4.000000, 4.000000, 4.000000, 4.000000, 4.000000
57.000000, 0.000000, 4186.153809, 4228.717773, 4269.230469, 4216.410156, 4167.179199, 4184.102539, 4185.641113, 4187.692383, 4166.666504, 4181.025391, 4221.538574, 4188.717773, 4039.487061, 4237.436035, 0.000000, 8367.000000, 7883.000000, 0.000000, 0.000000, 0.000000, 21847.000000, 798.461548, 4.000000, 4.000000, 4.000000, 4.000000, 4.000000, 4.000000, 4.000000, 4.000000, 4.000000, 4.000000, 4.000000, 4.000000, 4.000000, 4.000000, 4.000000, 4.000000
58.000000, 0.000000, 4187.179199, 4230.256348, 4265.127930, 4216.410156, 4175.384277, 4181.538574, 4171.794922, 4186.153809, 4169.230469, 4188.717773, 4214.871582, 4185.641113, 4032.307617, 4223.076660, 0.000000, 8367.000000, 7883.000000, 0.000000, 0.000000, 0.000000, 21847.000000, 806.153809, 4.000000, 4.000000, 4.000000, 4.000000, 4.000000, 4.000000, 4.000000, 4.000000, 4.000000, 4.000000, 4.000000, 4.000000, 4.000000, 4.000000, 4.000000, 4.000000
59.000000, 0.000000, 4190.256348, 4228.205078, 4266.666504, 4216.922852, 4182.051270, 4185.127930, 4178.461426, 4187.692383, 4169.743652, 4201.025391, 4217.948730, 4189.743652, 4030.769043, 4218.974121, 0.000000, 8371.000000, 7879.000000, 0.000000, 0.000000, 0.000000, 21847.000000, 813.846130, 4.000000, 4.000000, 4.000000, 4.000000, 4.000000, 4.000000, 4.000000, 4.000000, 4.000000, 4.000000, 4.000000, 4.000000, 4.000000, 4.000000, 4.000000, 4.000000
60.000000, 0.000000, 4185.641113, 4215.897461, 4268.717773, 4215.384277, 4178.974121, 4188.717773, 4188.717773, 4193.333008, 4169.743652, 4197.436035, 4214.871582, 4183.589844, 4025.640869, 4214.358887, 0.000000, 8371.000000, 7879.000000, 0.000000, 0.000000, 0.000000, 21847.000000, 821.538452, 4.000000, 4.000000, 4.000000, 4.000000, 4.000000, 4.000000, 4.000000, 4.000000, 4.000000, 4.000000, 4.000000, 4.000000, 4.000000, 4.000000, 4.000000, 4.000000
61.000000, 0.000000, 4184.615234, 4216.410156, 4274.871582, 4214.871582, 4178.974121, 4187.179199, 4181.025391, 4191.281738, 4177.948730, 4201.025391, 4211.794922, 4180.000000, 4024.615234, 4205.641113, 0.000000, 8379.000000, 7884.000000, 0.000000, 0.000000, 0.000000, 21847.000000, 829.743591, 4.000000, 4.000000, 4.000000, 4.000000, 4.000000, 4.000000, 4.000000, 4.000000, 4.000000, 4.000000, 4.000000, 4.000000, 4.000000, 4.000000, 4.000000, 4.000000
62.000000, 0.000000, 4191.281738, 4225.127930, 4281.538574, 4216.410156, 4184.102539, 4190.769043, 4181.025391, 4189.743652, 4186.153809, 4211.281738, 4212.307617, 4182.051270, 4027.692139, 4200.000000, 0.000000, 8379.000000, 7884.000000, 0.000000, 0.000000, 0.000000, 21847.000000, 837.435852, 4.000000, 4.000000, 4.000000, 4.000000, 4.000000, 4.000000, 4.000000, 4.000000, 4.000000, 4.000000, 4.000000, 4.000000, 4.000000, 4.000000, 4.000000, 4.000000
63.000000, 0.000000, 4192.820313, 4223.589844, 4282.051270, 4220.000000, 4187.692383, 4200.512695, 4196.410156, 4199.487305, 4186.666504, 4213.333008, 4212.307617, 4182.051270, 4028.717773, 4200.512695, 0.000000, 8390.000000, 7888.000000, 0.000000, 0.000000, 0.000000, 21847.000000, 845.128174, 4.000000, 4.000000, 4.000000, 4.000000, 4.000000, 4.000000, 4.000000, 4.000000, 4.000000, 4.000000, 4.000000, 4.000000, 4.000000, 4.000000, 4.000000, 4.000000
64.000000, 0.000000, 4188.717773, 4216.410156, 4280.512695, 4216.410156, 4187.179199, 4197.436035, 4195.897461, 4199.487305, 4186.666504, 4210.769043, 4213.333008, 4182.051270, 4030.769043, 4201.538574, 3521.000000, 8390.000000, 7888.000000, 0.000000, 0.000000, 0.000000, 21847.000000, 852.820496, 4.000000, 4.000000, 4.000000, 4.000000, 4.000000, 4.000000, 4.000000, 4.000000, 4.000000, 4.000000, 4.000000, 4.000000, 4.000000, 4.000000, 4.000000, 4.000000
65.000000, 0.000000, 4184.102539, 4209.230469, 4281.025391, 4204.615234, 4182.051270, 4186.153809, 4188.717773, 4187.692383, 4186.153809, 4206.153809, 4209.743652, 4180.000000, 4037.435791, 4197.436035, 3535.000000, 8397.000000, 7875.000000, 0.000000, 0.000000, 0.000000, 21847.000000, 860.512817, 4.000000, 4.000000, 4.000000, 4.000000, 4.000000, 4.000000, 4.000000, 4.000000, 4.000000, 4.000000, 4.000000, 4.000000, 4.000000, 4.000000, 4.000000, 4.000000
66.000000, 0.000000, 4185.641113, 4208.717773, 4287.179199, 4206.153809, 4181.538574, 4186.666504, 4185.641113, 4185.127930, 4183.589844, 4202.051270, 4203.589844, 4178.974121, 4042.051270, 4197.948730, 2297.000000, 8397.000000, 7875.000000, 0.000000, 0.000000, 0.000000, 21847.000000, 868.205078, 4.000000, 4.000000, 4.000000, 4.000000, 4.000000, 4.000000, 4.000000, 4.000000, 4.000000, 4.000000, 4.000000, 4.000000, 4.000000, 4.000000, 4.000000, 4.000000
67.000000, 0.000000, 4190.256348, 4213.333008, 4296.410156, 4215.897461, 4186.153809, 4189.743652, 4162.563965, 4189.230469, 4185.127930, 4207.179199, 4209.230469, 4184.615234, 4045.128174, 4202.563965, 3553.000000, 8399.000000, 7862.000000, 0.000000, 0.000000, 0.000000, 21847.000000, 876.410217, 4.000000, 4.000000, 4.000000, 4.000000, 4.000000, 4.000000, 4.000000, 4.000000, 4.000000, 4.000000, 4.000000, 4.000000, 4.000000, 4.000000, 4.000000, 4.000000
68.000000, 0.000000, 4186.666504, 4215.897461, 4295.384277, 4208.205078, 4179.487305, 4186.666504, 4142.051270, 4187.179199, 4182.563965, 4209.230469, 4214.358887, 4187.692383, 4046.666504, 4202.051270, 3476.000000, 8399.000000, 7862.000000, 0.000000, 0.000000, 0.000000, 21847.000000, 884.102539, 4.000000, 4.000000, 4.000000, 4.000000, 4.000000, 4.000000, 4.000000, 4.000000, 4.000000, 4.000000, 4.000000, 4.000000, 4.000000, 4.000000, 4.000000, 4.000000
69.000000, 0.000000, 4182.563965, 4213.333008, 4290.256348, 4198.974121, 4167.179199, 4183.076660, 4152.820313, 4186.153809, 4173.333008, 4202.051270, 4207.692383, 4184.102539, 4040.000000, 4202.051270, 3590.000000, 8397.000000, 7836.000000, 0.000000, 0.000000, 0.000000, 21847.000000, 891.794861, 4.000000, 4.000000, 4.000000, 4.000000, 4.000000, 4.000000, 4.000000, 4.000000, 4.000000, 4.000000, 4.000000, 4.000000, 4.000000, 4.000000, 4.000000, 4.000000
70.000000, 0.000000, 4183.076660, 4206.153809, 4290.769043, 4196.922852, 4166.153809, 4182.563965, 4167.692383, 4188.205078, 4164.102539, 4193.846191, 4196.922852, 4177.948730, 4030.256348, 4198.461426, 2168.000000, 8397.000000, 7836.000000, 0.000000, 0.000000, 0.000000, 21847.000000, 899.487183, 4.000000, 4.000000, 4.000000, 4.000000, 4.000000, 4.000000, 4.000000, 4.000000, 4.000000, 4.000000, 4.000000, 4.000000, 4.000000, 4.000000, 4.000000, 4.000000
71.000000, 0.000000, 4178.974121, 4203.076660, 4291.794922, 4189.743652, 4169.743652, 4183.589844, 4169.743652, 4188.205078, 4157.436035, 4189.230469, 4193.846191, 4171.794922, 4023.589600, 4190.769043, 1221.000000, 8398.000000, 7765.000000, 0.000000, 0.000000, 0.000000, 21847.000000, 907.179443, 4.000000, 4.000000, 4.000000, 4.000000, 4.000000, 4.000000, 4.000000, 4.000000, 4.000000, 4.000000, 4.000000, 4.000000, 4.000000, 4.000000, 4.000000, 4.000000
72.000000, 0.000000, 4177.436035, 4208.717773, 4294.871582, 4189.743652, 4171.281738, 4185.127930, 4169.743652, 4188.205078, 4154.871582, 4193.846191, 4197.436035, 4169.230469, 4022.051270, 4191.794922, 3537.000000, 8398.000000, 7765.000000, 0.000000, 0.000000, 0.000000, 21847.000000, 914.871765, 4.000000, 4.000000, 4.000000, 4.000000, 4.000000, 4.000000, 4.000000, 4.000000, 4.000000, 4.000000, 4.000000, 4.000000, 4.000000, 4.000000, 4.000000, 4.000000
73.000000, 0.000000, 4182.563965, 4218.974121, 4305.127930, 4198.461426, 4171.794922, 4186.666504, 4174.358887, 4187.179199, 4159.487305, 4198.974121, 4201.025391, 4176.410156, 4030.256348, 4201.025391, 3539.000000, 8394.000000, 7729.000000, 0.000000, 0.000000, 0.000000, 21847.000000, 922.564087, 4.000000, 4.000000, 4.000000, 4.000000, 4.000000, 4.000000, 4.000000, 4.000000, 4.000000, 4.000000, 4.000000, 4.000000, 4.000000, 4.000000, 4.000000, 4.000000
74.000000, 0.000000, 4183.589844, 4226.666504, 4314.358887, 4199.487305, 4172.307617, 4193.333008, 4187.692383, 4188.205078, 4166.153809, 4202.563965, 4200.512695, 4183.076660, 4043.076904, 4203.589844, 2804.000000, 8394.000000, 7729.000000, 0.000000, 0.000000, 0.000000, 21847.000000, 930.769226, 4.000000, 4.000000, 4.000000, 4.000000, 4.000000, 4.000000, 4.000000, 4.000000, 4.000000, 4.000000, 4.000000, 4.000000, 4.000000, 4.000000, 4.000000, 4.000000
75.000000, 0.000000, 4181.538574, 4230.769043, 4321.538574, 4194.871582, 4176.410156, 4202.051270, 4199.487305, 4191.281738, 4169.743652, 4209.230469, 4196.922852, 4180.000000, 4052.307617, 4202.051270, 3125.000000, 8399.000000, 7677.000000, 0.000000, 0.000000, 0.000000, 21847.000000, 938.461487, 4.000000, 4.000000, 4.000000, 4.000000, 4.000000, 4.000000, 4.000000, 4.000000, 4.000000, 4.000000, 4.000000, 4.000000, 4.000000, 4.000000, 4.000000, 4.000000
76.000000, 0.000000, 4177.948730, 4231.794922, 4325.641113, 4190.256348, 4177.948730, 4201.025391, 4197.436035, 4190.256348, 4168.717773, 4208.717773, 4190.769043, 4172.307617, 4055.384521, 4202.051270, 3505.000000, 8399.000000, 7677.000000, 0.000000, 0.000000, 0.000000, 21847.000000, 946.153809, 4.000000, 4.000000, 4.000000, 4.000000, 4.000000, 4.000000, 4.000000, 4.000000, 4.000000, 4.000000, 4.000000, 4.000000, 4.000000, 4.000000, 4.000000, 4.000000
77.000000, 0.000000, 4176.922852, 4230.256348, 4325.127930, 4183.076660, 4172.820313, 4198.974121, 4200.000000, 4191.794922, 4165.127930, 4202.563965, 4184.615234, 4169.230469, 4057.948730, 4201.025391, 3566.000000, 8401.000000, 7664.000000, 0.000000, 0.000000, 0.000000, 21847.000000, 953.846130, 4.000000, 4.000000, 4.000000, 4.000000, 4.000000, 4.000000, 4.000000, 4.000000, 4.000000, 4.000000, 4.000000, 4.000000, 4.000000, 4.000000, 4.000000, 4.000000
78.000000, 0.000000, 4180.512695, 4233.333008, 4332.307617, 4183.589844, 4175.384277, 4210.769043, 4211.794922, 4198.974121, 4167.179199, 4214.871582, 4186.666504, 4175.384277, 4061.025635, 4203.076660, 2804.000000, 8401.000000, 7664.000000, 0.000000, 0.000000, 0.000000, 21847.000000, 961.538452, 4.000000, 4.000000, 4.000000, 4.000000, 4.000000, 4.000000, 4.000000, 4.000000, 4.000000, 4.000000, 4.000000, 4.000000, 4.000000, 4.000000, 4.000000, 4.000000
79.000000, 0.000000, 4185.641113, 4242.051270, 4352.307617, 4191.794922, 4185.641113, 4220.000000, 4213.333008, 4201.025391, 4172.820313, 4231.281738, 4192.820313, 4187.692383, 4068.205078, 4212.820313, 3125.000000, 8407.000000, 7660.000000, 0.000000, 0.000000, 0.000000, 21847.000000, 969.230774, 4.000000, 4.000000, 4.000000, 4.000000, 4.000000, 4.000000, 4.000000, 4.000000, 4.000000, 4.000000, 4.000000, 4.000000, 4.000000, 4.000000, 4.000000, 4.000000
80.000000, 0.000000, 4187.692383, 4248.205078, 4363.076660, 4191.281738, 4187.179199, 4215.384277, 4206.153809, 4197.948730, 4176.922852, 4233.846191, 4196.922852, 4197.948730, 4094.358887, 4221.025391, 3505.000000, 8407.000000, 7660.000000, 0.000000, 0.000000, 0.000000, 21847.000000, 977.435852, 4.000000, 4.000000, 4.000000, 4.000000, 4.000000, 4.000000, 4.000000, 4.000000, 4.000000, 4.000000, 4.000000, 4.000000, 4.000000, 4.000000, 4.000000, 4.000000
81.000000, 0.000000, 4187.692383, 4249.743652, 4365.641113, 4188.205078, 4183.589844, 4213.333008, 4212.307617, 4200.000000, 4183.589844, 4239.487305, 4200.512695, 4203.076660, 4133.846191, 4222.563965, 3566.000000, 8409.000000, 7681.000000, 0.000000, 0.000000, 0.000000, 21847.000000, 985.128174, 4.000000, 4.000000, 4.000000, 4.000000, 4.000000, 4.000000, 4.000000, 4.000000, 4.000000, 4.000000, 4.000000, 4.000000, 4.000000, 4.000000, 4.000000, 4.000000
82.000000, 0.000000, 4188.205078, 4243.076660, 4374.871582, 4190.769043, 4186.153809, 4218.974121, 4231.794922, 4200.000000, 4186.666504, 4244.102539, 4200.512695, 4204.102539, 4158.974121, 4221.538574, 2804.000000, 8409.000000, 7681.000000, 0.000000, 0.000000, 0.000000, 21847.000000, 992.820496, 4.000000, 4.000000, 4.000000, 4.000000, 4.000000, 4.000000, 4.000000, 4.000000, 4.000000, 4.000000, 4.000000, 4.000000, 4.000000, 4.000000, 4.000000, 4.000000
83.000000, 0.000000, 4186.666504, 4236.922852, 4384.102539, 4191.281738, 4189.230469, 4217.948730, 4230.256348, 4188.717773, 4175.897461, 4234.871582, 4193.846191, 4204.102539, 4161.538574, 4222.051270, 3125.000000, 8411.000000, 7711.000000, 0.000000, 0.000000, 0.000000, 21848.000000, 0.512820, 4.000000, 4.000000, 4.000000, 4.000000, 4.000000, 4.000000, 4.000000, 4.000000, 4.000000, 4.000000, 4.000000, 4.000000, 4.000000, 4.000000, 4.000000, 4.000000
84.000000, 0.000000, 4184.102539, 4232.820313, 4384.615234, 4187.179199, 4187.179199, 4206.153809, 4216.922852, 4185.127930, 4164.102539, 4227.179199, 4186.666504, 4203.076660, 4157.948730, 4222.051270, 3505.000000, 8411.000000, 7711.000000, 0.000000, 0.000000, 0.000000, 21848.000000, 8.205128, 4.000000, 4.000000, 4.000000, 4.000000, 4.000000, 4.000000, 4.000000, 4.000000, 4.000000, 4.000000, 4.000000, 4.000000, 4.000000, 4.000000, 4.000000, 4.000000
85.000000, 0.000000, 4182.051270, 4221.538574, 4383.589844, 4184.615234, 4178.461426, 4201.538574, 4216.922852, 4196.410156, 4166.153809, 4231.281738, 4184.615234, 4201.538574, 4143.076660, 4222.051270, 3566.000000, 8408.000000, 7792.000000, 0.000000, 0.000000, 0.000000, 21848.000000, 15.897435, 4.000000, 4.000000, 4.000000, 4.000000, 4.000000, 4.000000, 4.000000, 4.000000, 4.000000, 4.000000, 4.000000, 4.000000, 4.000000, 4.000000, 4.000000, 4.000000
86.000000, 0.000000, 4182.563965, 4214.358887, 4389.230469, 4185.127930, 4174.871582, 4208.205078, 4208.205078, 4197.948730, 4170.769043, 4233.333008, 4183.589844, 4202.563965, 4113.846191, 4221.538574, 2804.000000, 8408.000000, 7792.000000, 0.000000, 0.000000, 0.000000, 21848.000000, 24.102564, 4.000000, 4.000000, 4.000000, 4.000000, 4.000000, 4.000000, 4.000000, 4.000000, 4.000000, 4.000000, 4.000000, 4.000000, 4.000000, 4.000000, 4.000000, 4.000000
87.000000, 0.000000, 4186.153809, 4212.820313, 4394.358887, 4182.563965, 4185.127930, 4204.102539, 4183.076660, 4185.127930, 4161.538574, 4227.179199, 4179.487305, 4200.512695, 4090.256348, 4215.897461, 3125.000000, 8407.000000, 7831.000000, 0.000000, 0.000000, 0.000000, 21848.000000, 31.794870, 4.000000, 4.000000, 4.000000, 4.000000, 4.000000, 4.000000, 4.000000, 4.000000, 4.000000, 4.000000, 4.000000, 4.000000, 4.000000, 4.000000, 4.000000, 4.000000
88.000000, 0.000000, 4188.205078, 4209.230469, 4401.025391, 4184.615234, 4182.563965, 4196.410156, 4178.461426, 4188.205078, 4160.512695, 4229.743652, 4182.051270, 4201.025391, 4089.230713, 4216.410156, 3505.000000, 8407.000000, 7831.000000, 0.000000, 0.000000, 0.000000, 21848.000000, 39.487179, 4.000000, 4.000000, 4.000000, 4.000000, 4.000000, 4.000000, 4.000000, 4.000000, 4.000000, 4.000000, 4.000000, 4.000000, 4.000000, 4.000000, 4.000000, 4.000000
89.000000, 0.000000, 4183.589844, 4205.127930, 4404.102539, 4186.153809, 4171.794922, 4203.589844, 4206.153809, 4199.487305, 4175.384277, 4236.922852, 4187.692383, 4206.153809, 4094.871582, 4222.051270, 3566.000000, 8420.000000, 7925.000000, 0.000000, 0.000000, 0.000000, 21848.000000, 47.179485, 4.000000, 4.000000, 4.000000, 4.000000, 4.000000, 4.000000, 4.000000, 4.000000, 4.000000, 4.000000, 4.000000, 4.000000, 4.000000, 4.000000, 4.000000, 4.000000
90.000000, 0.000000, 4174.358887, 4195.897461, 4390.769043, 4170.769043, 4177.436035, 4196.922852, 4217.436035, 4190.769043, 4166.153809, 4223.589844, 4173.846191, 4193.333008, 4075.897217, 4212.820313, 2804.000000, 8420.000000, 7925.000000, 0.000000, 0.000000, 0.000000, 21848.000000, 54.871792, 4.000000, 4.000000, 4.000000, 4.000000, 4.000000, 4.000000, 4.000000, 4.000000, 4.000000, 4.000000, 4.000000, 4.000000, 4.000000, 4.000000, 4.000000, 4.000000
91.000000, 0.000000, 4175.897461, 4192.307617, 4388.717773, 4164.102539, 4179.487305, 4185.127930, 4213.846191, 4186.666504, 4155.384277, 4216.410156, 4163.076660, 4178.461426, 4065.128174, 4206.666504, 3125.000000, 8424.000000, 7973.000000, 0.000000, 0.000000, 0.000000, 21848.000000, 63.076923, 4.000000, 4.000000, 4.000000, 4.000000, 4.000000, 4.000000, 4.000000, 4.000000, 4.000000, 4.000000, 4.000000, 4.000000, 4.000000, 4.000000, 4.000000, 4.000000
92.000000, 0.000000, 4184.615234, 4207.692383, 4407.179199, 4176.410156, 4165.641113, 4195.897461, 4220.512695, 4200.000000, 4175.384277, 4234.871582, 4176.410156, 4192.307617, 4081.025635, 4218.461426, 3505.000000, 8424.000000, 7973.000000, 0.000000, 0.000000, 0.000000, 21848.000000, 70.769226, 4.000000, 4.000000, 4.000000, 4.000000, 4.000000, 4.000000, 4.000000, 4.000000, 4.000000, 4.000000, 4.000000, 4.000000, 4.000000, 4.000000, 4.000000, 4.000000
93.000000, 0.000000, 4184.102539, 4218.974121, 4421.025391, 4177.436035, 4165.127930, 4207.179199, 4228.205078, 4201.538574, 4182.563965, 4238.974121, 4184.615234, 4205.127930, 4083.589600, 4220.512695, 3566.000000, 8424.000000, 8022.000000, 0.000000, 0.000000, 0.000000, 21848.000000, 78.461540, 4.000000, 4.000000, 4.000000, 4.000000, 4.000000, 4.000000, 4.000000, 4.000000, 4.000000, 4.000000, 4.000000, 4.000000, 4.000000, 4.000000, 4.000000, 4.000000
94.000000, 0.000000, 4175.897461, 4223.589844, 4435.384277, 4172.820313, 4176.922852, 4206.666504, 4232.820313, 4196.410156, 4167.179199, 4228.205078, 4178.974121, 4199.487305, 4074.871582, 4218.461426, 2804.000000, 8424.000000, 8022.000000, 0.000000, 0.000000, 0.000000, 21848.000000, 86.153847, 4.000000, 4.000000, 4.000000, 4.000000, 4.000000, 4.000000, 4.000000, 4.000000, 4.000000, 4.000000, 4.000000, 4.000000, 4.000000, 4.000000, 4.000000, 4.000000
95.000000, 0.000000, 4173.846191, 4240.000000, 4462.563965, 4180.512695, 4175.384277, 4214.358887, 4233.846191, 4198.461426, 4173.333008, 4234.358887, 4183.076660, 4198.461426, 4084.615234, 4226.666504, 3125.000000, 8426.000000, 8124.000000, 0.000000, 0.000000, 0.000000, 21848.000000, 93.846153, 4.000000, 4.000000, 4.000000, 4.000000, 4.000000, 4.000000, 4.000000, 4.000000, 4.000000, 4.000000, 4.000000, 4.000000, 4.000000, 4.000000, 4.000000, 4.000000
96.000000, 0.000000, 4175.384277, 4253.333008, 4485.641113, 4182.051270, 4174.358887, 4220.000000, 4227.179199, 4200.000000, 4187.179199, 4247.179199, 4195.384277, 4203.589844, 4091.794678, 4225.641113, 3505.000000, 8426.000000, 8124.000000, 0.000000, 0.000000, 0.000000, 21848.000000, 101.538460, 4.000000, 4.000000, 4.000000, 4.000000, 4.000000, 4.000000, 4.000000, 4.000000, 4.000000, 4.000000, 4.000000, 4.000000, 4.000000, 4.000000, 4.000000, 4.000000
97.000000, 0.000000, 4173.333008, 4251.794922, 4493.846191, 4171.281738, 4184.102539, 4216.410156, 4224.615234, 4201.538574, 4187.692383, 4244.102539, 4198.461426, 4199.487305, 4086.666504, 4215.384277, 3566.000000, 8426.000000, 8169.000000, 0.000000, 0.000000, 0.000000, 21848.000000, 109.743584, 4.000000, 4.000000, 4.000000, 4.000000, 4.000000, 4.000000, 4.000000, 4.000000, 4.000000, 4.000000, 4.000000, 4.000000, 4.000000, 4.000000, 4.000000, 4.000000
98.000000, 0.000000, 4168.717773, 4248.205078, 4495.384277, 4164.102539, 4188.205078, 4214.871582, 4217.948730, 4195.897461, 4182.563965, 4232.820313, 4189.230469, 4187.179199, 4086.153809, 4211.281738, 2804.000000, 8426.000000, 8169.000000, 0.000000, 0.000000, 0.000000, 21848.000000, 117.435898, 4.000000, 4.000000, 4.000000, 4.000000, 4.000000, 4.000000, 4.000000, 4.000000, 4.000000, 4.000000, 4.000000, 4.000000, 4.000000, 4.000000, 4.000000, 4.000000
99.000000, 0.000000, 4167.179199, 4250.256348, 4495.384277, 4161.538574, 4183.589844, 4213.333008, 4203.589844, 4186.666504, 4172.307617, 4227.692383, 4185.127930, 4176.410156, 4089.743408, 4209.230469, 3125.000000, 8416.000000, 8270.000000, 0.000000, 0.000000, 0.000000, 21848.000000, 125.128204, 4.000000, 4.000000, 4.000000, 4.000000, 4.000000, 4.000000, 4.000000, 4.000000, 4.000000, 4.000000, 4.000000, 4.000000, 4.000000, 4.000000, 4.000000, 4.000000
100.000000, 0.000000, 4180.000000, 4260.000000, 4506.666504, 4168.205078, 4179.487305, 4212.820313, 4212.820313, 4194.358887, 4173.846191, 4234.358887, 4201.538574, 4183.076660, 4101.538574, 4214.358887, 3505.000000, 8416.000000, 8270.000000, 0.000000, 0.000000, 0.000000, 21848.000000, 132.820511, 4.000000, 4.000000, 4.000000, 4.000000, 4.000000, 4.000000, 4.000000, 4.000000, 4.000000, 4.000000, 4.000000, 4.000000, 4.000000, 4.000000, 4.000000, 4.000000
101.000000, 0.000000, 4185.641113, 4269.230469, 4520.512695, 4175.384277, 4182.051270, 4217.948730, 4233.333008, 4203.589844, 4186.153809, 4238.461426, 4218.461426, 4195.897461, 4113.333008, 4222.563965, 3566.000000, 8408.000000, 8327.000000, 0.000000, 0.000000, 0.000000, 21848.000000, 140.512817, 4.000000, 4.000000, 4.000000, 4.000000, 4.000000, 4.000000, 4.000000, 4.000000, 4.000000, 4.000000, 4.000000, 4.000000, 4.000000, 4.000000, 4.000000, 4.000000
102.000000, 0.000000, 4176.410156, 4260.000000, 4523.589844, 4168.205078, 4182.563965, 4216.410156, 4227.179199, 4198.974121, 4180.512695, 4228.717773, 4215.897461, 4191.794922, 4108.205078, 4217.948730, 2804.000000, 8408.000000, 8327.000000, 0.000000, 0.000000, 0.000000, 21848.000000, 148.205124, 4.000000, 4.000000, 4.000000, 4.000000, 4.000000, 4.000000, 4.000000, 4.000000, 4.000000, 4.000000, 4.000000, 4.000000, 4.000000, 4.000000, 4.000000, 4.000000
103.000000, 0.000000, 4176.410156, 4248.717773, 4522.051270, 4164.615234, 4181.538574, 4213.846191, 4213.846191, 4199.487305, 4174.871582, 4227.692383, 4213.333008, 4187.179199, 4102.051270, 4213.333008, 3125.000000, 8394.000000, 8429.000000, 0.000000, 0.000000, 0.000000, 21848.000000, 155.897430, 4.000000, 4.000000, 4.000000, 4.000000, 4.000000, 4.000000, 4.000000, 4.000000, 4.000000, 4.000000, 4.000000, 4.000000, 4.000000, 4.000000, 4.000000, 4.000000
104.000000, 0.000000, 4181.538574, 4250.769043, 4522.051270, 4169.743652, 4182.563965, 4213.846191, 4218.974121, 4200.000000, 4180.512695, 4229.743652, 4218.461426, 4192.307617, 4103.589844, 4215.384277, 3505.000000, 8394.000000, 8429.000000, 0.000000, 0.000000, 0.000000, 21848.000000, 164.102554, 4.000000, 4.000000, 4.000000, 4.000000, 4.000000, 4.000000, 4.000000, 4.000000, 4.000000, 4.000000, 4.000000, 4.000000, 4.000000, 4.000000, 4.000000, 4.000000
105.000000, 0.000000, 4180.000000, 4252.820313, 4523.589844, 4170.769043, 4183.589844, 4215.384277, 4221.538574, 4188.717773, 4174.871582, 4221.025391, 4225.641113, 4191.281738, 4110.256348, 4215.384277, 3566.000000, 8373.000000, 8471.000000, 0.000000, 0.000000, 0.000000, 21848.000000, 171.794861, 4.000000, 4.000000, 4.000000, 4.000000, 4.000000, 4.000000, 4.000000, 4.000000, 4.000000, 4.000000, 4.000000, 4.000000, 4.000000, 4.000000, 4.000000, 4.000000
106.000000, 0.000000, 4178.974121, 4248.717773, 4519.487305, 4173.333008, 4184.102539, 4217.436035, 4210.256348, 4186.666504, 4168.717773, 4215.384277, 4230.769043, 4187.692383, 4119.487305, 4213.846191, 2804.000000, 8373.000000, 8471.000000, 0.000000, 0.000000, 0.000000, 21848.000000, 179.487183, 4.000000, 4.000000, 4.000000, 4.000000, 4.000000, 4.000000, 4.000000, 4.000000, 4.000000, 4.000000, 4.000000, 4.000000, 4.000000, 4.000000, 4.000000, 4.000000
107.000000, 0.000000, 4185.641113, 4247.692383, 4508.205078, 4174.358887, 4185.641113, 4212.307617, 4203.076660, 4193.846191, 4172.820313, 4218.974121, 4231.281738, 4192.820313, 4124.102539, 4214.358887, 3125.000000, 8355.000000, 8497.000000, 0.000000, 0.000000, 0.000000, 21848.000000, 187.179489, 4.000000, 4.000000, 4.000000, 4.000000, 4.000000, 4.000000, 4.000000, 4.000000, 4.000000, 4.000000, 4.000000, 4.000000, 4.000000, 4.000000, 4.000000, 4.000000
108.000000, 0.000000, 4186.666504, 4245.641113, 4497.435547, 4171.281738, 4179.487305, 4204.615234, 4202.051270, 4190.256348, 4173.846191, 4220.512695, 4237.948730, 4196.922852, 4121.538574, 4212.820313, 3505.000000, 8355.000000, 8497.000000, 0.000000, 0.000000, 0.000000, 21848.000000, 194.871796, 4.000000, 4.000000, 4.000000, 4.000000, 4.000000, 4.000000, 4.000000, 4.000000, 4.000000, 4.000000, 4.000000, 4.000000, 4.000000, 4.000000, 4.000000, 4.000000
109.000000, 0.000000, 4182.563965, 4233.846191, 4482.051270, 4170.256348, 4168.717773, 4199.487305, 4194.358887, 4184.102539, 4173.333008, 4216.922852, 4245.641113, 4189.230469, 4122.051270, 4205.127930, 3566.000000, 8317.000000, 8544.000000, 0.000000, 0.000000, 0.000000, 21848.000000, 203.076920, 4.000000, 4.000000, 4.000000, 4.000000, 4.000000, 4.000000, 4.000000, 4.000000, 4.000000, 4.000000, 4.000000, 4.000000, 4.000000, 4.000000, 4.000000, 4.000000
110.000000, 0.000000, 4184.615234, 4226.666504, 4461.025391, 4171.281738, 4166.153809, 4198.974121, 4190.256348, 4190.769043, 4180.512695, 4216.410156, 4246.666504, 4183.076660, 4127.692383, 4203.076660, 2804.000000, 8317.000000, 8544.000000, 0.000000, 0.000000, 0.000000, 21848.000000, 210.769226, 4.000000, 4.000000, 4.000000, 4.000000, 4.000000, 4.000000, 4.000000, 4.000000, 4.000000, 4.000000, 4.000000, 4.000000, 4.000000, 4.000000, 4.000000, 4.000000
111.000000, 0.000000, 4186.666504, 4229.230469, 4442.051270, 4170.769043, 4170.769043, 4201.538574, 4195.384277, 4197.436035, 4185.641113, 4217.436035, 4254.358887, 4185.127930, 4135.384277, 4209.230469, 3125.000000, 8296.000000, 8564.000000, 0.000000, 0.000000, 0.000000, 21848.000000, 218.461533, 4.000000, 4.000000, 4.000000, 4.000000, 4.000000, 4.000000, 4.000000, 4.000000, 4.000000, 4.000000, 4.000000, 4.000000, 4.000000, 4.000000, 4.000000, 4.000000
112.000000, 0.000000, 4187.179199, 4226.153809, 4425.641113, 4176.922852, 4173.333008, 4203.076660, 4193.333008, 4197.948730, 4186.153809, 4217.948730, 4272.307617, 4187.692383, 4148.205078, 4209.230469, 3505.000000, 8296.000000, 8564.000000, 0.000000, 0.000000, 0.000000, 21848.000000, 226.153839, 4.000000, 4.000000, 4.000000, 4.000000, 4.000000, 4.000000, 4.000000, 4.000000, 4.000000, 4.000000, 4.000000, 4.000000, 4.000000, 4.000000, 4.000000, 4.000000
113.000000, 0.000000, 4186.153809, 4216.410156, 4407.692383, 4182.051270, 4174.358887, 4203.589844, 4183.076660, 4196.922852, 4189.230469, 4222.051270, 4280.512695, 4187.692383, 4156.922852, 4203.076660, 3566.000000, 8247.000000, 8604.000000, 0.000000, 0.000000, 0.000000, 21848.000000, 233.846146, 4.000000, 4.000000, 4.000000, 4.000000, 4.000000, 4.000000, 4.000000, 4.000000, 4.000000, 4.000000, 4.000000, 4.000000, 4.000000, 4.000000, 4.000000, 4.000000
114.000000, 0.000000, 4182.051270, 4204.615234, 4384.102539, 4175.384277, 4168.717773, 4202.563965, 4179.487305, 4193.333008, 4186.153809, 4215.897461, 4275.897461, 4181.025391, 4154.358887, 4200.000000, 2804.000000, 8247.000000, 8604.000000, 0.000000, 0.000000, 0.000000, 21848.000000, 241.538452, 4.000000, 4.000000, 4.000000, 4.000000, 4.000000, 4.000000, 4.000000, 4.000000, 4.000000, 4.000000, 4.000000, 4.000000, 4.000000, 4.000000, 4.000000, 4.000000
115.000000, 0.000000, 4186.666504, 4197.436035, 4361.025391, 4173.846191, 4165.127930, 4201.025391, 4182.051270, 4194.871582, 4184.615234, 4205.127930, 4273.333008, 4175.384277, 4151.794922, 4198.974121, 3125.000000, 8226.000000, 8622.000000, 0.000000, 0.000000, 0.000000, 21848.000000, 249.743576, 4.000000, 4.000000, 4.000000, 4.000000, 4.000000, 4.000000, 4.000000, 4.000000, 4.000000, 4.000000, 4.000000, 4.000000, 4.000000, 4.000000, 4.000000, 4.000000
116.000000, 0.000000, 4194.358887, 4202.051270, 4347.692383, 4184.102539, 4176.410156, 4203.076660, 4183.076660, 4198.461426, 4200.000000, 4211.281738, 4282.051270, 4184.102539, 4156.410156, 4202.051270, 3505.000000, 8226.000000, 8622.000000, 0.000000, 0.000000, 0.000000, 21848.000000, 257.435883, 4.000000, 4.000000, 4.000000, 4.000000, 4.000000, 4.000000, 4.000000, 4.000000, 4.000000, 4.000000, 4.000000, 4.000000, 4.000000, 4.000000, 4.000000, 4.000000
117.000000, 0.000000, 4188.205078, 4200.512695, 4333.333008, 4187.179199, 4186.666504, 4200.512695, 4182.051270, 4192.820313, 4206.666504, 4220.512695, 4287.692383, 4186.153809, 4157.948730, 4203.076660, 3566.000000, 8211.000000, 8646.000000, 0.000000, 0.000000, 0.000000, 21848.000000, 265.128204, 4.000000, 4.000000, 4.000000, 4.000000, 4.000000, 4.000000, 4.000000, 4.000000, 4.000000, 4.000000, 4.000000, 4.000000, 4.000000, 4.000000, 4.000000, 4.000000
118.000000, 0.000000, 4187.179199, 4187.179199, 4312.820313, 4183.589844, 4183.076660, 4188.717773, 4177.436035, 4189.230469, 4198.974121, 4209.743652, 4282.051270, 4172.820313, 4151.794922, 4198.974121, 2804.000000, 8211.000000, 8646.000000, 0.000000, 0.000000, 0.000000, 21848.000000, 272.820496, 4.000000, 4.000000, 4.000000, 4.000000, 4.000000, 4.000000, 4.000000, 4.000000, 4.000000, 4.000000, 4.000000, 4.000000, 4.000000, 4.000000, 4.000000, 4.000000
119.000000, 0.000000, 4195.384277, 4182.563965, 4298.461426, 4187.692383, 4180.512695, 4186.666504, 4181.025391, 4195.384277, 4206.153809, 4204.102539, 4280.512695, 4170.256348, 4152.820313, 4197.948730, 3125.000000, 8202.000000, 8681.000000, 0.000000, 0.000000, 0.000000, 21848.000000, 280.512817, 4.000000, 4.000000, 4.000000, 4.000000, 4.000000, 4.000000, 4.000000, 4.000000, 4.000000, 4.000000, 4.000000, 4.000000, 4.000000, 4.000000, 4.000000, 4.000000
120.000000, 0.000000, 4195.897461, 4181.025391, 4287.179199, 4191.281738, 4181.025391, 4193.333008, 4189.230469, 4200.000000, 4223.076660, 4217.948730, 4284.615234, 4177.436035, 4162.051270, 4201.538574, 3505.000000, 8202.000000, 8681.000000, 0.000000, 0.000000, 0.000000, 21848.000000, 288.205109, 4.000000, 4.000000, 4.000000, 4.000000, 4.000000, 4.000000, 4.000000, 4.000000, 4.000000, 4.000000, 4.000000, 4.000000, 4.000000, 4.000000, 4.000000, 4.000000
121.000000, 0.000000, 4191.281738, 4169.230469, 4264.102539, 4191.281738, 4178.461426, 4190.769043, 4185.127930, 4194.871582, 4221.025391, 4217.948730, 4281.025391, 4174.358887, 4158.974121, 4197.436035, 3566.000000, 8204.000000, 8677.000000, 0.000000, 0.000000, 0.000000, 21848.000000, 296.410248, 4.000000, 4.000000, 4.000000, 4.000000, 4.000000, 4.000000, 4.000000, 4.000000, 4.000000, 4.000000, 4.000000, 4.000000, 4.000000, 4.000000, 4.000000, 4.000000
122.000000, 0.000000, 4191.281738, 4163.076660, 4240.000000, 4195.384277, 4180.512695, 4187.692383, 4183.076660, 4191.794922, 4211.281738, 4205.641113, 4275.897461, 4169.743652, 4143.589844, 4188.717773, 2804.000000, 8204.000000, 8677.000000, 0.000000, 0.000000, 0.000000, 21848.000000, 304.102570, 4.000000, 4.000000, 4.000000, 4.000000, 4.000000, 4.000000, 4.000000, 4.000000, 4.000000, 4.000000, 4.000000, 4.000000, 4.000000, 4.000000, 4.000000, 4.000000
123.000000, 0.000000, 4194.871582, 4163.076660, 4228.205078, 4201.025391, 4186.153809, 4191.794922, 4187.692383, 4192.820313, 4213.846191, 4206.153809, 4278.974121, 4170.256348, 4136.922852, 4187.692383, 3125.000000, 8207.000000, 8681.000000, 0.000000, 0.000000, 0.000000, 21848.000000, 311.794861, 4.000000, 4.000000, 4.000000, 4.000000, 4.000000, 4.000000, 4.000000, 4.000000, 4.000000, 4.000000, 4.000000, 4.000000, 4.000000, 4.000000, 4.000000, 4.000000
124.000000, 0.000000, 4192.820313, 4157.948730, 4210.769043, 4202.563965, 4180.000000, 4185.641113, 4186.153809, 4190.769043, 4216.410156, 4207.179199, 4278.461426, 4168.205078, 4138.974121, 4188.717773, 3505.000000, 8207.000000, 8681.000000, 0.000000, 0.000000, 0.000000, 21848.000000, 319.487183, 4.000000, 4.000000, 4.000000, 4.000000, 4.000000, 4.000000, 4.000000, 4.000000, 4.000000, 4.000000, 4.000000, 4.000000, 4.000000, 4.000000, 4.000000, 4.000000
125.000000, 0.000000, 4189.743652, 4151.281738, 4189.743652, 4200.000000, 4168.205078, 4174.871582, 4186.666504, 4186.666504, 4206.153809, 4200.000000, 4269.230469, 4167.179199, 4132.820313, 4187.179199, 3566.000000, 8210.000000, 8679.000000, 0.000000, 0.000000, 0.000000, 21848.000000, 327.692291, 4.000000, 4.000000, 4.000000, 4.000000, 4.000000, 4.000000, 4.000000, 4.000000, 4.000000, 4.000000, 4.000000, 4.000000, 4.000000, 4.000000, 4.000000, 4.000000
126.000000, 0.000000, 4192.307617, 4153.333008, 4183.076660, 4198.974121, 4168.717773, 4174.358887, 4188.717773, 4187.179199, 4196.922852, 4200.000000, 4264.102539, 4168.717773, 4123.589844, 4187.179199, 2804.000000, 8210.000000, 8679.000000, 0.000000, 0.000000, 0.000000, 21848.000000, 335.384613, 4.000000, 4.000000, 4.000000, 4.000000, 4.000000, 4.000000, 4.000000, 4.000000, 4.000000, 4.000000, 4.000000, 4.000000, 4.000000, 4.000000, 4.000000, 4.000000
127.000000, 0.000000, 4192.820313, 4155.384277, 4179.487305, 4200.000000, 4182.563965, 4173.333008, 4177.436035, 4187.692383, 4198.461426, 4203.076660, 4264.102539, 4168.205078, 4122.051270, 4187.692383, 57.000000, 8206.000000, 8683.000000, 0.000000, 0.000000, 0.000000, 21848.000000, 343.589722, 4.000000, 4.000000, 4.000000, 4.000000, 4.000000, 4.000000, 4.000000, 4.000000, 4.000000, 4.000000, 4.000000, 4.000000, 4.000000, 4.000000, 4.000000, 4.000000
0.000000, 0.000000, 4190.256348, 4155.897461, 4168.205078, 4198.461426, 4183.589844, 4168.205078, 4168.717773, 4186.153809, 4199.487305, 4201.025391, 4264.102539, 4170.769043, 4131.281738, 4191.281738, 3526.000000, 8206.000000, 8683.000000, 0.000000, 0.000000, 0.000000, 21848.000000, 351.282043, 4.000000, 4.000000, 4.000000, 4.000000, 4.000000, 4.000000, 4.000000, 4.000000, 4.000000, 4.000000, 4.000000, 4.000000, 4.000000, 4.000000, 4.000000, 4.000000
1.000000, 0.000000, 4192.820313, 4160.000000, 4161.025391, 4197.436035, 4167.692383, 4170.256348, 4177.436035, 4191.281738, 4197.436035, 4202.563965, 4270.256348, 4181.025391, 4145.127930, 4198.974121, 3535.000000, 8174.000000, 8685.000000, 0.000000, 0.000000, 0.000000, 21848.000000, 359.487183, 4.000000, 4.000000, 4.000000, 4.000000, 4.000000, 4.000000, 4.000000, 4.000000, 4.000000, 4.000000, 4.000000, 4.000000, 4.000000, 4.000000, 4.000000, 4.000000
2.000000, 0.000000, 4199.487305, 4171.794922, 4159.487305, 4201.538574, 4168.717773, 4177.948730, 4188.205078, 4196.922852, 4195.384277, 4203.589844, 4280.000000, 4188.205078, 4154.358887, 4203.589844, 2297.000000, 8174.000000, 8685.000000, 0.000000, 0.000000, 0.000000, 21848.000000, 367.179474, 4.000000, 4.000000, 4.000000, 4.000000, 4.000000, 4.000000, 4.000000, 4.000000, 4.000000, 4.000000, 4.000000, 4.000000, 4.000000, 4.000000, 4.000000, 4.000000
3.000000, 0.000000, 4195.897461, 4183.076660, 4152.820313, 4208.205078, 4186.153809, 4185.127930, 4188.205078, 4192.307617, 4190.769043, 4202.563965, 4283.076660, 4185.127930, 4154.358887, 4198.974121, 3559.000000, 8155.000000, 8658.000000, 0.000000, 0.000000, 0.000000, 21848.000000, 375.384613, 4.000000, 4.000000, 4.000000, 4.000000, 4.000000, 4.000000, 4.000000, 4.000000, 4.000000, 4.000000, 4.000000, 4.000000, 4.000000, 4.000000, 4.000000, 4.000000
4.000000, 0.000000, 4187.692383, 4178.461426, 4134.871582, 4203.076660, 4189.230469, 4190.256348, 4187.179199, 4185.127930, 4186.153809, 4197.436035, 4273.333008, 4174.358887, 4144.102539, 4189.230469, 3476.000000, 8155.000000, 8658.000000, 0.000000, 0.000000, 0.000000, 21848.000000, 383.076904, 4.000000, 4.000000, 4.000000, 4.000000, 4.000000, 4.000000, 4.000000, 4.000000, 4.000000, 4.000000, 4.000000, 4.000000, 4.000000, 4.000000, 4.000000, 4.000000
5.000000, 0.000000, 4187.692383, 4168.717773, 4118.461426, 4191.794922, 4183.076660, 4190.769043, 4194.871582, 4190.256348, 4186.153809, 4188.717773, 4265.127930, 4167.692383, 4142.051270, 4183.076660, 3590.000000, 8121.000000, 8585.000000, 0.000000, 0.000000, 0.000000, 21848.000000, 391.282043, 4.000000, 4.000000, 4.000000, 4.000000, 4.000000, 4.000000, 4.000000, 4.000000, 4.000000, 4.000000, 4.000000, 4.000000, 4.000000, 4.000000, 4.000000, 4.000000
6.000000, 0.000000, 4187.692383, 4168.205078, 4114.871582, 4190.256348, 4182.051270, 4186.153809, 4201.538574, 4196.922852, 4196.410156, 4192.307617, 4272.307617, 4170.769043, 4167.692383, 4185.127930, 2171.000000, 8121.000000, 8585.000000, 0.000000, 0.000000, 0.000000, 21848.000000, 398.974335, 4.000000, 4.000000, 4.000000, 4.000000, 4.000000, 4.000000, 4.000000, 4.000000, 4.000000, 4.000000, 4.000000, 4.000000, 4.000000, 4.000000, 4.000000, 4.000000
7.000000, 0.000000, 4187.179199, 4170.256348, 4111.794922, 4195.384277, 4182.051270, 4181.025391, 4207.692383, 4191.794922, 4211.794922, 4203.076660, 4281.025391, 4173.846191, 4195.897461, 4185.127930, 1342.000000, 8104.000000, 8530.000000, 0.000000, 0.000000, 0.000000, 21848.000000, 407.179474, 4.000000, 4.000000, 4.000000, 4.000000, 4.000000, 4.000000, 4.000000, 4.000000, 4.000000, 4.000000, 4.000000, 4.000000, 4.000000, 4.000000, 4.000000, 4.000000
8.000000, 0.000000, 4191.281738, 4177.948730, 4104.102539, 4201.025391, 4185.127930, 4181.025391, 4211.281738, 4188.717773, 4214.358887, 4203.589844, 4282.563965, 4171.281738, 4203.076660, 4183.076660, 3539.000000, 8104.000000, 8530.000000, 0.000000, 0.000000, 0.000000, 21848.000000, 414.871796, 4.000000, 4.000000, 4.000000, 4.000000, 4.000000, 4.000000, 4.000000, 4.000000, 4.000000, 4.000000, 4.000000, 4.000000, 4.000000, 4.000000, 4.000000, 4.000000
9.000000, 0.000000, 4195.897461, 4192.820313, 4106.153809, 4206.666504, 4187.692383, 4180.000000, 4203.589844, 4192.307617, 4205.127930, 4203.589844, 4292.307617, 4172.820313, 4212.820313, 4191.794922, 3538.000000, 8066.000000, 8445.000000, 0.000000, 0.000000, 0.000000, 21848.000000, 423.076904, 4.000000, 4.000000, 4.000000, 4.000000, 4.000000, 4.000000, 4.000000, 4.000000, 4.000000, 4.000000, 4.000000, 4.000000, 4.000000, 4.000000, 4.000000, 4.000000
10.000000, 0.000000, 4189.743652, 4193.846191, 4103.589844, 4206.153809, 4184.102539, 4173.333008, 4192.820313, 4191.281738, 4200.000000, 4206.666504, 4297.948730, 4174.871582, 4222.051270, 4194.358887, 2804.000000, 8066.000000, 8445.000000, 0.000000, 0.000000, 0.000000, 21848.000000, 430.769226, 4.000000, 4.000000, 4.000000, 4.000000, 4.000000, 4.000000, 4.000000, 4.000000, 4.000000, 4.000000, 4.000000, 4.000000, 4.000000, 4.000000, 4.000000, 4.000000
11.000000, 0.000000, 4178.461426, 4182.563965, 4088.717773, 4198.461426, 4181.025391, 4169.230469, 4192.307617, 4185.127930, 4195.897461, 4197.948730, 4278.461426, 4162.563965, 4210.256348, 4178.974121, 3234.000000, 8045.000000, 8410.000000, 0.000000, 0.000000, 0.000000, 21848.000000, 438.974335, 4.000000, 4.000000, 4.000000, 4.000000, 4.000000, 4.000000, 4.000000, 4.000000, 4.000000, 4.000000, 4.000000, 4.000000, 4.000000, 4.000000, 4.000000, 4.000000
12.000000, 0.000000, 4181.538574, 4182.051270, 4085.640869, 4196.922852, 4184.102539, 4172.307617, 4202.051270, 4187.179199, 4194.358887, 4192.307617, 4266.153809, 4152.307617, 4202.563965, 4173.333008, 3507.000000, 8045.000000, 8410.000000, 0.000000, 0.000000, 0.000000, 21848.000000, 447.179474, 4.000000, 4.000000, 4.000000, 4.000000, 4.000000, 4.000000, 4.000000, 4.000000, 4.000000, 4.000000, 4.000000, 4.000000, 4.000000, 4.000000, 4.000000, 4.000000
13.000000, 0.000000, 4186.666504, 4188.717773, 4099.487305, 4202.051270, 4188.205078, 4177.948730, 4207.179199, 4196.410156, 4208.205078, 4202.563965, 4278.461426, 4162.563965, 4214.358887, 4185.641113, 3611.000000, 8030.000000, 8360.000000, 0.000000, 0.000000, 0.000000, 21848.000000, 454.871796, 4.000000, 4.000000, 4.000000, 4.000000, 4.000000, 4.000000, 4.000000, 4.000000, 4.000000, 4.000000, 4.000000, 4.000000, 4.000000, 4.000000, 4.000000, 4.000000
14.000000, 0.000000, 4186.153809, 4195.897461, 4109.230469, 4203.076660, 4188.717773, 4184.102539, 4206.666504, 4199.487305, 4216.922852, 4204.615234, 4280.512695, 4174.871582, 4219.487305, 4189.230469, 2804.000000, 8030.000000, 8360.000000, 0.000000, 0.000000, 0.000000, 21848.000000, 463.076904, 4.000000, 4.000000, 4.000000, 4.000000, 4.000000, 4.000000, 4.000000, 4.000000, 4.000000, 4.000000, 4.000000, 4.000000, 4.000000, 4.000000, 4.000000, 4.000000
15.000000, 0.000000, 4186.666504, 4202.563965, 4109.743652, 4202.563965, 4187.692383, 4183.589844, 4205.127930, 4194.358887, 4208.717773, 4201.538574, 4268.717773, 4168.205078, 4216.922852, 4183.589844, 3234.000000, 8021.000000, 8277.000000, 0.000000, 0.000000, 0.000000, 21848.000000, 470.769226, 4.000000, 4.000000, 4.000000, 4.000000, 4.000000, 4.000000, 4.000000, 4.000000, 4.000000, 4.000000, 4.000000, 4.000000, 4.000000, 4.000000, 4.000000, 4.000000
16.000000, 0.000000, 4184.102539, 4197.436035, 4107.692383, 4200.512695, 4187.179199, 4174.358887, 4202.051270, 4187.692383, 4201.538574, 4205.127930, 4261.025391, 4155.384277, 4225.641113, 4182.051270, 0.000000, 8021.000000, 8277.000000, 0.000000, 0.000000, 0.000000, 21848.000000, 478.974335, 4.000000, 4.000000, 4.000000, 4.000000, 4.000000, 4.000000, 4.000000, 4.000000, 4.000000, 4.000000, 4.000000, 4.000000, 4.000000, 4.000000, 4.000000, 4.000000
17.000000, 0.000000, 4182.051270, 4192.820313, 4110.769043, 4198.461426, 4186.153809, 4168.205078, 4206.666504, 4188.205078, 4201.538574, 4207.692383, 4256.410156, 4154.871582, 4231.794922, 4183.076660, 0.000000, 8034.000000, 8235.000000, 0.000000, 0.000000, 0.000000, 21848.000000, 486.666656, 4.000000, 4.000000, 4.000000, 4.000000, 4.000000, 4.000000, 4.000000, 4.000000, 4.000000, 4.000000, 4.000000, 4.000000, 4.000000, 4.000000, 4.000000, 4.000000
18.000000, 0.000000, 4189.743652, 4195.897461, 4118.461426, 4198.974121, 4184.102539, 4169.230469, 4216.922852, 4188.205078, 4199.487305, 4202.563965, 4247.692383, 4159.487305, 4231.281738, 4183.076660, 0.000000, 8034.000000, 8235.000000, 0.000000, 0.000000, 0.000000, 21848.000000, 494.871796, 4.000000, 4.000000, 4.000000, 4.000000, 4.000000, 4.000000, 4.000000, 4.000000, 4.000000, 4.000000, 4.000000, 4.000000, 4.000000, 4.000000, 4.000000, 4.000000
19.000000, 0.000000, 4193.333008, 4196.922852, 4122.563965, 4203.589844, 4184.102539, 4174.871582, 4215.897461, 4187.692383, 4198.974121, 4202.051270, 4245.641113, 4160.512695, 4238.974121, 4186.153809, 0.000000, 8075.000000, 8160.000000, 0.000000, 0.000000, 0.000000, 21848.000000, 502.564087, 4.000000, 4.000000, 4.000000, 4.000000, 4.000000, 4.000000, 4.000000, 4.000000, 4.000000, 4.000000, 4.000000, 4.000000, 4.000000, 4.000000, 4.000000, 4.000000
20.000000, 0.000000, 4190.256348, 4195.897461, 4122.563965, 4208.205078, 4187.179199, 4184.102539, 4211.794922, 4188.205078, 4203.076660, 4208.717773, 4245.127930, 4165.127930, 4252.307617, 4190.769043, 0.000000, 8075.000000, 8160.000000, 0.000000, 0.000000, 0.000000, 21848.000000, 510.769226, 4.000000, 4.000000, 4.000000, 4.000000, 4.000000, 4.000000, 4.000000, 4.000000, 4.000000, 4.000000, 4.000000, 4.000000, 4.000000, 4.000000, 4.000000, 4.000000
21.000000, 0.000000, 4189.743652, 4192.820313, 4120.512695, 4209.743652, 4190.256348, 4187.179199, 4211.281738, 4188.205078, 4205.127930, 4214.358887, 4238.461426, 4170.769043, 4258.974121, 4190.256348, 0.000000, 8099.000000, 8127.000000, 0.000000, 0.000000, 0.000000, 21848.000000, 518.461548, 4.000000, 4.000000, 4.000000, 4.000000, 4.000000, 4.000000, 4.000000, 4.000000, 4.000000, 4.000000, 4.000000, 4.000000, 4.000000, 4.000000, 4.000000, 4.000000
22.000000, 0.000000, 4188.205078, 4187.179199, 4123.076660, 4210.256348, 4191.794922, 4184.102539, 4206.666504, 4194.871582, 4203.076660, 4214.358887, 4227.179199, 4168.717773, 4255.897461, 4185.641113, 0.000000, 8099.000000, 8127.000000, 0.000000, 0.000000, 0.000000, 21848.000000, 526.666626, 4.000000, 4.000000, 4.000000, 4.000000, 4.000000, 4.000000, 4.000000, 4.000000, 4.000000, 4.000000, 4.000000, 4.000000, 4.000000, 4.000000, 4.000000, 4.000000
23.000000, 0.000000, 4190.769043, 4189.743652, 4131.281738, 4214.871582, 4190.769043, 4184.615234, 4204.102539, 4200.000000, 4204.102539, 4215.897461, 4221.538574, 4167.692383, 4254.358887, 4186.666504, 0.000000, 8130.000000, 8105.000000, 0.000000, 0.000000, 0.000000, 21848.000000, 534.358948, 4.000000, 4.000000, 4.000000, 4.000000, 4.000000, 4.000000, 4.000000, 4.000000, 4.000000, 4.000000, 4.000000, 4.000000, 4.000000, 4.000000, 4.000000, 4.000000
24.000000, 0.000000, 4193.333008, 4193.333008, 4136.922852, 4216.922852, 4189.230469, 4184.615234, 4210.769043, 4191.281738, 4206.153809, 4220.000000, 4220.000000, 4166.666504, 4249.230469, 4189.743652, 0.000000, 8130.000000, 8105.000000, 0.000000, 0.000000, 0.000000, 21848.000000, 542.564087, 4.000000, 4.000000, 4.000000, 4.000000, 4.000000, 4.000000, 4.000000, 4.000000, 4.000000, 4.000000, 4.000000, 4.000000, 4.000000, 4.000000, 4.000000, 4.000000
25.000000, 0.000000, 4190.256348, 4178.461426, 4140.000000, 4212.307617, 4186.153809, 4182.051270, 4214.871582, 4184.615234, 4203.076660, 4214.871582, 4208.717773, 4157.948730, 4229.743652, 4185.127930, 0.000000, 8209.000000, 8055.000000, 0.000000, 0.000000, 0.000000, 21848.000000, 550.256409, 4.000000, 4.000000, 4.000000, 4.000000, 4.000000, 4.000000, 4.000000, 4.000000, 4.000000, 4.000000, 4.000000, 4.000000, 4.000000, 4.000000, 4.000000, 4.000000
26.000000, 0.000000, 4192.307617, 4172.820313, 4153.333008, 4214.358887, 4183.589844, 4183.076660, 4213.333008, 4189.230469, 4198.461426, 4207.692383, 4196.922852, 4158.974121, 4212.820313, 4188.205078, 0.000000, 8209.000000, 8055.000000, 0.000000, 0.000000, 0.000000, 21848.000000, 557.948730, 4.000000, 4.000000, 4.000000, 4.000000, 4.000000, 4.000000, 4.000000, 4.000000, 4.000000, 4.000000, 4.000000, 4.000000, 4.000000, 4.000000, 4.000000, 4.000000
27.000000, 0.000000, 4196.922852, 4187.692383, 4173.846191, 4221.025391, 4185.127930, 4187.179199, 4218.461426, 4191.281738, 4201.025391, 4215.384277, 4203.589844, 4172.307617, 4217.436035, 4202.051270, 0.000000, 8241.000000, 8030.000000, 0.000000, 0.000000, 0.000000, 21848.000000, 566.153809, 4.000000, 4.000000, 4.000000, 4.000000, 4.000000, 4.000000, 4.000000, 4.000000, 4.000000, 4.000000, 4.000000, 4.000000, 4.000000, 4.000000, 4.000000, 4.000000
28.000000, 0.000000, 4191.794922, 4184.102539, 4178.974121, 4217.436035, 4188.205078, 4187.179199, 4221.538574, 4187.692383, 4201.025391, 4223.076660, 4203.589844, 4169.230469, 4215.384277, 4202.563965, 0.000000, 8241.000000, 8030.000000, 0.000000, 0.000000, 0.000000, 21848.000000, 573.846130, 4.000000, 4.000000, 4.000000, 4.000000, 4.000000, 4.000000, 4.000000, 4.000000, 4.000000, 4.000000, 4.000000, 4.000000, 4.000000, 4.000000, 4.000000, 4.000000
29.000000, 0.000000, 4182.563965, 4171.281738, 4176.410156, 4209.230469, 4185.127930, 4184.615234, 4210.769043, 4186.666504, 4192.820313, 4211.794922, 4185.127930, 4152.820313, 4198.974121, 4186.666504, 0.000000, 8296.000000, 7965.000000, 0.000000, 0.000000, 0.000000, 21848.000000, 582.051270, 4.000000, 4.000000, 4.000000, 4.000000, 4.000000, 4.000000, 4.000000, 4.000000, 4.000000, 4.000000, 4.000000, 4.000000, 4.000000, 4.000000, 4.000000, 4.000000
30.000000, 0.000000, 4184.615234, 4177.948730, 4189.230469, 4210.769043, 4181.538574, 4183.589844, 4194.358887, 4188.717773, 4185.641113, 4200.512695, 4176.922852, 4151.794922, 4202.563965, 4184.615234, 0.000000, 8296.000000, 7965.000000, 0.000000, 0.000000, 0.000000, 21848.000000, 589.743591, 4.000000, 4.000000, 4.000000, 4.000000, 4.000000, 4.000000, 4.000000, 4.000000, 4.000000, 4.000000, 4.000000, 4.000000, 4.000000, 4.000000, 4.000000, 4.000000
31.000000, 0.000000, 4188.717773, 4190.769043, 4205.127930, 4214.871582, 4189.743652, 4186.153809, 4183.589844, 4192.307617, 4186.666504, 4209.230469, 4186.666504, 4161.025391, 4218.974121, 4196.410156, 0.000000, 8319.000000, 7939.000000, 0.000000, 0.000000, 0.000000, 21848.000000, 597.948730, 4.000000, 4.000000, 4.000000, 4.000000, 4.000000, 4.000000, 4.000000, 4.000000, 4.000000, 4.000000, 4.000000, 4.000000, 4.000000, 4.000000, 4.000000, 4.000000
32.000000, 0.000000, 4183.589844, 4188.717773, 4204.615234, 4208.717773, 4192.307617, 4182.051270, 4185.127930, 4191.794922, 4187.179199, 4213.333008, 4186.153809, 4158.974121, 4218.461426, 4195.384277, 0.000000, 8319.000000, 7939.000000, 0.000000, 0.000000, 0.000000, 21848.000000, 605.640991, 4.000000, 4.000000, 4.000000, 4.000000, 4.000000, 4.000000, 4.000000, 4.000000, 4.000000, 4.000000, 4.000000, 4.000000, 4.000000, 4.000000, 4.000000, 4.000000
33.000000, 0.000000, 4175.897461, 4182.563965, 4196.922852, 4196.922852, 4177.948730, 4170.769043, 4189.230469, 4187.179199, 4182.563965, 4200.000000, 4169.743652, 4147.179199, 4210.256348, 4182.563965, 0.000000, 8365.000000, 7868.000000, 0.000000, 0.000000, 0.000000, 21848.000000, 613.333313, 4.000000, 4.000000, 4.000000, 4.000000, 4.000000, 4.000000, 4.000000, 4.000000, 4.000000, 4.000000, 4.000000, 4.000000, 4.000000, 4.000000, 4.000000, 4.000000
34.000000, 0.000000, 4178.461426, 4186.153809, 4201.025391, 4191.794922, 4172.307617, 4167.692383, 4189.743652, 4186.666504, 4182.563965, 4200.000000, 4164.102539, 4146.666504, 4217.948730, 4182.051270, 0.000000, 8365.000000, 7868.000000, 0.000000, 0.000000, 0.000000, 21848.000000, 621.538452, 4.000000, 4.000000, 4.000000, 4.000000, 4.000000, 4.000000, 4.000000, 4.000000, 4.000000, 4.000000, 4.000000, 4.000000, 4.000000, 4.000000, 4.000000, 4.000000
35.000000, 0.000000, 4186.666504, 4198.461426, 4217.436035, 4200.512695, 4181.538574, 4174.358887, 4195.384277, 4190.769043, 4187.692383, 4216.922852, 4176.922852, 4160.512695, 4233.846191, 4196.410156, 0.000000, 8370.000000, 7832.000000, 0.000000, 0.000000, 0.000000, 21848.000000, 629.230774, 4.000000, 4.000000, 4.000000, 4.000000, 4.000000, 4.000000, 4.000000, 4.000000, 4.000000, 4.000000, 4.000000, 4.000000, 4.000000, 4.000000, 4.000000, 4.000000
36.000000, 0.000000, 4185.127930, 4209.230469, 4230.256348, 4203.589844, 4180.000000, 4173.333008, 4196.922852, 4188.205078, 4182.051270, 4219.487305, 4180.000000, 4163.589844, 4242.051270, 4203.589844, 0.000000, 8370.000000, 7832.000000, 0.000000, 0.000000, 0.000000, 21848.000000, 637.435852, 4.000000, 4.000000, 4.000000, 4.000000, 4.000000, 4.000000, 4.000000, 4.000000, 4.000000, 4.000000, 4.000000, 4.000000, 4.000000, 4.000000, 4.000000, 4.000000
37.000000, 0.000000, 4176.410156, 4210.256348, 4231.794922, 4189.230469, 4172.307617, 4166.666504, 4189.743652, 4184.615234, 4170.769043, 4205.127930, 4167.692383, 4150.769043, 4244.102539, 4198.461426, 0.000000, 8375.000000, 7797.000000, 0.000000, 0.000000, 0.000000, 21848.000000, 645.128174, 4.000000, 4.000000, 4.000000, 4.000000, 4.000000, 4.000000, 4.000000, 4.000000, 4.000000, 4.000000, 4.000000, 4.000000, 4.000000, 4.000000, 4.000000, 4.000000
38.000000, 0.000000, 4177.436035, 4213.333008, 4241.538574, 4182.051270, 4177.948730, 4174.871582, 4184.615234, 4188.717773, 4168.717773, 4199.487305, 4165.641113, 4148.205078, 4252.820313, 4196.410156, 0.000000, 8375.000000, 7797.000000, 0.000000, 0.000000, 0.000000, 21848.000000, 653.333313, 4.000000, 4.000000, 4.000000, 4.000000, 4.000000, 4.000000, 4.000000, 4.000000, 4.000000, 4.000000, 4.000000, 4.000000, 4.000000, 4.000000, 4.000000, 4.000000
39.000000, 0.000000, 4184.615234, 4223.076660, 4262.563965, 4191.794922, 4186.153809, 4184.102539, 4185.641113, 4190.256348, 4173.333008, 4209.230469, 4175.384277, 4157.948730, 4269.230469, 4200.512695, 0.000000, 8387.000000, 7726.000000, 0.000000, 0.000000, 0.000000, 21848.000000, 661.025635, 4.000000, 4.000000, 4.000000, 4.000000, 4.000000, 4.000000, 4.000000, 4.000000, 4.000000, 4.000000, 4.000000, 4.000000, 4.000000, 4.000000, 4.000000, 4.000000
40.000000, 0.000000, 4183.076660, 4222.051270, 4270.256348, 4192.820313, 4185.127930, 4175.897461, 4187.692383, 4188.205078, 4168.205078, 4215.897461, 4174.358887, 4151.281738, 4278.974121, 4201.025391, 0.000000, 8387.000000, 7726.000000, 0.000000, 0.000000, 0.000000, 21848.000000, 668.717957, 4.000000, 4.000000, 4.000000, 4.000000, 4.000000, 4.000000, 4.000000, 4.000000, 4.000000, 4.000000, 4.000000, 4.000000, 4.000000, 4.000000, 4.000000, 4.000000
41.000000, 0.000000, 4181.538574, 4210.769043, 4260.512695, 4183.589844, 4181.538574, 4170.256348, 4185.641113, 4192.820313, 4164.102539, 4211.794922, 4168.205078, 4139.487305, 4278.974121, 4201.025391, 0.000000, 8393.000000, 7698.000000, 0.000000, 0.000000, 0.000000, 21848.000000, 676.923035, 4.000000, 4.000000, 4.000000, 4.000000, 4.000000, 4.000000, 4.000000, 4.000000, 4.000000, 4.000000, 4.000000, 4.000000, 4.000000, 4.000000, 4.000000, 4.000000
42.000000, 0.000000, 4186.666504, 4207.692383, 4257.436035, 4182.563965, 4183.076660, 4181.025391, 4186.666504, 4201.538574, 4176.922852, 4218.461426, 4174.358887, 4147.179199, 4285.127930, 4204.615234, 0.000000, 8393.000000, 7698.000000, 0.000000, 0.000000, 0.000000, 21848.000000, 684.615356, 4.000000, 4.000000, 4.000000, 4.000000, 4.000000, 4.000000, 4.000000, 4.000000, 4.000000, 4.000000, 4.000000, 4.000000, 4.000000, 4.000000, 4.000000, 4.000000
43.000000, 0.000000, 4192.820313, 4207.179199, 4261.538574, 4185.641113, 4182.563965, 4187.692383, 4195.384277, 4201.538574, 4189.230469, 4232.820313, 4181.025391, 4155.384277, 4294.871582, 4204.102539, 0.000000, 8390.000000, 7662.000000, 0.000000, 0.000000, 0.000000, 21848.000000, 692.820496, 4.000000, 4.000000, 4.000000, 4.000000, 4.000000, 4.000000, 4.000000, 4.000000, 4.000000, 4.000000, 4.000000, 4.000000, 4.000000, 4.000000, 4.000000, 4.000000
44.000000, 0.000000, 4195.384277, 4201.538574, 4260.512695, 4183.076660, 4176.922852, 4185.641113, 4202.051270, 4199.487305, 4187.179199, 4233.333008, 4177.436035, 4154.358887, 4303.076660, 4207.179199, 0.000000, 8390.000000, 7662.000000, 0.000000, 0.000000, 0.000000, 21848.000000, 700.512817, 4.000000, 4.000000, 4.000000, 4.000000, 4.000000, 4.000000, 4.000000, 4.000000, 4.000000, 4.000000, 4.000000, 4.000000, 4.000000, 4.000000, 4.000000, 4.000000
45.000000, 0.000000, 4197.948730, 4201.538574, 4264.102539, 4181.538574, 4171.281738, 4188.717773, 4194.871582, 4201.025391, 4187.692383, 4231.281738, 4179.487305, 4161.025391, 4317.948730, 4216.922852, 0.000000, 8383.000000, 7656.000000, 0.000000, 0.000000, 0.000000, 21848.000000, 708.717957, 4.000000, 4.000000, 4.000000, 4.000000, 4.000000, 4.000000, 4.000000, 4.000000, 4.000000, 4.000000, 4.000000, 4.000000, 4.000000, 4.000000, 4.000000, 4.000000
46.000000, 0.000000, 4198.974121, 4204.102539, 4274.871582, 4184.102539, 4170.769043, 4188.717773, 4183.076660, 4200.512695, 4190.256348, 4240.512695, 4188.205078, 4172.307617, 4329.230469, 4219.487305, 0.000000, 8383.000000, 7656.000000, 0.000000, 0.000000, 0.000000, 21848.000000, 716.410217, 4.000000, 4.000000, 4.000000, 4.000000, 4.000000, 4.000000, 4.000000, 4.000000, 4.000000, 4.000000, 4.000000, 4.000000, 4.000000, 4.000000, 4.000000, 4.000000
47.000000, 0.000000, 4193.333008, 4203.076660, 4280.512695, 4184.615234, 4174.871582, 4188.205078, 4183.589844, 4198.974121, 4186.666504, 4245.641113, 4187.179199, 4170.769043, 4327.179199, 4215.384277, 0.000000, 8363.000000, 7655.000000, 0.000000, 0.000000, 0.000000, 21848.000000, 724.102539, 4.000000, 4.000000, 4.000000, 4.000000, 4.000000, 4.000000, 4.000000, 4.000000, 4.000000, 4.000000, 4.000000, 4.000000, 4.000000, 4.000000, 4.000000, 4.000000
48.000000, 0.000000, 4187.692383, 4210.256348, 4283.589844, 4184.615234, 4181.025391, 4193.846191, 4188.205078, 4201.025391, 4193.846191, 4247.179199, 4184.615234, 4170.769043, 4329.743652, 4214.871582, 0.000000, 8363.000000, 7655.000000, 0.000000, 0.000000, 0.000000, 21848.000000, 731.794861, 4.000000, 4.000000, 4.000000, 4.000000, 4.000000, 4.000000, 4.000000, 4.000000, 4.000000, 4.000000, 4.000000, 4.000000, 4.000000, 4.000000, 4.000000, 4.000000
49.000000, 0.000000, 4177.436035, 4215.384277, 4290.769043, 4185.641113, 4186.666504, 4198.974121, 4181.538574, 4197.948730, 4202.563965, 4249.743652, 4188.205078, 4170.769043, 4341.025391, 4210.256348, 0.000000, 8329.000000, 7668.000000, 0.000000, 0.000000, 0.000000, 21848.000000, 740.000000, 4.000000, 4.000000, 4.000000, 4.000000, 4.000000, 4.000000, 4.000000, 4.000000, 4.000000, 4.000000, 4.000000, 4.000000, 4.000000, 4.000000, 4.000000, 4.000000
50.000000, 0.000000, 4170.769043, 4205.641113, 4292.820313, 4182.563965, 4187.692383, 4198.461426, 4171.794922, 4195.897461, 4192.820313, 4243.076660, 4182.563965, 4158.974121, 4342.051270, 4201.025391, 0.000000, 8329.000000, 7668.000000, 0.000000, 0.000000, 0.000000, 21848.000000, 747.692261, 4.000000, 4.000000, 4.000000, 4.000000, 4.000000, 4.000000, 4.000000, 4.000000, 4.000000, 4.000000, 4.000000, 4.000000, 4.000000, 4.000000, 4.000000, 4.000000
51.000000, 0.000000, 4180.512695, 4199.487305, 4297.948730, 4175.384277, 4185.127930, 4198.461426, 4173.846191, 4195.897461, 4180.000000, 4230.769043, 4172.820313, 4157.948730, 4345.641113, 4204.615234, 0.000000, 8302.000000, 7700.000000, 0.000000, 0.000000, 0.000000, 21848.000000, 755.897400, 4.000000, 4.000000, 4.000000, 4.000000, 4.000000, 4.000000, 4.000000, 4.000000, 4.000000, 4.000000, 4.000000, 4.000000, 4.000000, 4.000000, 4.000000, 4.000000
52.000000, 0.000000, 4187.179199, 4204.615234, 4311.794922, 4171.794922, 4185.127930, 4200.000000, 4176.410156, 4189.743652, 4173.333008, 4222.563965, 4170.256348, 4168.717773, 4354.871582, 4211.794922, 0.000000, 8302.000000, 7700.000000, 0.000000, 0.000000, 0.000000, 21848.000000, 763.589722, 4.000000, 4.000000, 4.000000, 4.000000, 4.000000, 4.000000, 4.000000, 4.000000, 4.000000, 4.000000, 4.000000, 4.000000, 4.000000, 4.000000, 4.000000, 4.000000
53.000000, 0.000000, 4184.615234, 4199.487305, 4324.102539, 4171.281738, 4188.205078, 4197.948730, 4175.384277, 4188.205078, 4166.666504, 4218.974121, 4171.281738, 4172.820313, 4359.487305, 4210.769043, 0.000000, 8245.000000, 7772.000000, 0.000000, 0.000000, 0.000000, 21848.000000, 771.794861, 4.000000, 4.000000, 4.000000, 4.000000, 4.000000, 4.000000, 4.000000, 4.000000, 4.000000, 4.000000, 4.000000, 4.000000, 4.000000, 4.000000, 4.000000, 4.000000
54.000000, 0.000000, 4177.436035, 4188.205078, 4327.692383, 4167.179199, 4184.102539, 4197.436035, 4177.948730, 4197.436035, 4163.589844, 4216.922852, 4166.153809, 4169.230469, 4360.512695, 4204.102539, 0.000000, 8245.000000, 7772.000000, 0.000000, 0.000000, 0.000000, 21848.000000, 779.487183, 4.000000, 4.000000, 4.000000, 4.000000, 4.000000, 4.000000, 4.000000, 4.000000, 4.000000, 4.000000, 4.000000, 4.000000, 4.000000, 4.000000, 4.000000, 4.000000
55.000000, 0.000000, 4172.820313, 4191.794922, 4332.307617, 4165.127930, 4176.922852, 4199.487305, 4181.025391, 4201.025391, 4169.230469, 4216.410156, 4159.487305, 4162.563965, 4365.641113, 4202.051270, 0.000000, 8216.000000, 7807.000000, 0.000000, 0.000000, 0.000000, 21848.000000, 787.692261, 4.000000, 4.000000, 4.000000, 4.000000, 4.000000, 4.000000, 4.000000, 4.000000, 4.000000, 4.000000, 4.000000, 4.000000, 4.000000, 4.000000, 4.000000, 4.000000
56.000000, 0.000000, 4176.410156, 4201.538574, 4341.538574, 4170.256348, 4182.051270, 4195.384277, 4177.948730, 4197.436035, 4178.461426, 4218.461426, 4158.974121, 4156.922852, 4375.897461, 4209.743652, 0.000000, 8216.000000, 7807.000000, 0.000000, 0.000000, 0.000000, 21848.000000, 795.384583, 4.000000, 4.000000, 4.000000, 4.000000, 4.000000, 4.000000, 4.000000, 4.000000, 4.000000, 4.000000, 4.000000, 4.000000, 4.000000, 4.000000, 4.000000, 4.000000
57.000000, 0.000000, 4177.436035, 4200.512695, 4344.102539, 4166.153809, 4187.179199, 4191.794922, 4181.025391, 4197.436035, 4185.127930, 4219.487305, 4156.922852, 4151.794922, 4387.179199, 4211.281738, 0.000000, 8191.000000, 7833.000000, 0.000000, 0.000000, 0.000000, 21848.000000, 803.076904, 4.000000, 4.000000, 4.000000, 4.000000, 4.000000, 4.000000, 4.000000, 4.000000, 4.000000, 4.000000, 4.000000, 4.000000, 4.000000, 4.000000, 4.000000, 4.000000
58.000000, 0.000000, 4174.871582, 4194.358887, 4345.127930, 4155.897461, 4180.000000, 4198.461426, 4197.436035, 4199.487305, 4186.666504, 4218.461426, 4155.384277, 4151.794922, 4393.846191, 4206.666504, 0.000000, 8191.000000, 7833.000000, 0.000000, 0.000000, 0.000000, 21848.000000, 811.282043, 4.000000, 4.000000, 4.000000, 4.000000, 4.000000, 4.000000, 4.000000, 4.000000, 4.000000, 4.000000, 4.000000, 4.000000, 4.000000, 4.000000, 4.000000, 4.000000
59.000000, 0.000000, 4175.384277, 4191.794922, 4350.769043, 4156.922852, 4175.384277, 4202.563965, 4210.769043, 4196.922852, 4185.641113, 4220.000000, 4165.641113, 4158.461426, 4402.563965, 4209.230469, 0.000000, 8159.000000, 7847.000000, 0.000000, 0.000000, 0.000000, 21848.000000, 818.974365, 4.000000, 4.000000, 4.000000, 4.000000, 4.000000, 4.000000, 4.000000, 4.000000, 4.000000, 4.000000, 4.000000, 4.000000, 4.000000, 4.000000, 4.000000, 4.000000
60.000000, 0.000000, 4173.333008, 4188.205078, 4356.922852, 4159.487305, 4175.897461, 4197.948730, 4216.922852, 4190.256348, 4179.487305, 4216.410156, 4171.281738, 4162.051270, 4411.281738, 4210.769043, 0.000000, 8159.000000, 7847.000000, 0.000000, 0.000000, 0.000000, 21848.000000, 827.179443, 4.000000, 4.000000, 4.000000, 4.000000, 4.000000, 4.000000, 4.000000, 4.000000, 4.000000, 4.000000, 4.000000, 4.000000, 4.000000, 4.000000, 4.000000, 4.000000
61.000000, 0.000000, 4169.230469, 4185.127930, 4363.076660, 4153.333008, 4173.333008, 4197.948730, 4219.487305, 4185.641113, 4162.051270, 4202.563965, 4159.487305, 4151.281738, 4411.794922, 4202.563965, 0.000000, 8141.000000, 7851.000000, 0.000000, 0.000000, 0.000000, 21848.000000, 834.871765, 4.000000, 4.000000, 4.000000, 4.000000, 4.000000, 4.000000, 4.000000, 4.000000, 4.000000, 4.000000, 4.000000, 4.000000, 4.000000, 4.000000, 4.000000, 4.000000
62.000000, 0.000000, 4171.281738, 4186.153809, 4366.153809, 4150.769043, 4174.358887, 4201.538574, 4212.820313, 4187.179199, 4150.256348, 4194.358887, 4149.230469, 4137.436035, 4416.410156, 4197.436035, 0.000000, 8141.000000, 7851.000000, 0.000000, 0.000000, 0.000000, 21848.000000, 843.076904, 4.000000, 4.000000, 4.000000, 4.000000, 4.000000, 4.000000, 4.000000, 4.000000, 4.000000, 4.000000, 4.000000, 4.000000, 4.000000, 4.000000, 4.000000, 4.000000
63.000000, 0.000000, 4176.922852, 4189.743652, 4370.256348, 4162.051270, 4182.563965, 4200.512695, 4206.153809, 4189.230469, 4158.461426, 4198.461426, 4152.820313, 4134.358887, 4430.256348, 4200.000000, 0.000000, 8123.000000, 7890.000000, 0.000000, 0.000000, 0.000000, 21848.000000, 850.769226, 4.000000, 4.000000, 4.000000, 4.000000, 4.000000, 4.000000, 4.000000, 4.000000, 4.000000, 4.000000, 4.000000, 4.000000, 4.000000, 4.000000, 4.000000, 4.000000
64.000000, 0.000000, 4173.846191, 4190.769043, 4377.435547, 4167.692383, 4188.717773, 4203.589844, 4208.205078, 4186.666504, 4168.717773, 4201.025391, 4153.846191, 4137.436035, 4432.820313, 4198.974121, 3520.000000, 8123.000000, 7890.000000, 0.000000, 0.000000, 0.000000, 21848.000000, 858.461548, 4.000000, 4.000000, 4.000000, 4.000000, 4.000000, 4.000000, 4.000000, 4.000000, 4.000000, 4.000000, 4.000000, 4.000000, 4.000000, 4.000000, 4.000000, 4.000000
65.000000, 0.000000, 4168.205078, 4188.205078, 4382.563965, 4161.025391, 4190.256348, 4209.743652, 4210.769043, 4186.666504, 4167.692383, 4205.127930, 4152.307617, 4147.179199, 4427.692383, 4199.487305, 3535.000000, 8123.000000, 7927.000000, 0.000000, 0.000000, 0.000000, 21848.000000, 866.666626, 4.000000, 4.000000, 4.000000, 4.000000, 4.000000, 4.000000, 4.000000, 4.000000, 4.000000, 4.000000, 4.000000, 4.000000, 4.000000, 4.000000, 4.000000, 4.000000
66.000000, 0.000000, 4174.871582, 4186.666504, 4386.153809, 4158.461426, 4189.743652, 4209.743652, 4205.127930, 4191.794922, 4168.205078, 4215.897461, 4153.846191, 4157.436035, 4431.281738, 4202.051270, 2297.000000, 8123.000000, 7927.000000, 0.000000, 0.000000, 0.000000, 21848.000000, 874.358948, 4.000000, 4.000000, 4.000000, 4.000000, 4.000000, 4.000000, 4.000000, 4.000000, 4.000000, 4.000000, 4.000000, 4.000000, 4.000000, 4.000000, 4.000000, 4.000000
67.000000, 0.000000, 4180.512695, 4182.051270, 4396.410156, 4166.153809, 4186.666504, 4201.025391, 4199.487305, 4190.769043, 4174.871582, 4218.974121, 4151.794922, 4161.025391, 4434.358887, 4203.076660, 3551.000000, 8146.000000, 8017.000000, 0.000000, 0.000000, 0.000000, 21848.000000, 882.051270, 4.000000, 4.000000, 4.000000, 4.000000, 4.000000, 4.000000, 4.000000, 4.000000, 4.000000, 4.000000, 4.000000, 4.000000, 4.000000, 4.000000, 4.000000, 4.000000
68.000000, 0.000000, 4177.436035, 4171.794922, 4405.641113, 4172.307617, 4185.127930, 4191.794922, 4204.102539, 4186.666504, 4173.846191, 4214.358887, 4144.615234, 4158.461426, 4425.641113, 4203.589844, 3476.000000, 8146.000000, 8017.000000, 0.000000, 0.000000, 0.000000, 21848.000000, 889.743591, 4.000000, 4.000000, 4.000000, 4.000000, 4.000000, 4.000000, 4.000000, 4.000000, 4.000000, 4.000000, 4.000000, 4.000000, 4.000000, 4.000000, 4.000000, 4.000000
69.000000, 0.000000, 4174.358887, 4167.179199, 4404.102539, 4169.743652, 4181.025391, 4192.820313, 4201.538574, 4191.281738, 4172.307617, 4212.820313, 4137.948730, 4153.333008, 4411.794922, 4202.051270, 3591.000000, 8168.000000, 8068.000000, 0.000000, 0.000000, 0.000000, 21848.000000, 897.435852, 4.000000, 4.000000, 4.000000, 4.000000, 4.000000, 4.000000, 4.000000, 4.000000, 4.000000, 4.000000, 4.000000, 4.000000, 4.000000, 4.000000, 4.000000, 4.000000
70.000000, 0.000000, 4174.871582, 4168.205078, 4396.922852, 4167.692383, 4176.410156, 4196.410156, 4183.076660, 4195.897461, 4179.487305, 4214.871582, 4137.948730, 4150.769043, 4395.897461, 4200.512695, 2171.000000, 8168.000000, 8068.000000, 0.000000, 0.000000, 0.000000, 21848.000000, 905.640991, 4.000000, 4.000000, 4.000000, 4.000000, 4.000000, 4.000000, 4.000000, 4.000000, 4.000000, 4.000000, 4.000000, 4.000000, 4.000000, 4.000000, 4.000000, 4.000000
71.000000, 0.000000, 4177.436035, 4166.153809, 4395.897461, 4170.256348, 4180.000000, 4195.897461, 4175.897461, 4195.384277, 4182.563965, 4214.871582, 4140.000000, 4151.794922, 4375.897461, 4202.051270, 1239.000000, 8186.000000, 8113.000000, 0.000000, 0.000000, 0.000000, 21848.000000, 913.333313, 4.000000, 4.000000, 4.000000, 4.000000, 4.000000, 4.000000, 4.000000, 4.000000, 4.000000, 4.000000, 4.000000, 4.000000, 4.000000, 4.000000, 4.000000, 4.000000
72.000000, 0.000000, 4177.948730, 4166.666504, 4394.871582, 4169.230469, 4186.666504, 4195.897461, 4187.179199, 4193.333008, 4178.461426, 4210.769043, 4132.820313, 4153.333008, 4356.922852, 4202.563965, 3539.000000, 8186.000000, 8113.000000, 0.000000, 0.000000, 0.000000, 21848.000000, 921.025635, 4.000000, 4.000000, 4.000000, 4.000000, 4.000000, 4.000000, 4.000000, 4.000000, 4.000000, 4.000000, 4.000000, 4.000000, 4.000000, 4.000000, 4.000000, 4.000000
73.000000, 0.000000, 4179.487305, 4176.922852, 4392.820313, 4166.666504, 4186.666504, 4191.794922, 4196.410156, 4190.769043, 4177.948730, 4208.205078, 4127.179199, 4152.307617, 4346.666504, 4201.025391, 3538.000000, 8228.000000, 8194.000000, 0.000000, 0.000000, 0.000000, 21848.000000, 928.717896, 4.000000, 4.000000, 4.000000, 4.000000, 4.000000, 4.000000, 4.000000, 4.000000, 4.000000, 4.000000, 4.000000, 4.000000, 4.000000, 4.000000, 4.000000, 4.000000
74.000000, 0.000000, 4185.127930, 4187.692383, 4402.563965, 4174.871582, 4184.615234, 4188.717773, 4195.897461, 4188.205078, 4183.589844, 4209.230469, 4134.358887, 4153.333008, 4342.563965, 4203.076660, 2793.000000, 8228.000000, 8194.000000, 0.000000, 0.000000, 0.000000, 21848.000000, 936.923035, 4.000000, 4.000000, 4.000000, 4.000000, 4.000000, 4.000000, 4.000000, 4.000000, 4.000000, 4.000000, 4.000000, 4.000000, 4.000000, 4.000000, 4.000000, 4.000000
75.000000, 0.000000, 4183.076660, 4193.846191, 4413.846191, 4183.076660, 4183.589844, 4194.358887, 4195.384277, 4189.743652, 4188.717773, 4208.205078, 4141.538574, 4157.948730, 4335.384277, 4204.615234, 3146.000000, 8242.000000, 8212.000000, 0.000000, 0.000000, 0.000000, 21848.000000, 944.615356, 4.000000, 4.000000, 4.000000, 4.000000, 4.000000, 4.000000, 4.000000, 4.000000, 4.000000, 4.000000, 4.000000, 4.000000, 4.000000, 4.000000, 4.000000, 4.000000
76.000000, 0.000000, 4176.922852, 4196.410156, 4405.127930, 4177.948730, 4182.563965, 4202.051270, 4194.871582, 4188.717773, 4182.563965, 4202.563965, 4137.948730, 4152.820313, 4326.666504, 4201.025391, 3513.000000, 8242.000000, 8212.000000, 0.000000, 0.000000, 0.000000, 21848.000000, 952.307678, 4.000000, 4.000000, 4.000000, 4.000000, 4.000000, 4.000000, 4.000000, 4.000000, 4.000000, 4.000000, 4.000000, 4.000000, 4.000000, 4.000000, 4.000000, 4.000000
77.000000, 0.000000, 4177.436035, 4197.948730, 4389.230469, 4170.256348, 4185.641113, 4199.487305, 4182.563965, 4185.127930, 4171.794922, 4200.512695, 4136.922852, 4143.076660, 4316.410156, 4196.922852, 3526.000000, 8260.000000, 8225.000000, 0.000000, 0.000000, 0.000000, 21848.000000, 960.512817, 4.000000, 4.000000, 4.000000, 4.000000, 4.000000, 4.000000, 4.000000, 4.000000, 4.000000, 4.000000, 4.000000, 4.000000, 4.000000, 4.000000, 4.000000, 4.000000
78.000000, 0.000000, 4181.025391, 4198.461426, 4380.512695, 4170.769043, 4186.153809, 4198.974121, 4180.000000, 4187.179199, 4176.922852, 4202.051270, 4144.615234, 4146.153809, 4306.153809, 4197.436035, 2793.000000, 8260.000000, 8225.000000, 0.000000, 0.000000, 0.000000, 21848.000000, 968.205078, 4.000000, 4.000000, 4.000000, 4.000000, 4.000000, 4.000000, 4.000000, 4.000000, 4.000000, 4.000000, 4.000000, 4.000000, 4.000000, 4.000000, 4.000000, 4.000000
79.000000, 0.000000, 4182.563965, 4206.153809, 4374.871582, 4177.436035, 4183.589844, 4208.717773, 4192.307617, 4188.717773, 4184.102539, 4200.000000, 4153.333008, 4154.871582, 4297.948730, 4200.512695, 3146.000000, 8262.000000, 8227.000000, 0.000000, 0.000000, 0.000000, 21848.000000, 976.410217, 4.000000, 4.000000, 4.000000, 4.000000, 4.000000, 4.000000, 4.000000, 4.000000, 4.000000, 4.000000, 4.000000, 4.000000, 4.000000, 4.000000, 4.000000, 4.000000
80.000000, 0.000000, 4186.666504, 4223.076660, 4373.846191, 4186.153809, 4190.256348, 4215.384277, 4193.333008, 4187.692383, 4176.410156, 4199.487305, 4156.922852, 4152.307617, 4290.769043, 4202.563965, 3513.000000, 8262.000000, 8227.000000, 0.000000, 0.000000, 0.000000, 21848.000000, 984.102539, 4.000000, 4.000000, 4.000000, 4.000000, 4.000000, 4.000000, 4.000000, 4.000000, 4.000000, 4.000000, 4.000000, 4.000000, 4.000000, 4.000000, 4.000000, 4.000000
81.000000, 0.000000, 4189.230469, 4236.922852, 4375.897461, 4190.769043, 4201.538574, 4214.358887, 4182.563965, 4191.794922, 4172.820313, 4200.000000, 4159.487305, 4149.230469, 4284.102539, 4203.076660, 3526.000000, 8263.000000, 8218.000000, 0.000000, 0.000000, 0.000000, 21848.000000, 992.307678, 4.000000, 4.000000, 4.000000, 4.000000, 4.000000, 4.000000, 4.000000, 4.000000, 4.000000, 4.000000, 4.000000, 4.000000, 4.000000, 4.000000, 4.000000, 4.000000
82.000000, 0.000000, 4186.666504, 4244.102539, 4372.307617, 4189.743652, 4200.512695, 4208.717773, 4177.436035, 4198.974121, 4184.102539, 4201.538574, 4168.717773, 4153.333008, 4275.897461, 4205.641113, 2793.000000, 8263.000000, 8218.000000, 0.000000, 0.000000, 0.000000, 21849.000000, 0.000000, 4.000000, 4.000000, 4.000000, 4.000000, 4.000000, 4.000000, 4.000000, 4.000000, 4.000000, 4.000000, 4.000000, 4.000000, 4.000000, 4.000000, 4.000000, 4.000000
83.000000, 0.000000, 4184.102539, 4248.205078, 4367.179199, 4188.717773, 4191.281738, 4202.051270, 4175.384277, 4200.512695, 4194.871582, 4208.717773, 4176.410156, 4156.410156, 4254.871582, 4205.127930, 3146.000000, 8257.000000, 8217.000000, 0.000000, 0.000000, 0.000000, 21849.000000, 8.205128, 4.000000, 4.000000, 4.000000, 4.000000, 4.000000, 4.000000, 4.000000, 4.000000, 4.000000, 4.000000, 4.000000, 4.000000, 4.000000, 4.000000, 4.000000, 4.000000
84.000000, 0.000000, 4183.589844, 4246.666504, 4364.615234, 4184.102539, 4186.153809, 4205.127930, 4174.871582, 4197.436035, 4196.922852, 4210.256348, 4174.871582, 4154.871582, 4217.948730, 4198.974121, 3513.000000, 8257.000000, 8217.000000, 0.000000, 0.000000, 0.000000, 21849.000000, 15.897435, 4.000000, 4.000000, 4.000000, 4.000000, 4.000000, 4.000000, 4.000000, 4.000000, 4.000000, 4.000000, 4.000000, 4.000000, 4.000000, 4.000000, 4.000000, 4.000000
85.000000, 0.000000, 4180.512695, 4245.127930, 4365.127930, 4183.076660, 4186.666504, 4214.358887, 4176.922852, 4197.436035, 4198.461426, 4204.615234, 4172.307617, 4154.358887, 4188.717773, 4196.922852, 3526.000000, 8248.000000, 8225.000000, 0.000000, 0.000000, 0.000000, 21849.000000, 23.589743, 4.000000, 4.000000, 4.000000, 4.000000, 4.000000, 4.000000, 4.000000, 4.000000, 4.000000, 4.000000, 4.000000, 4.000000, 4.000000, 4.000000, 4.000000, 4.000000
86.000000, 0.000000, 4177.948730, 4243.589844, 4366.153809, 4186.153809, 4190.256348, 4212.307617, 4178.974121, 4201.538574, 4202.051270, 4201.025391, 4171.794922, 4153.333008, 4171.794922, 4196.410156, 2793.000000, 8248.000000, 8225.000000, 0.000000, 0.000000, 0.000000, 21849.000000, 31.794870, 4.000000, 4.000000, 4.000000, 4.000000, 4.000000, 4.000000, 4.000000, 4.000000, 4.000000, 4.000000, 4.000000, 4.000000, 4.000000, 4.000000, 4.000000, 4.000000
87.000000, 0.000000, 4176.410156, 4235.384277, 4363.076660, 4181.025391, 4189.743652, 4201.025391, 4180.000000, 4197.436035, 4200.512695, 4196.410156, 4168.717773, 4150.256348, 4155.897461, 4188.717773, 3146.000000, 8226.000000, 8208.000000, 0.000000, 0.000000, 0.000000, 21849.000000, 39.487179, 4.000000, 4.000000, 4.000000, 4.000000, 4.000000, 4.000000, 4.000000, 4.000000, 4.000000, 4.000000, 4.000000, 4.000000, 4.000000, 4.000000, 4.000000, 4.000000
88.000000, 0.000000, 4178.974121, 4228.717773, 4358.974121, 4176.922852, 4186.153809, 4199.487305, 4176.922852, 4187.179199, 4189.743652, 4186.153809, 4165.641113, 4148.205078, 4146.153809, 4182.051270, 3513.000000, 8226.000000, 8208.000000, 0.000000, 0.000000, 0.000000, 21849.000000, 47.179485, 4.000000, 4.000000, 4.000000, 4.000000, 4.000000, 4.000000, 4.000000, 4.000000, 4.000000, 4.000000, 4.000000, 4.000000, 4.000000, 4.000000, 4.000000, 4.000000
89.000000, 0.000000, 4182.051270, 4233.333008, 4354.871582, 4182.051270, 4192.307617, 4204.615234, 4172.307617, 4187.692383, 4185.641113, 4181.025391, 4172.307617, 4149.230469, 4147.692383, 4190.769043, 3526.000000, 8219.000000, 8207.000000, 0.000000, 0.000000, 0.000000, 21849.000000, 55.384613, 4.000000, 4.000000, 4.000000, 4.000000, 4.000000, 4.000000, 4.000000, 4.000000, 4.000000, 4.000000, 4.000000, 4.000000, 4.000000, 4.000000, 4.000000, 4.000000
90.000000, 0.000000, 4182.051270, 4236.410156, 4349.743652, 4186.666504, 4198.461426, 4203.589844, 4181.025391, 4194.871582, 4198.974121, 4189.743652, 4185.127930, 4151.281738, 4154.358887, 4198.461426, 2793.000000, 8219.000000, 8207.000000, 0.000000, 0.000000, 0.000000, 21849.000000, 63.076923, 4.000000, 4.000000, 4.000000, 4.000000, 4.000000, 4.000000, 4.000000, 4.000000, 4.000000, 4.000000, 4.000000, 4.000000, 4.000000, 4.000000, 4.000000, 4.000000
91.000000, 0.000000, 4187.692383, 4227.179199, 4332.307617, 4185.127930, 4190.769043, 4200.512695, 4192.307617, 4189.743652, 4203.076660, 4200.000000, 4189.743652, 4152.307617, 4151.281738, 4192.307617, 3146.000000, 8251.000000, 8024.000000, 0.000000, 0.000000, 0.000000, 21849.000000, 71.282051, 4.000000, 4.000000, 4.000000, 4.000000, 4.000000, 4.000000, 4.000000, 4.000000, 4.000000, 4.000000, 4.000000, 4.000000, 4.000000, 4.000000, 4.000000, 4.000000
92.000000, 0.000000, 4190.256348, 4210.769043, 4292.820313, 4182.051270, 4180.000000, 4201.538574, 4195.384277, 4184.615234, 4189.230469, 4200.512695, 4186.153809, 4154.871582, 4139.487305, 4186.666504, 3513.000000, 8251.000000, 8024.000000, 0.000000, 0.000000, 0.000000, 21849.000000, 78.974358, 4.000000, 4.000000, 4.000000, 4.000000, 4.000000, 4.000000, 4.000000, 4.000000, 4.000000, 4.000000, 4.000000, 4.000000, 4.000000, 4.000000, 4.000000, 4.000000
93.000000, 0.000000, 4189.743652, 4200.512695, 4247.179199, 4182.051270, 4176.922852, 4203.076660, 4197.436035, 4187.179199, 4173.846191, 4192.307617, 4191.281738, 4155.384277, 4142.563965, 4191.281738, 3526.000000, 8259.000000, 7949.000000, 0.000000, 0.000000, 0.000000, 21849.000000, 86.666664, 4.000000, 4.000000, 4.000000, 4.000000, 4.000000, 4.000000, 4.000000, 4.000000, 4.000000, 4.000000, 4.000000, 4.000000, 4.000000, 4.000000, 4.000000, 4.000000
94.000000, 0.000000, 4190.256348, 4200.000000, 4206.153809, 4182.051270, 4173.846191, 4199.487305, 4195.897461, 4185.641113, 4161.025391, 4185.127930, 4200.000000, 4149.743652, 4150.769043, 4190.256348, 2793.000000, 8259.000000, 7949.000000, 0.000000, 0.000000, 0.000000, 21849.000000, 94.871796, 4.000000, 4.000000, 4.000000, 4.000000, 4.000000, 4.000000, 4.000000, 4.000000, 4.000000, 4.000000, 4.000000, 4.000000, 4.000000, 4.000000, 4.000000, 4.000000
95.000000, 0.000000, 4184.102539, 4201.538574, 4174.358887, 4184.615234, 4172.307617, 4198.974121, 4197.948730, 4188.205078, 4151.794922, 4183.589844, 4203.589844, 4146.666504, 4143.589844, 4183.076660, 3146.000000, 8261.000000, 7948.000000, 0.000000, 0.000000, 0.000000, 21849.000000, 102.564102, 4.000000, 4.000000, 4.000000, 4.000000, 4.000000, 4.000000, 4.000000, 4.000000, 4.000000, 4.000000, 4.000000, 4.000000, 4.000000, 4.000000, 4.000000, 4.000000
96.000000, 0.000000, 4178.461426, 4194.871582, 4158.974121, 4184.615234, 4172.307617, 4201.025391, 4206.153809, 4194.871582, 4150.769043, 4183.076660, 4202.563965, 4150.256348, 4137.436035, 4182.563965, 3513.000000, 8261.000000, 7948.000000, 0.000000, 0.000000, 0.000000, 21849.000000, 110.769226, 4.000000, 4.000000, 4.000000, 4.000000, 4.000000, 4.000000, 4.000000, 4.000000, 4.000000, 4.000000, 4.000000, 4.000000, 4.000000, 4.000000, 4.000000, 4.000000
97.000000, 0.000000, 4177.436035, 4184.102539, 4163.076660, 4175.897461, 4169.230469, 4194.358887, 4201.538574, 4192.307617, 4152.820313, 4177.948730, 4188.717773, 4147.179199, 4139.487305, 4185.127930, 3526.000000, 8258.000000, 8056.000000, 0.000000, 0.000000, 0.000000, 21849.000000, 118.461533, 4.000000, 4.000000, 4.000000, 4.000000, 4.000000, 4.000000, 4.000000, 4.000000, 4.000000, 4.000000, 4.000000, 4.000000, 4.000000, 4.000000, 4.000000, 4.000000
98.000000, 0.000000, 4177.436035, 4178.974121, 4181.025391, 4169.743652, 4167.179199, 4191.281738, 4195.384277, 4186.666504, 4151.794922, 4168.717773, 4164.102539, 4139.487305, 4129.743652, 4183.589844, 2793.000000, 8258.000000, 8056.000000, 0.000000, 0.000000, 0.000000, 21849.000000, 126.666664, 4.000000, 4.000000, 4.000000, 4.000000, 4.000000, 4.000000, 4.000000, 4.000000, 4.000000, 4.000000, 4.000000, 4.000000, 4.000000, 4.000000, 4.000000, 4.000000
99.000000, 0.000000, 4180.512695, 4183.076660, 4216.410156, 4170.256348, 4169.743652, 4196.922852, 4196.410156, 4187.179199, 4154.871582, 4169.743652, 4151.281738, 4144.615234, 4124.615234, 4184.615234, 3146.000000, 8256.000000, 8115.000000, 0.000000, 0.000000, 0.000000, 21849.000000, 134.358978, 4.000000, 4.000000, 4.000000, 4.000000, 4.000000, 4.000000, 4.000000, 4.000000, 4.000000, 4.000000, 4.000000, 4.000000, 4.000000, 4.000000, 4.000000, 4.000000
100.000000, 0.000000, 4183.589844, 4191.794922, 4256.410156, 4171.281738, 4173.333008, 4198.461426, 4187.179199, 4187.179199, 4167.692383, 4182.563965, 4152.820313, 4155.384277, 4133.846191, 4192.307617, 3513.000000, 8256.000000, 8115.000000, 0.000000, 0.000000, 0.000000, 21849.000000, 142.051285, 4.000000, 4.000000, 4.000000, 4.000000, 4.000000, 4.000000, 4.000000, 4.000000, 4.000000, 4.000000, 4.000000, 4.000000, 4.000000, 4.000000, 4.000000, 4.000000
101.000000, 0.000000, 4186.153809, 4201.025391, 4284.102539, 4175.897461, 4172.820313, 4195.384277, 4182.051270, 4190.769043, 4181.025391, 4188.717773, 4152.820313, 4155.897461, 4140.000000, 4198.974121, 3526.000000, 8265.000000, 8199.000000, 0.000000, 0.000000, 0.000000, 21849.000000, 150.256409, 4.000000, 4.000000, 4.000000, 4.000000, 4.000000, 4.000000, 4.000000, 4.000000, 4.000000, 4.000000, 4.000000, 4.000000, 4.000000, 4.000000, 4.000000, 4.000000
102.000000, 0.000000, 4190.256348, 4205.127930, 4292.820313, 4182.563965, 4171.281738, 4197.948730, 4193.846191, 4197.436035, 4185.127930, 4186.666504, 4150.256348, 4153.333008, 4145.641113, 4198.974121, 2793.000000, 8265.000000, 8199.000000, 0.000000, 0.000000, 0.000000, 21849.000000, 157.948715, 4.000000, 4.000000, 4.000000, 4.000000, 4.000000, 4.000000, 4.000000, 4.000000, 4.000000, 4.000000, 4.000000, 4.000000, 4.000000, 4.000000, 4.000000, 4.000000
103.000000, 0.000000, 4192.820313, 4207.692383, 4288.717773, 4185.127930, 4176.410156, 4201.025391, 4190.769043, 4193.846191, 4187.692383, 4187.179199, 4151.794922, 4151.281738, 4152.820313, 4200.000000, 3146.000000, 8272.000000, 8212.000000, 0.000000, 0.000000, 0.000000, 21849.000000, 166.153839, 4.000000, 4.000000, 4.000000, 4.000000, 4.000000, 4.000000, 4.000000, 4.000000, 4.000000, 4.000000, 4.000000, 4.000000, 4.000000, 4.000000, 4.000000, 4.000000
104.000000, 0.000000, 4192.307617, 4209.743652, 4283.076660, 4192.820313, 4185.641113, 4198.974121, 4171.281738, 4186.666504, 4194.871582, 4190.769043, 4157.948730, 4152.307617, 4155.897461, 4204.102539, 3513.000000, 8272.000000, 8212.000000, 0.000000, 0.000000, 0.000000, 21849.000000, 173.846146, 4.000000, 4.000000, 4.000000, 4.000000, 4.000000, 4.000000, 4.000000, 4.000000, 4.000000, 4.000000, 4.000000, 4.000000, 4.000000, 4.000000, 4.000000, 4.000000
105.000000, 0.000000, 4187.692383, 4207.692383, 4280.512695, 4198.974121, 4186.153809, 4198.461426, 4163.076660, 4186.666504, 4192.307617, 4189.743652, 4163.076660, 4156.410156, 4155.384277, 4204.102539, 3526.000000, 8269.000000, 8234.000000, 0.000000, 0.000000, 0.000000, 21849.000000, 181.538452, 4.000000, 4.000000, 4.000000, 4.000000, 4.000000, 4.000000, 4.000000, 4.000000, 4.000000, 4.000000, 4.000000, 4.000000, 4.000000, 4.000000, 4.000000, 4.000000
106.000000, 0.000000, 4182.051270, 4204.102539, 4278.461426, 4192.820313, 4185.641113, 4208.717773, 4174.358887, 4190.256348, 4184.102539, 4185.641113, 4159.487305, 4154.871582, 4152.307617, 4199.487305, 2793.000000, 8269.000000, 8234.000000, 0.000000, 0.000000, 0.000000, 21849.000000, 189.743591, 4.000000, 4.000000, 4.000000, 4.000000, 4.000000, 4.000000, 4.000000, 4.000000, 4.000000, 4.000000, 4.000000, 4.000000, 4.000000, 4.000000, 4.000000, 4.000000
107.000000, 0.000000, 4178.974121, 4202.563965, 4276.922852, 4183.076660, 4185.641113, 4215.384277, 4188.205078, 4189.743652, 4187.692383, 4183.589844, 4152.820313, 4145.641113, 4145.641113, 4191.794922, 3146.000000, 8228.000000, 8262.000000, 0.000000, 0.000000, 0.000000, 21849.000000, 197.435898, 4.000000, 4.000000, 4.000000, 4.000000, 4.000000, 4.000000, 4.000000, 4.000000, 4.000000, 4.000000, 4.000000, 4.000000, 4.000000, 4.000000, 4.000000, 4.000000
108.000000, 0.000000, 4176.410156, 4204.615234, 4272.307617, 4177.436035, 4175.897461, 4206.666504, 4191.794922, 4188.205078, 4193.333008, 4186.153809, 4153.333008, 4138.974121, 4140.000000, 4185.641113, 3513.000000, 8228.000000, 8262.000000, 0.000000, 0.000000, 0.000000, 21849.000000, 205.641022, 4.000000, 4.000000, 4.000000, 4.000000, 4.000000, 4.000000, 4.000000, 4.000000, 4.000000, 4.000000, 4.000000, 4.000000, 4.000000, 4.000000, 4.000000, 4.000000
109.000000, 0.000000, 4177.436035, 4211.281738, 4266.666504, 4170.256348, 4165.127930, 4195.384277, 4188.205078, 4187.179199, 4187.179199, 4187.692383, 4161.025391, 4137.436035, 4134.358887, 4184.615234, 3526.000000, 8199.000000, 8266.000000, 0.000000, 0.000000, 0.000000, 21849.000000, 213.333328, 4.000000, 4.000000, 4.000000, 4.000000, 4.000000, 4.000000, 4.000000, 4.000000, 4.000000, 4.000000, 4.000000, 4.000000, 4.000000, 4.000000, 4.000000, 4.000000
110.000000, 0.000000, 4183.076660, 4220.512695, 4265.641113, 4167.179199, 4167.179199, 4191.794922, 4185.127930, 4186.153809, 4182.051270, 4185.127930, 4171.281738, 4137.436035, 4124.615234, 4187.179199, 2793.000000, 8199.000000, 8266.000000, 0.000000, 0.000000, 0.000000, 21849.000000, 221.538452, 4.000000, 4.000000, 4.000000, 4.000000, 4.000000, 4.000000, 4.000000, 4.000000, 4.000000, 4.000000, 4.000000, 4.000000, 4.000000, 4.000000, 4.000000, 4.000000
111.000000, 0.000000, 4188.717773, 4229.743652, 4265.641113, 4174.871582, 4172.307617, 4185.127930, 4186.153809, 4186.666504, 4184.615234, 4182.563965, 4183.589844, 4137.948730, 4113.333008, 4194.871582, 3146.000000, 8151.000000, 8287.000000, 0.000000, 0.000000, 0.000000, 21849.000000, 229.230759, 4.000000, 4.000000, 4.000000, 4.000000, 4.000000, 4.000000, 4.000000, 4.000000, 4.000000, 4.000000, 4.000000, 4.000000, 4.000000, 4.000000, 4.000000, 4.000000
112.000000, 0.000000, 4190.256348, 4234.358887, 4259.487305, 4183.076660, 4172.307617, 4181.538574, 4188.205078, 4186.666504, 4181.538574, 4184.102539, 4197.948730, 4140.000000, 4099.487305, 4197.948730, 3513.000000, 8151.000000, 8287.000000, 0.000000, 0.000000, 0.000000, 21849.000000, 237.435898, 4.000000, 4.000000, 4.000000, 4.000000, 4.000000, 4.000000, 4.000000, 4.000000, 4.000000, 4.000000, 4.000000, 4.000000, 4.000000, 4.000000, 4.000000, 4.000000
113.000000, 0.000000, 4188.205078, 4229.743652, 4247.692383, 4184.102539, 4172.307617, 4190.256348, 4191.794922, 4185.641113, 4175.384277, 4185.127930, 4203.589844, 4147.179199, 4077.948730, 4191.794922, 3526.000000, 8127.000000, 8292.000000, 0.000000, 0.000000, 0.000000, 21849.000000, 245.128204, 4.000000, 4.000000, 4.000000, 4.000000, 4.000000, 4.000000, 4.000000, 4.000000, 4.000000, 4.000000, 4.000000, 4.000000, 4.000000, 4.000000, 4.000000, 4.000000
114.000000, 0.000000, 4189.743652, 4221.538574, 4231.281738, 4183.076660, 4175.897461, 4199.487305, 4195.897461, 4185.127930, 4171.794922, 4182.051270, 4200.000000, 4151.281738, 4053.333252, 4188.205078, 2793.000000, 8127.000000, 8292.000000, 0.000000, 0.000000, 0.000000, 21849.000000, 253.333328, 4.000000, 4.000000, 4.000000, 4.000000, 4.000000, 4.000000, 4.000000, 4.000000, 4.000000, 4.000000, 4.000000, 4.000000, 4.000000, 4.000000, 4.000000, 4.000000
