title:neutral37, recorded:23.05.18 21.31.00, timestamp started:2018-05-23T14:18:30.888274+02:00            , sampling:128, subject:Noé, labels:COUNTER INTERPOLATED AF3 F7 F3 FC5 T7 P7 O1 O2 P8 T8 FC6 F4 F8 AF4 RAW_CQ GYROX GYROY MARKER MARKER_HARDWARE SYNC TIME_STAMP_s TIME_STAMP_ms CQ_AF3 CQ_F7 CQ_F3 CQ_FC5 CQ_T7 CQ_P7 CQ_O1 CQ_O2 CQ_P8 CQ_T8 CQ_FC6 CQ_F4 CQ_F8 CQ_AF4 CQ_CMS CQ_DRL, chan:40, samples:2607, units:emotiv
1.000000, 0.000000, 4212.820313, 4156.410156, 4201.025391, 4204.102539, 4182.563965, 4204.102539, 4206.153809, 4192.820313, 4194.871582, 4264.615234, 4202.051270, 4200.000000, 4247.692383, 4221.538574, 2286.000000, 8329.000000, 8141.000000, 0.000000, 0.000000, 0.000000, 25950.000000, 286.666656, 4.000000, 4.000000, 4.000000, 4.000000, 4.000000, 4.000000, 4.000000, 4.000000, 4.000000, 4.000000, 4.000000, 4.000000, 4.000000, 4.000000, 4.000000, 4.000000
2.000000, 0.000000, 4205.641113, 4152.820313, 4196.410156, 4195.897461, 4185.641113, 4203.076660, 4203.076660, 4192.307617, 4184.102539, 4261.025391, 4201.025391, 4195.384277, 4246.153809, 4215.384277, 3120.000000, 8329.000000, 8141.000000, 0.000000, 0.000000, 0.000000, 25950.000000, 294.358978, 4.000000, 4.000000, 4.000000, 4.000000, 4.000000, 4.000000, 4.000000, 4.000000, 4.000000, 4.000000, 4.000000, 4.000000, 4.000000, 4.000000, 4.000000, 4.000000
3.000000, 0.000000, 4207.692383, 4156.922852, 4194.871582, 4198.974121, 4184.615234, 4203.589844, 4197.948730, 4195.897461, 4190.256348, 4266.666504, 4202.563965, 4197.436035, 4246.153809, 4215.897461, 3553.000000, 8318.000000, 8174.000000, 0.000000, 0.000000, 0.000000, 25950.000000, 302.564087, 4.000000, 4.000000, 4.000000, 4.000000, 4.000000, 4.000000, 4.000000, 4.000000, 4.000000, 4.000000, 4.000000, 4.000000, 4.000000, 4.000000, 4.000000, 4.000000
4.000000, 0.000000, 4202.051270, 4145.641113, 4188.717773, 4194.871582, 4173.846191, 4208.717773, 4201.538574, 4190.256348, 4186.153809, 4269.230469, 4192.820313, 4188.205078, 4230.769043, 4203.589844, 3530.000000, 8318.000000, 8174.000000, 0.000000, 0.000000, 0.000000, 25950.000000, 310.256409, 4.000000, 4.000000, 4.000000, 4.000000, 4.000000, 4.000000, 4.000000, 4.000000, 4.000000, 4.000000, 4.000000, 4.000000, 4.000000, 4.000000, 4.000000, 4.000000
5.000000, 0.000000, 4188.717773, 4126.153809, 4184.102539, 4190.256348, 4176.410156, 4217.436035, 4209.230469, 4182.051270, 4167.692383, 4252.820313, 4175.897461, 4173.333008, 4210.769043, 4184.615234, 3573.000000, 8313.000000, 8208.000000, 0.000000, 0.000000, 0.000000, 25950.000000, 318.461517, 4.000000, 4.000000, 4.000000, 4.000000, 4.000000, 4.000000, 4.000000, 4.000000, 4.000000, 4.000000, 4.000000, 4.000000, 4.000000, 4.000000, 4.000000, 4.000000
6.000000, 0.000000, 4181.538574, 4121.025391, 4182.563965, 4188.717773, 4182.563965, 4217.948730, 4216.410156, 4196.922852, 4171.794922, 4245.641113, 4172.307617, 4172.820313, 4207.179199, 4181.025391, 3498.000000, 8313.000000, 8208.000000, 0.000000, 0.000000, 0.000000, 25950.000000, 326.153839, 4.000000, 4.000000, 4.000000, 4.000000, 4.000000, 4.000000, 4.000000, 4.000000, 4.000000, 4.000000, 4.000000, 4.000000, 4.000000, 4.000000, 4.000000, 4.000000
7.000000, 0.000000, 4185.127930, 4122.563965, 4177.948730, 4183.076660, 4172.820313, 4200.512695, 4209.230469, 4209.230469, 4188.205078, 4266.153809, 4183.589844, 4183.076660, 4214.358887, 4184.615234, 3518.000000, 8313.000000, 8271.000000, 0.000000, 0.000000, 0.000000, 25950.000000, 333.846161, 4.000000, 4.000000, 4.000000, 4.000000, 4.000000, 4.000000, 4.000000, 4.000000, 4.000000, 4.000000, 4.000000, 4.000000, 4.000000, 4.000000, 4.000000, 4.000000
8.000000, 0.000000, 4188.205078, 4121.025391, 4177.436035, 4186.153809, 4164.615234, 4185.127930, 4198.461426, 4194.871582, 4185.641113, 4276.922852, 4191.794922, 4190.256348, 4220.512695, 4190.769043, 3360.000000, 8313.000000, 8271.000000, 0.000000, 0.000000, 0.000000, 25950.000000, 342.051270, 4.000000, 4.000000, 4.000000, 4.000000, 4.000000, 4.000000, 4.000000, 4.000000, 4.000000, 4.000000, 4.000000, 4.000000, 4.000000, 4.000000, 4.000000, 4.000000
9.000000, 0.000000, 4187.692383, 4128.205078, 4181.538574, 4188.205078, 4169.743652, 4186.666504, 4197.436035, 4184.102539, 4172.307617, 4267.179199, 4190.769043, 4187.692383, 4225.641113, 4198.461426, 3538.000000, 8314.000000, 8278.000000, 0.000000, 0.000000, 0.000000, 25950.000000, 350.256409, 4.000000, 4.000000, 4.000000, 4.000000, 4.000000, 4.000000, 4.000000, 4.000000, 4.000000, 4.000000, 4.000000, 4.000000, 4.000000, 4.000000, 4.000000, 4.000000
10.000000, 0.000000, 4191.281738, 4138.974121, 4185.127930, 4190.256348, 4175.897461, 4191.794922, 4188.717773, 4184.615234, 4166.153809, 4266.666504, 4190.256348, 4185.641113, 4229.230469, 4199.487305, 3275.000000, 8314.000000, 8278.000000, 0.000000, 0.000000, 0.000000, 25950.000000, 357.948700, 4.000000, 4.000000, 4.000000, 4.000000, 4.000000, 4.000000, 4.000000, 4.000000, 4.000000, 4.000000, 4.000000, 4.000000, 4.000000, 4.000000, 4.000000, 4.000000
11.000000, 0.000000, 4192.820313, 4137.948730, 4191.281738, 4190.769043, 4178.974121, 4188.205078, 4178.461426, 4183.076660, 4167.692383, 4274.358887, 4197.436035, 4191.794922, 4226.666504, 4199.487305, 3500.000000, 8305.000000, 8264.000000, 0.000000, 0.000000, 0.000000, 25950.000000, 366.153839, 4.000000, 4.000000, 4.000000, 4.000000, 4.000000, 4.000000, 4.000000, 4.000000, 4.000000, 4.000000, 4.000000, 4.000000, 4.000000, 4.000000, 4.000000, 4.000000
12.000000, 0.000000, 4191.281738, 4136.410156, 4198.461426, 4187.179199, 4179.487305, 4185.641113, 4188.205078, 4181.538574, 4171.281738, 4271.794922, 4203.589844, 4200.512695, 4223.076660, 4202.563965, 3519.000000, 8305.000000, 8264.000000, 0.000000, 0.000000, 0.000000, 25950.000000, 373.846130, 4.000000, 4.000000, 4.000000, 4.000000, 4.000000, 4.000000, 4.000000, 4.000000, 4.000000, 4.000000, 4.000000, 4.000000, 4.000000, 4.000000, 4.000000, 4.000000
13.000000, 0.000000, 4185.641113, 4137.948730, 4192.307617, 4190.769043, 4169.743652, 4188.205078, 4202.051270, 4191.794922, 4172.820313, 4263.589844, 4197.948730, 4203.076660, 4219.487305, 4195.897461, 3476.000000, 8295.000000, 8238.000000, 0.000000, 0.000000, 0.000000, 25950.000000, 382.051270, 4.000000, 4.000000, 4.000000, 4.000000, 4.000000, 4.000000, 4.000000, 4.000000, 4.000000, 4.000000, 4.000000, 4.000000, 4.000000, 4.000000, 4.000000, 4.000000
14.000000, 0.000000, 4178.461426, 4133.333008, 4182.051270, 4189.743652, 4164.615234, 4188.717773, 4205.641113, 4201.025391, 4171.794922, 4261.538574, 4189.743652, 4196.410156, 4211.794922, 4184.102539, 3275.000000, 8295.000000, 8238.000000, 0.000000, 0.000000, 0.000000, 25950.000000, 389.743591, 4.000000, 4.000000, 4.000000, 4.000000, 4.000000, 4.000000, 4.000000, 4.000000, 4.000000, 4.000000, 4.000000, 4.000000, 4.000000, 4.000000, 4.000000, 4.000000
15.000000, 0.000000, 4176.410156, 4129.743652, 4182.563965, 4184.102539, 4169.230469, 4187.179199, 4197.436035, 4188.717773, 4171.794922, 4263.076660, 4186.666504, 4192.307617, 4209.230469, 4183.589844, 3500.000000, 8287.000000, 8199.000000, 0.000000, 0.000000, 0.000000, 25950.000000, 397.948700, 4.000000, 4.000000, 4.000000, 4.000000, 4.000000, 4.000000, 4.000000, 4.000000, 4.000000, 4.000000, 4.000000, 4.000000, 4.000000, 4.000000, 4.000000, 4.000000
16.000000, 0.000000, 4180.512695, 4134.871582, 4188.717773, 4186.153809, 4173.846191, 4185.641113, 4193.333008, 4186.153809, 4173.333008, 4261.025391, 4187.692383, 4195.897461, 4211.281738, 4189.230469, 0.000000, 8287.000000, 8199.000000, 0.000000, 0.000000, 0.000000, 25950.000000, 405.641022, 4.000000, 4.000000, 4.000000, 4.000000, 4.000000, 4.000000, 4.000000, 4.000000, 4.000000, 4.000000, 4.000000, 4.000000, 4.000000, 4.000000, 4.000000, 4.000000
17.000000, 0.000000, 4185.127930, 4137.948730, 4194.871582, 4185.127930, 4171.794922, 4190.256348, 4201.025391, 4201.538574, 4172.307617, 4258.974121, 4194.358887, 4203.589844, 4211.794922, 4195.897461, 0.000000, 8254.000000, 8132.000000, 0.000000, 0.000000, 0.000000, 25950.000000, 413.333313, 4.000000, 4.000000, 4.000000, 4.000000, 4.000000, 4.000000, 4.000000, 4.000000, 4.000000, 4.000000, 4.000000, 4.000000, 4.000000, 4.000000, 4.000000, 4.000000
18.000000, 0.000000, 4186.153809, 4136.922852, 4200.512695, 4186.666504, 4168.205078, 4197.436035, 4202.563965, 4202.563965, 4175.384277, 4262.563965, 4201.025391, 4212.820313, 4215.384277, 4201.538574, 0.000000, 8254.000000, 8132.000000, 0.000000, 0.000000, 0.000000, 25950.000000, 421.538452, 4.000000, 4.000000, 4.000000, 4.000000, 4.000000, 4.000000, 4.000000, 4.000000, 4.000000, 4.000000, 4.000000, 4.000000, 4.000000, 4.000000, 4.000000, 4.000000
19.000000, 0.000000, 4187.179199, 4138.974121, 4200.512695, 4184.102539, 4172.820313, 4203.589844, 4207.179199, 4197.436035, 4184.102539, 4267.179199, 4204.615234, 4215.897461, 4213.846191, 4199.487305, 0.000000, 8239.000000, 8107.000000, 0.000000, 0.000000, 0.000000, 25950.000000, 429.230774, 4.000000, 4.000000, 4.000000, 4.000000, 4.000000, 4.000000, 4.000000, 4.000000, 4.000000, 4.000000, 4.000000, 4.000000, 4.000000, 4.000000, 4.000000, 4.000000
20.000000, 0.000000, 4187.179199, 4138.974121, 4199.487305, 4178.461426, 4175.384277, 4205.127930, 4217.436035, 4202.051270, 4189.230469, 4266.153809, 4200.512695, 4210.256348, 4204.615234, 4192.820313, 0.000000, 8239.000000, 8107.000000, 0.000000, 0.000000, 0.000000, 25950.000000, 437.435883, 4.000000, 4.000000, 4.000000, 4.000000, 4.000000, 4.000000, 4.000000, 4.000000, 4.000000, 4.000000, 4.000000, 4.000000, 4.000000, 4.000000, 4.000000, 4.000000
21.000000, 0.000000, 4186.153809, 4136.922852, 4200.512695, 4180.512695, 4168.205078, 4201.538574, 4209.743652, 4201.538574, 4185.127930, 4258.974121, 4196.922852, 4207.179199, 4198.461426, 4194.358887, 0.000000, 8186.000000, 8099.000000, 0.000000, 0.000000, 0.000000, 25950.000000, 445.641022, 4.000000, 4.000000, 4.000000, 4.000000, 4.000000, 4.000000, 4.000000, 4.000000, 4.000000, 4.000000, 4.000000, 4.000000, 4.000000, 4.000000, 4.000000, 4.000000
22.000000, 0.000000, 4188.717773, 4140.000000, 4204.102539, 4182.563965, 4166.666504, 4198.974121, 4198.461426, 4203.076660, 4181.025391, 4254.871582, 4198.974121, 4211.281738, 4199.487305, 4200.512695, 0.000000, 8186.000000, 8099.000000, 0.000000, 0.000000, 0.000000, 25950.000000, 453.333313, 4.000000, 4.000000, 4.000000, 4.000000, 4.000000, 4.000000, 4.000000, 4.000000, 4.000000, 4.000000, 4.000000, 4.000000, 4.000000, 4.000000, 4.000000, 4.000000
23.000000, 0.000000, 4190.256348, 4137.948730, 4207.692383, 4187.179199, 4176.410156, 4198.461426, 4203.589844, 4198.974121, 4172.307617, 4250.769043, 4197.948730, 4209.743652, 4193.333008, 4195.384277, 0.000000, 8163.000000, 8106.000000, 0.000000, 0.000000, 0.000000, 25950.000000, 461.025635, 4.000000, 4.000000, 4.000000, 4.000000, 4.000000, 4.000000, 4.000000, 4.000000, 4.000000, 4.000000, 4.000000, 4.000000, 4.000000, 4.000000, 4.000000, 4.000000
24.000000, 0.000000, 4184.615234, 4127.179199, 4198.461426, 4182.563965, 4175.897461, 4195.384277, 4196.922852, 4178.461426, 4156.410156, 4240.512695, 4188.205078, 4199.487305, 4181.025391, 4185.127930, 0.000000, 8163.000000, 8106.000000, 0.000000, 0.000000, 0.000000, 25950.000000, 469.230743, 4.000000, 4.000000, 4.000000, 4.000000, 4.000000, 4.000000, 4.000000, 4.000000, 4.000000, 4.000000, 4.000000, 4.000000, 4.000000, 4.000000, 4.000000, 4.000000
25.000000, 0.000000, 4180.000000, 4122.051270, 4190.769043, 4177.436035, 4169.743652, 4193.846191, 4181.538574, 4176.410156, 4154.871582, 4235.384277, 4184.615234, 4197.948730, 4176.410156, 4184.102539, 0.000000, 8140.000000, 8117.000000, 0.000000, 0.000000, 0.000000, 25950.000000, 476.923065, 4.000000, 4.000000, 4.000000, 4.000000, 4.000000, 4.000000, 4.000000, 4.000000, 4.000000, 4.000000, 4.000000, 4.000000, 4.000000, 4.000000, 4.000000, 4.000000
26.000000, 0.000000, 4182.051270, 4122.563965, 4195.897461, 4186.153809, 4176.922852, 4197.948730, 4188.717773, 4190.256348, 4167.179199, 4236.410156, 4189.743652, 4203.076660, 4180.000000, 4189.230469, 0.000000, 8140.000000, 8117.000000, 0.000000, 0.000000, 0.000000, 25950.000000, 485.128204, 4.000000, 4.000000, 4.000000, 4.000000, 4.000000, 4.000000, 4.000000, 4.000000, 4.000000, 4.000000, 4.000000, 4.000000, 4.000000, 4.000000, 4.000000, 4.000000
27.000000, 0.000000, 4187.692383, 4124.615234, 4202.051270, 4187.179199, 4187.179199, 4200.512695, 4203.589844, 4184.615234, 4170.769043, 4241.538574, 4194.358887, 4201.538574, 4186.153809, 4194.871582, 0.000000, 8090.000000, 8143.000000, 0.000000, 0.000000, 0.000000, 25950.000000, 492.820496, 4.000000, 4.000000, 4.000000, 4.000000, 4.000000, 4.000000, 4.000000, 4.000000, 4.000000, 4.000000, 4.000000, 4.000000, 4.000000, 4.000000, 4.000000, 4.000000
28.000000, 0.000000, 4189.743652, 4123.589844, 4202.051270, 4185.641113, 4183.589844, 4199.487305, 4196.410156, 4175.384277, 4166.666504, 4242.563965, 4194.871582, 4201.025391, 4185.641113, 4197.948730, 0.000000, 8090.000000, 8143.000000, 0.000000, 0.000000, 0.000000, 25950.000000, 501.025635, 4.000000, 4.000000, 4.000000, 4.000000, 4.000000, 4.000000, 4.000000, 4.000000, 4.000000, 4.000000, 4.000000, 4.000000, 4.000000, 4.000000, 4.000000, 4.000000
29.000000, 0.000000, 4185.127930, 4117.436035, 4196.922852, 4184.615234, 4174.871582, 4197.436035, 4187.692383, 4180.000000, 4168.717773, 4240.000000, 4195.384277, 4204.102539, 4184.102539, 4198.974121, 0.000000, 8064.000000, 8163.000000, 0.000000, 0.000000, 0.000000, 25950.000000, 508.717926, 4.000000, 4.000000, 4.000000, 4.000000, 4.000000, 4.000000, 4.000000, 4.000000, 4.000000, 4.000000, 4.000000, 4.000000, 4.000000, 4.000000, 4.000000, 4.000000
30.000000, 0.000000, 4187.179199, 4113.333008, 4190.769043, 4184.615234, 4172.307617, 4201.538574, 4200.512695, 4186.666504, 4170.769043, 4240.000000, 4198.974121, 4205.641113, 4191.281738, 4202.051270, 0.000000, 8064.000000, 8163.000000, 0.000000, 0.000000, 0.000000, 25950.000000, 516.923035, 4.000000, 4.000000, 4.000000, 4.000000, 4.000000, 4.000000, 4.000000, 4.000000, 4.000000, 4.000000, 4.000000, 4.000000, 4.000000, 4.000000, 4.000000, 4.000000
31.000000, 0.000000, 4185.641113, 4106.153809, 4191.281738, 4186.153809, 4172.820313, 4207.692383, 4208.717773, 4191.794922, 4168.717773, 4237.948730, 4193.846191, 4203.076660, 4183.076660, 4194.871582, 0.000000, 8021.000000, 8190.000000, 0.000000, 0.000000, 0.000000, 25950.000000, 524.615356, 4.000000, 4.000000, 4.000000, 4.000000, 4.000000, 4.000000, 4.000000, 4.000000, 4.000000, 4.000000, 4.000000, 4.000000, 4.000000, 4.000000, 4.000000, 4.000000
32.000000, 0.000000, 4173.333008, 4098.461426, 4195.897461, 4177.948730, 4177.436035, 4210.256348, 4201.025391, 4193.333008, 4170.256348, 4232.307617, 4183.589844, 4198.461426, 4165.127930, 4179.487305, 0.000000, 8021.000000, 8190.000000, 0.000000, 0.000000, 0.000000, 25950.000000, 532.820496, 4.000000, 4.000000, 4.000000, 4.000000, 4.000000, 4.000000, 4.000000, 4.000000, 4.000000, 4.000000, 4.000000, 4.000000, 4.000000, 4.000000, 4.000000, 4.000000
33.000000, 0.000000, 4173.846191, 4102.051270, 4191.281738, 4179.487305, 4181.538574, 4201.538574, 4195.384277, 4191.281738, 4169.743652, 4227.692383, 4184.615234, 4198.974121, 4172.307617, 4182.051270, 0.000000, 8001.000000, 8210.000000, 0.000000, 0.000000, 0.000000, 25950.000000, 540.512817, 4.000000, 4.000000, 4.000000, 4.000000, 4.000000, 4.000000, 4.000000, 4.000000, 4.000000, 4.000000, 4.000000, 4.000000, 4.000000, 4.000000, 4.000000, 4.000000
34.000000, 0.000000, 4179.487305, 4108.205078, 4186.666504, 4183.589844, 4183.076660, 4197.948730, 4204.102539, 4197.436035, 4172.820313, 4230.256348, 4190.256348, 4200.512695, 4187.692383, 4194.358887, 0.000000, 8001.000000, 8210.000000, 0.000000, 0.000000, 0.000000, 25950.000000, 548.205139, 4.000000, 4.000000, 4.000000, 4.000000, 4.000000, 4.000000, 4.000000, 4.000000, 4.000000, 4.000000, 4.000000, 4.000000, 4.000000, 4.000000, 4.000000, 4.000000
35.000000, 0.000000, 4178.461426, 4112.820313, 4189.230469, 4181.538574, 4185.641113, 4209.743652, 4209.230469, 4206.153809, 4183.076660, 4237.948730, 4194.358887, 4200.000000, 4190.769043, 4196.922852, 0.000000, 7986.000000, 8232.000000, 0.000000, 0.000000, 0.000000, 25950.000000, 556.410217, 4.000000, 4.000000, 4.000000, 4.000000, 4.000000, 4.000000, 4.000000, 4.000000, 4.000000, 4.000000, 4.000000, 4.000000, 4.000000, 4.000000, 4.000000, 4.000000
36.000000, 0.000000, 4181.025391, 4121.538574, 4188.717773, 4187.692383, 4187.692383, 4214.871582, 4202.051270, 4204.102539, 4187.179199, 4244.615234, 4202.563965, 4203.589844, 4202.051270, 4198.461426, 0.000000, 7986.000000, 8232.000000, 0.000000, 0.000000, 0.000000, 25950.000000, 564.102539, 4.000000, 4.000000, 4.000000, 4.000000, 4.000000, 4.000000, 4.000000, 4.000000, 4.000000, 4.000000, 4.000000, 4.000000, 4.000000, 4.000000, 4.000000, 4.000000
37.000000, 0.000000, 4181.538574, 4122.051270, 4185.127930, 4186.666504, 4186.666504, 4204.102539, 4195.897461, 4193.333008, 4182.051270, 4246.666504, 4209.743652, 4208.205078, 4218.974121, 4202.051270, 0.000000, 7984.000000, 8231.000000, 0.000000, 0.000000, 0.000000, 25950.000000, 572.307678, 4.000000, 4.000000, 4.000000, 4.000000, 4.000000, 4.000000, 4.000000, 4.000000, 4.000000, 4.000000, 4.000000, 4.000000, 4.000000, 4.000000, 4.000000, 4.000000
38.000000, 0.000000, 4174.871582, 4110.256348, 4186.153809, 4183.589844, 4186.666504, 4198.974121, 4197.948730, 4190.256348, 4183.589844, 4244.615234, 4209.230469, 4207.692383, 4217.948730, 4200.000000, 0.000000, 7984.000000, 8231.000000, 0.000000, 0.000000, 0.000000, 25950.000000, 580.512817, 4.000000, 4.000000, 4.000000, 4.000000, 4.000000, 4.000000, 4.000000, 4.000000, 4.000000, 4.000000, 4.000000, 4.000000, 4.000000, 4.000000, 4.000000, 4.000000
39.000000, 0.000000, 4172.820313, 4106.666504, 4189.230469, 4181.538574, 4183.589844, 4201.538574, 4201.025391, 4191.794922, 4181.025391, 4240.512695, 4206.153809, 4203.589844, 4213.333008, 4197.948730, 0.000000, 7979.000000, 8232.000000, 0.000000, 0.000000, 0.000000, 25950.000000, 588.205139, 4.000000, 4.000000, 4.000000, 4.000000, 4.000000, 4.000000, 4.000000, 4.000000, 4.000000, 4.000000, 4.000000, 4.000000, 4.000000, 4.000000, 4.000000, 4.000000
40.000000, 0.000000, 4172.307617, 4107.692383, 4186.153809, 4174.358887, 4176.410156, 4197.436035, 4193.333008, 4181.538574, 4170.769043, 4234.358887, 4202.563965, 4200.000000, 4212.307617, 4195.384277, 0.000000, 7979.000000, 8232.000000, 0.000000, 0.000000, 0.000000, 25950.000000, 596.410217, 4.000000, 4.000000, 4.000000, 4.000000, 4.000000, 4.000000, 4.000000, 4.000000, 4.000000, 4.000000, 4.000000, 4.000000, 4.000000, 4.000000, 4.000000, 4.000000
41.000000, 0.000000, 4171.281738, 4108.205078, 4186.666504, 4178.461426, 4180.000000, 4196.410156, 4191.281738, 4187.692383, 4176.410156, 4235.897461, 4204.615234, 4207.692383, 4212.307617, 4194.871582, 0.000000, 7987.000000, 8226.000000, 0.000000, 0.000000, 0.000000, 25950.000000, 604.102539, 4.000000, 4.000000, 4.000000, 4.000000, 4.000000, 4.000000, 4.000000, 4.000000, 4.000000, 4.000000, 4.000000, 4.000000, 4.000000, 4.000000, 4.000000, 4.000000
42.000000, 0.000000, 4181.538574, 4118.461426, 4196.410156, 4186.666504, 4187.179199, 4202.563965, 4200.512695, 4214.358887, 4191.281738, 4247.692383, 4215.897461, 4221.025391, 4223.076660, 4207.692383, 0.000000, 7987.000000, 8226.000000, 0.000000, 0.000000, 0.000000, 25950.000000, 612.307678, 4.000000, 4.000000, 4.000000, 4.000000, 4.000000, 4.000000, 4.000000, 4.000000, 4.000000, 4.000000, 4.000000, 4.000000, 4.000000, 4.000000, 4.000000, 4.000000
43.000000, 0.000000, 4189.230469, 4127.179199, 4205.127930, 4190.256348, 4185.127930, 4204.102539, 4202.563965, 4212.820313, 4189.743652, 4258.461426, 4224.615234, 4225.127930, 4233.846191, 4218.974121, 0.000000, 7995.000000, 8224.000000, 0.000000, 0.000000, 0.000000, 25950.000000, 620.000000, 4.000000, 4.000000, 4.000000, 4.000000, 4.000000, 4.000000, 4.000000, 4.000000, 4.000000, 4.000000, 4.000000, 4.000000, 4.000000, 4.000000, 4.000000, 4.000000
44.000000, 0.000000, 4184.615234, 4127.179199, 4203.589844, 4189.743652, 4190.256348, 4207.692383, 4197.436035, 4189.743652, 4181.025391, 4260.512695, 4228.205078, 4221.025391, 4233.333008, 4215.897461, 0.000000, 7995.000000, 8224.000000, 0.000000, 0.000000, 0.000000, 25950.000000, 628.205139, 4.000000, 4.000000, 4.000000, 4.000000, 4.000000, 4.000000, 4.000000, 4.000000, 4.000000, 4.000000, 4.000000, 4.000000, 4.000000, 4.000000, 4.000000, 4.000000
45.000000, 0.000000, 4184.615234, 4129.230469, 4200.512695, 4189.230469, 4203.076660, 4213.846191, 4200.512695, 4202.051270, 4187.179199, 4257.948730, 4231.281738, 4220.512695, 4233.846191, 4215.384277, 0.000000, 8016.000000, 8200.000000, 0.000000, 0.000000, 0.000000, 25950.000000, 635.897400, 4.000000, 4.000000, 4.000000, 4.000000, 4.000000, 4.000000, 4.000000, 4.000000, 4.000000, 4.000000, 4.000000, 4.000000, 4.000000, 4.000000, 4.000000, 4.000000
46.000000, 0.000000, 4188.205078, 4128.205078, 4201.025391, 4194.358887, 4200.512695, 4206.153809, 4206.666504, 4220.512695, 4191.794922, 4255.897461, 4226.666504, 4223.076660, 4234.871582, 4215.384277, 0.000000, 8016.000000, 8200.000000, 0.000000, 0.000000, 0.000000, 25950.000000, 644.102539, 4.000000, 4.000000, 4.000000, 4.000000, 4.000000, 4.000000, 4.000000, 4.000000, 4.000000, 4.000000, 4.000000, 4.000000, 4.000000, 4.000000, 4.000000, 4.000000
47.000000, 0.000000, 4178.974121, 4122.563965, 4196.922852, 4190.256348, 4186.666504, 4188.205078, 4202.051270, 4208.205078, 4181.538574, 4249.743652, 4217.948730, 4218.974121, 4228.717773, 4205.641113, 0.000000, 8030.000000, 8185.000000, 0.000000, 0.000000, 0.000000, 25950.000000, 652.307678, 4.000000, 4.000000, 4.000000, 4.000000, 4.000000, 4.000000, 4.000000, 4.000000, 4.000000, 4.000000, 4.000000, 4.000000, 4.000000, 4.000000, 4.000000, 4.000000
48.000000, 0.000000, 4172.307617, 4125.641113, 4195.897461, 4189.230469, 4184.102539, 4187.179199, 4198.461426, 4204.102539, 4175.897461, 4243.589844, 4213.846191, 4214.871582, 4223.589844, 4204.102539, 0.000000, 8030.000000, 8185.000000, 0.000000, 0.000000, 0.000000, 25950.000000, 660.000000, 4.000000, 4.000000, 4.000000, 4.000000, 4.000000, 4.000000, 4.000000, 4.000000, 4.000000, 4.000000, 4.000000, 4.000000, 4.000000, 4.000000, 4.000000, 4.000000
49.000000, 0.000000, 4179.487305, 4134.358887, 4201.538574, 4196.410156, 4189.743652, 4200.000000, 4196.410156, 4217.436035, 4183.589844, 4248.205078, 4217.948730, 4218.974121, 4229.230469, 4212.820313, 0.000000, 8042.000000, 8179.000000, 0.000000, 0.000000, 0.000000, 25950.000000, 668.205139, 4.000000, 4.000000, 4.000000, 4.000000, 4.000000, 4.000000, 4.000000, 4.000000, 4.000000, 4.000000, 4.000000, 4.000000, 4.000000, 4.000000, 4.000000, 4.000000
50.000000, 0.000000, 4180.512695, 4133.846191, 4196.410156, 4188.205078, 4193.333008, 4203.076660, 4194.358887, 4220.512695, 4187.692383, 4253.846191, 4220.512695, 4216.410156, 4234.871582, 4209.743652, 0.000000, 8042.000000, 8179.000000, 0.000000, 0.000000, 0.000000, 25950.000000, 675.897400, 4.000000, 4.000000, 4.000000, 4.000000, 4.000000, 4.000000, 4.000000, 4.000000, 4.000000, 4.000000, 4.000000, 4.000000, 4.000000, 4.000000, 4.000000, 4.000000
51.000000, 0.000000, 4174.871582, 4125.641113, 4186.666504, 4182.051270, 4188.717773, 4197.948730, 4200.000000, 4210.769043, 4183.589844, 4247.179199, 4216.410156, 4208.205078, 4228.205078, 4198.974121, 0.000000, 8070.000000, 8162.000000, 0.000000, 0.000000, 0.000000, 25950.000000, 684.102539, 4.000000, 4.000000, 4.000000, 4.000000, 4.000000, 4.000000, 4.000000, 4.000000, 4.000000, 4.000000, 4.000000, 4.000000, 4.000000, 4.000000, 4.000000, 4.000000
52.000000, 0.000000, 4174.871582, 4125.641113, 4188.205078, 4186.153809, 4182.563965, 4199.487305, 4206.153809, 4211.281738, 4183.589844, 4246.666504, 4214.358887, 4206.666504, 4225.641113, 4200.000000, 0.000000, 8070.000000, 8162.000000, 0.000000, 0.000000, 0.000000, 25950.000000, 691.794861, 4.000000, 4.000000, 4.000000, 4.000000, 4.000000, 4.000000, 4.000000, 4.000000, 4.000000, 4.000000, 4.000000, 4.000000, 4.000000, 4.000000, 4.000000, 4.000000
53.000000, 0.000000, 4175.897461, 4128.205078, 4193.333008, 4185.641113, 4182.563965, 4201.538574, 4205.127930, 4218.974121, 4188.205078, 4248.717773, 4212.820313, 4206.153809, 4229.230469, 4202.563965, 0.000000, 8087.000000, 8147.000000, 0.000000, 0.000000, 0.000000, 25950.000000, 700.000000, 4.000000, 4.000000, 4.000000, 4.000000, 4.000000, 4.000000, 4.000000, 4.000000, 4.000000, 4.000000, 4.000000, 4.000000, 4.000000, 4.000000, 4.000000, 4.000000
54.000000, 0.000000, 4175.897461, 4126.666504, 4195.384277, 4184.102539, 4185.127930, 4199.487305, 4200.000000, 4214.358887, 4187.179199, 4238.974121, 4207.692383, 4206.666504, 4223.589844, 4200.512695, 0.000000, 8087.000000, 8147.000000, 0.000000, 0.000000, 0.000000, 25950.000000, 707.692261, 4.000000, 4.000000, 4.000000, 4.000000, 4.000000, 4.000000, 4.000000, 4.000000, 4.000000, 4.000000, 4.000000, 4.000000, 4.000000, 4.000000, 4.000000, 4.000000
55.000000, 0.000000, 4181.025391, 4132.820313, 4201.025391, 4182.051270, 4185.641113, 4199.487305, 4197.436035, 4210.256348, 4184.102539, 4231.794922, 4208.717773, 4208.205078, 4220.000000, 4204.102539, 0.000000, 8102.000000, 8134.000000, 0.000000, 0.000000, 0.000000, 25950.000000, 715.897400, 4.000000, 4.000000, 4.000000, 4.000000, 4.000000, 4.000000, 4.000000, 4.000000, 4.000000, 4.000000, 4.000000, 4.000000, 4.000000, 4.000000, 4.000000, 4.000000
56.000000, 0.000000, 4180.000000, 4136.922852, 4203.589844, 4185.641113, 4185.127930, 4199.487305, 4205.127930, 4218.974121, 4184.102539, 4231.794922, 4212.820313, 4205.641113, 4223.589844, 4204.615234, 0.000000, 8102.000000, 8134.000000, 0.000000, 0.000000, 0.000000, 25950.000000, 723.589722, 4.000000, 4.000000, 4.000000, 4.000000, 4.000000, 4.000000, 4.000000, 4.000000, 4.000000, 4.000000, 4.000000, 4.000000, 4.000000, 4.000000, 4.000000, 4.000000
57.000000, 0.000000, 4178.461426, 4135.384277, 4199.487305, 4187.179199, 4185.641113, 4200.000000, 4207.179199, 4215.897461, 4182.563965, 4232.307617, 4214.871582, 4206.153809, 4226.153809, 4202.563965, 0.000000, 8109.000000, 8125.000000, 0.000000, 0.000000, 0.000000, 25950.000000, 731.794861, 4.000000, 4.000000, 4.000000, 4.000000, 4.000000, 4.000000, 4.000000, 4.000000, 4.000000, 4.000000, 4.000000, 4.000000, 4.000000, 4.000000, 4.000000, 4.000000
58.000000, 0.000000, 4187.692383, 4144.615234, 4201.538574, 4189.230469, 4186.666504, 4197.436035, 4188.717773, 4185.641113, 4171.794922, 4230.769043, 4216.410156, 4207.692383, 4228.717773, 4210.256348, 0.000000, 8109.000000, 8125.000000, 0.000000, 0.000000, 0.000000, 25950.000000, 740.000000, 4.000000, 4.000000, 4.000000, 4.000000, 4.000000, 4.000000, 4.000000, 4.000000, 4.000000, 4.000000, 4.000000, 4.000000, 4.000000, 4.000000, 4.000000, 4.000000
59.000000, 0.000000, 4185.127930, 4141.025391, 4205.641113, 4191.281738, 4188.205078, 4196.410156, 4186.666504, 4174.358887, 4165.641113, 4225.127930, 4211.794922, 4209.743652, 4225.641113, 4213.846191, 0.000000, 8186.000000, 8121.000000, 0.000000, 0.000000, 0.000000, 25950.000000, 747.692261, 4.000000, 4.000000, 4.000000, 4.000000, 4.000000, 4.000000, 4.000000, 4.000000, 4.000000, 4.000000, 4.000000, 4.000000, 4.000000, 4.000000, 4.000000, 4.000000
60.000000, 0.000000, 4172.307617, 4120.512695, 4202.051270, 4182.051270, 4187.692383, 4202.563965, 4204.102539, 4196.410156, 4177.948730, 4220.000000, 4206.666504, 4211.281738, 4215.897461, 4203.589844, 0.000000, 8186.000000, 8121.000000, 0.000000, 0.000000, 0.000000, 25950.000000, 755.897400, 4.000000, 4.000000, 4.000000, 4.000000, 4.000000, 4.000000, 4.000000, 4.000000, 4.000000, 4.000000, 4.000000, 4.000000, 4.000000, 4.000000, 4.000000, 4.000000
61.000000, 0.000000, 4176.410156, 4132.307617, 4202.051270, 4187.179199, 4184.615234, 4203.589844, 4197.948730, 4199.487305, 4186.666504, 4219.487305, 4210.769043, 4213.333008, 4221.025391, 4203.589844, 0.000000, 8139.000000, 8113.000000, 0.000000, 0.000000, 0.000000, 25950.000000, 763.589722, 4.000000, 4.000000, 4.000000, 4.000000, 4.000000, 4.000000, 4.000000, 4.000000, 4.000000, 4.000000, 4.000000, 4.000000, 4.000000, 4.000000, 4.000000, 4.000000
62.000000, 0.000000, 4187.692383, 4162.563965, 4209.743652, 4195.897461, 4190.769043, 4203.076660, 4177.436035, 4188.205078, 4180.512695, 4222.051270, 4214.871582, 4214.871582, 4234.358887, 4212.820313, 0.000000, 8139.000000, 8113.000000, 0.000000, 0.000000, 0.000000, 25950.000000, 771.794861, 4.000000, 4.000000, 4.000000, 4.000000, 4.000000, 4.000000, 4.000000, 4.000000, 4.000000, 4.000000, 4.000000, 4.000000, 4.000000, 4.000000, 4.000000, 4.000000
63.000000, 0.000000, 4187.692383, 4160.000000, 4213.333008, 4191.794922, 4202.563965, 4205.641113, 4184.102539, 4197.948730, 4180.000000, 4226.153809, 4222.563965, 4218.974121, 4232.820313, 4213.333008, 0.000000, 8143.000000, 8110.000000, 0.000000, 0.000000, 0.000000, 25950.000000, 779.487183, 4.000000, 4.000000, 4.000000, 4.000000, 4.000000, 4.000000, 4.000000, 4.000000, 4.000000, 4.000000, 4.000000, 4.000000, 4.000000, 4.000000, 4.000000, 4.000000
64.000000, 0.000000, 4183.589844, 4152.307617, 4210.256348, 4195.384277, 4205.127930, 4204.615234, 4198.461426, 4206.153809, 4186.666504, 4232.820313, 4230.769043, 4223.076660, 4231.794922, 4210.256348, 3494.000000, 8143.000000, 8110.000000, 0.000000, 0.000000, 0.000000, 25950.000000, 787.692261, 4.000000, 4.000000, 4.000000, 4.000000, 4.000000, 4.000000, 4.000000, 4.000000, 4.000000, 4.000000, 4.000000, 4.000000, 4.000000, 4.000000, 4.000000, 4.000000
65.000000, 0.000000, 4181.025391, 4162.563965, 4201.025391, 4194.871582, 4196.410156, 4203.589844, 4192.820313, 4196.410156, 4186.666504, 4234.358887, 4225.641113, 4218.974121, 4233.333008, 4209.230469, 2284.000000, 8160.000000, 8123.000000, 0.000000, 0.000000, 0.000000, 25950.000000, 795.384583, 4.000000, 4.000000, 4.000000, 4.000000, 4.000000, 4.000000, 4.000000, 4.000000, 4.000000, 4.000000, 4.000000, 4.000000, 4.000000, 4.000000, 4.000000, 4.000000
66.000000, 0.000000, 4171.281738, 4153.333008, 4191.794922, 4188.717773, 4187.692383, 4196.922852, 4181.025391, 4202.051270, 4183.589844, 4225.127930, 4213.333008, 4214.871582, 4223.076660, 4197.948730, 3121.000000, 8160.000000, 8123.000000, 0.000000, 0.000000, 0.000000, 25950.000000, 803.589722, 4.000000, 4.000000, 4.000000, 4.000000, 4.000000, 4.000000, 4.000000, 4.000000, 4.000000, 4.000000, 4.000000, 4.000000, 4.000000, 4.000000, 4.000000, 4.000000
67.000000, 0.000000, 4163.076660, 4134.871582, 4192.307617, 4185.127930, 4182.051270, 4182.563965, 4184.102539, 4211.794922, 4183.589844, 4215.897461, 4207.179199, 4208.205078, 4212.820313, 4187.179199, 3553.000000, 8173.000000, 8122.000000, 0.000000, 0.000000, 0.000000, 25950.000000, 811.282043, 4.000000, 4.000000, 4.000000, 4.000000, 4.000000, 4.000000, 4.000000, 4.000000, 4.000000, 4.000000, 4.000000, 4.000000, 4.000000, 4.000000, 4.000000, 4.000000
68.000000, 0.000000, 4164.615234, 4142.563965, 4197.436035, 4184.615234, 4184.615234, 4190.256348, 4207.179199, 4210.256348, 4184.102539, 4218.461426, 4206.666504, 4201.538574, 4215.384277, 4190.256348, 3530.000000, 8173.000000, 8122.000000, 0.000000, 0.000000, 0.000000, 25950.000000, 819.487183, 4.000000, 4.000000, 4.000000, 4.000000, 4.000000, 4.000000, 4.000000, 4.000000, 4.000000, 4.000000, 4.000000, 4.000000, 4.000000, 4.000000, 4.000000, 4.000000
69.000000, 0.000000, 4174.358887, 4162.563965, 4203.589844, 4194.358887, 4196.410156, 4214.871582, 4215.897461, 4222.563965, 4185.641113, 4229.743652, 4211.281738, 4208.717773, 4225.127930, 4198.974121, 3571.000000, 8193.000000, 8119.000000, 0.000000, 0.000000, 0.000000, 25950.000000, 827.179443, 4.000000, 4.000000, 4.000000, 4.000000, 4.000000, 4.000000, 4.000000, 4.000000, 4.000000, 4.000000, 4.000000, 4.000000, 4.000000, 4.000000, 4.000000, 4.000000
70.000000, 0.000000, 4182.563965, 4167.692383, 4208.717773, 4199.487305, 4205.641113, 4222.051270, 4200.512695, 4224.102539, 4187.692383, 4237.948730, 4222.051270, 4219.487305, 4233.846191, 4205.127930, 3498.000000, 8193.000000, 8119.000000, 0.000000, 0.000000, 0.000000, 25950.000000, 835.384583, 4.000000, 4.000000, 4.000000, 4.000000, 4.000000, 4.000000, 4.000000, 4.000000, 4.000000, 4.000000, 4.000000, 4.000000, 4.000000, 4.000000, 4.000000, 4.000000
71.000000, 0.000000, 4177.436035, 4157.436035, 4207.179199, 4198.974121, 4207.179199, 4213.846191, 4195.384277, 4200.512695, 4187.179199, 4232.307617, 4220.512695, 4216.922852, 4229.743652, 4203.076660, 3512.000000, 8200.000000, 8120.000000, 0.000000, 0.000000, 0.000000, 25950.000000, 843.589722, 4.000000, 4.000000, 4.000000, 4.000000, 4.000000, 4.000000, 4.000000, 4.000000, 4.000000, 4.000000, 4.000000, 4.000000, 4.000000, 4.000000, 4.000000, 4.000000
72.000000, 0.000000, 4167.692383, 4151.794922, 4197.948730, 4195.897461, 4198.461426, 4203.589844, 4203.076660, 4191.794922, 4178.461426, 4220.512695, 4207.179199, 4204.102539, 4217.948730, 4197.436035, 3360.000000, 8200.000000, 8120.000000, 0.000000, 0.000000, 0.000000, 25950.000000, 851.282043, 4.000000, 4.000000, 4.000000, 4.000000, 4.000000, 4.000000, 4.000000, 4.000000, 4.000000, 4.000000, 4.000000, 4.000000, 4.000000, 4.000000, 4.000000, 4.000000
73.000000, 0.000000, 4168.717773, 4154.358887, 4196.410156, 4192.820313, 4186.153809, 4200.000000, 4201.025391, 4202.051270, 4172.820313, 4214.358887, 4205.127930, 4199.487305, 4216.410156, 4197.436035, 3535.000000, 8205.000000, 8122.000000, 0.000000, 0.000000, 0.000000, 25950.000000, 859.487183, 4.000000, 4.000000, 4.000000, 4.000000, 4.000000, 4.000000, 4.000000, 4.000000, 4.000000, 4.000000, 4.000000, 4.000000, 4.000000, 4.000000, 4.000000, 4.000000
74.000000, 0.000000, 4180.000000, 4158.974121, 4209.230469, 4198.461426, 4188.205078, 4208.717773, 4197.436035, 4206.666504, 4177.948730, 4217.948730, 4214.358887, 4212.307617, 4226.153809, 4205.127930, 3275.000000, 8205.000000, 8122.000000, 0.000000, 0.000000, 0.000000, 25950.000000, 867.179443, 4.000000, 4.000000, 4.000000, 4.000000, 4.000000, 4.000000, 4.000000, 4.000000, 4.000000, 4.000000, 4.000000, 4.000000, 4.000000, 4.000000, 4.000000, 4.000000
75.000000, 0.000000, 4187.692383, 4165.641113, 4217.948730, 4198.974121, 4201.538574, 4208.717773, 4210.769043, 4215.897461, 4184.615234, 4224.102539, 4220.000000, 4224.615234, 4231.281738, 4212.820313, 3563.000000, 8213.000000, 8133.000000, 0.000000, 0.000000, 0.000000, 25950.000000, 875.384583, 4.000000, 4.000000, 4.000000, 4.000000, 4.000000, 4.000000, 4.000000, 4.000000, 4.000000, 4.000000, 4.000000, 4.000000, 4.000000, 4.000000, 4.000000, 4.000000
76.000000, 0.000000, 4188.717773, 4170.256348, 4212.820313, 4198.461426, 4205.641113, 4199.487305, 4219.487305, 4234.358887, 4191.281738, 4230.256348, 4217.948730, 4223.589844, 4229.230469, 4212.820313, 3518.000000, 8213.000000, 8133.000000, 0.000000, 0.000000, 0.000000, 25950.000000, 883.076904, 4.000000, 4.000000, 4.000000, 4.000000, 4.000000, 4.000000, 4.000000, 4.000000, 4.000000, 4.000000, 4.000000, 4.000000, 4.000000, 4.000000, 4.000000, 4.000000
77.000000, 0.000000, 4185.127930, 4165.127930, 4205.127930, 4202.051270, 4201.025391, 4206.153809, 4216.922852, 4238.974121, 4199.487305, 4234.358887, 4221.025391, 4218.974121, 4225.127930, 4209.743652, 3476.000000, 8218.000000, 8138.000000, 0.000000, 0.000000, 0.000000, 25950.000000, 891.282043, 4.000000, 4.000000, 4.000000, 4.000000, 4.000000, 4.000000, 4.000000, 4.000000, 4.000000, 4.000000, 4.000000, 4.000000, 4.000000, 4.000000, 4.000000, 4.000000
78.000000, 0.000000, 4179.487305, 4155.897461, 4201.538574, 4195.897461, 4202.051270, 4218.974121, 4222.563965, 4235.897461, 4204.102539, 4225.641113, 4216.922852, 4211.281738, 4220.512695, 4204.102539, 3275.000000, 8218.000000, 8138.000000, 0.000000, 0.000000, 0.000000, 25950.000000, 898.974365, 4.000000, 4.000000, 4.000000, 4.000000, 4.000000, 4.000000, 4.000000, 4.000000, 4.000000, 4.000000, 4.000000, 4.000000, 4.000000, 4.000000, 4.000000, 4.000000
79.000000, 0.000000, 4172.820313, 4152.307617, 4195.384277, 4191.281738, 4195.384277, 4213.846191, 4226.666504, 4233.333008, 4197.948730, 4214.358887, 4203.589844, 4203.076660, 4213.333008, 4197.436035, 3563.000000, 8233.000000, 8145.000000, 0.000000, 0.000000, 0.000000, 25950.000000, 907.179443, 4.000000, 4.000000, 4.000000, 4.000000, 4.000000, 4.000000, 4.000000, 4.000000, 4.000000, 4.000000, 4.000000, 4.000000, 4.000000, 4.000000, 4.000000, 4.000000
80.000000, 0.000000, 4168.205078, 4155.897461, 4187.692383, 4188.717773, 4189.230469, 4206.666504, 4216.410156, 4218.974121, 4188.717773, 4216.410156, 4203.076660, 4207.179199, 4210.769043, 4196.410156, 3518.000000, 8233.000000, 8145.000000, 0.000000, 0.000000, 0.000000, 25950.000000, 914.871765, 4.000000, 4.000000, 4.000000, 4.000000, 4.000000, 4.000000, 4.000000, 4.000000, 4.000000, 4.000000, 4.000000, 4.000000, 4.000000, 4.000000, 4.000000, 4.000000
81.000000, 0.000000, 4169.230469, 4155.384277, 4187.179199, 4190.256348, 4192.307617, 4209.230469, 4212.820313, 4206.666504, 4183.589844, 4220.000000, 4205.641113, 4212.307617, 4212.820313, 4198.974121, 3476.000000, 8240.000000, 8151.000000, 0.000000, 0.000000, 0.000000, 25950.000000, 923.076904, 4.000000, 4.000000, 4.000000, 4.000000, 4.000000, 4.000000, 4.000000, 4.000000, 4.000000, 4.000000, 4.000000, 4.000000, 4.000000, 4.000000, 4.000000, 4.000000
82.000000, 0.000000, 4173.846191, 4148.717773, 4192.307617, 4193.333008, 4187.692383, 4206.666504, 4218.461426, 4213.333008, 4185.641113, 4216.410156, 4206.666504, 4212.820313, 4212.820313, 4199.487305, 3275.000000, 8240.000000, 8151.000000, 0.000000, 0.000000, 0.000000, 25950.000000, 930.769226, 4.000000, 4.000000, 4.000000, 4.000000, 4.000000, 4.000000, 4.000000, 4.000000, 4.000000, 4.000000, 4.000000, 4.000000, 4.000000, 4.000000, 4.000000, 4.000000
83.000000, 0.000000, 4180.000000, 4155.384277, 4201.538574, 4191.281738, 4183.589844, 4199.487305, 4207.179199, 4216.922852, 4185.641113, 4215.897461, 4210.769043, 4216.410156, 4216.410156, 4202.563965, 3563.000000, 8245.000000, 8154.000000, 0.000000, 0.000000, 0.000000, 25950.000000, 938.974365, 4.000000, 4.000000, 4.000000, 4.000000, 4.000000, 4.000000, 4.000000, 4.000000, 4.000000, 4.000000, 4.000000, 4.000000, 4.000000, 4.000000, 4.000000, 4.000000
84.000000, 0.000000, 4182.563965, 4164.102539, 4205.641113, 4195.384277, 4191.794922, 4196.922852, 4195.897461, 4206.153809, 4176.922852, 4213.333008, 4208.717773, 4215.384277, 4214.358887, 4204.102539, 3518.000000, 8245.000000, 8154.000000, 0.000000, 0.000000, 0.000000, 25950.000000, 946.666626, 4.000000, 4.000000, 4.000000, 4.000000, 4.000000, 4.000000, 4.000000, 4.000000, 4.000000, 4.000000, 4.000000, 4.000000, 4.000000, 4.000000, 4.000000, 4.000000
85.000000, 0.000000, 4176.410156, 4157.948730, 4198.461426, 4192.307617, 4193.846191, 4198.461426, 4206.666504, 4202.051270, 4169.743652, 4202.563965, 4198.974121, 4204.102539, 4205.127930, 4199.487305, 3476.000000, 8262.000000, 8163.000000, 0.000000, 0.000000, 0.000000, 25950.000000, 954.871765, 4.000000, 4.000000, 4.000000, 4.000000, 4.000000, 4.000000, 4.000000, 4.000000, 4.000000, 4.000000, 4.000000, 4.000000, 4.000000, 4.000000, 4.000000, 4.000000
86.000000, 0.000000, 4172.307617, 4155.897461, 4196.922852, 4187.692383, 4186.153809, 4197.436035, 4218.461426, 4194.871582, 4166.666504, 4197.436035, 4198.974121, 4202.563965, 4204.102539, 4197.436035, 3275.000000, 8262.000000, 8163.000000, 0.000000, 0.000000, 0.000000, 25950.000000, 963.076904, 4.000000, 4.000000, 4.000000, 4.000000, 4.000000, 4.000000, 4.000000, 4.000000, 4.000000, 4.000000, 4.000000, 4.000000, 4.000000, 4.000000, 4.000000, 4.000000
87.000000, 0.000000, 4175.897461, 4165.641113, 4201.538574, 4193.846191, 4188.205078, 4201.025391, 4216.410156, 4191.794922, 4167.179199, 4202.563965, 4204.102539, 4213.333008, 4207.179199, 4203.589844, 3563.000000, 8263.000000, 8162.000000, 0.000000, 0.000000, 0.000000, 25950.000000, 970.769226, 4.000000, 4.000000, 4.000000, 4.000000, 4.000000, 4.000000, 4.000000, 4.000000, 4.000000, 4.000000, 4.000000, 4.000000, 4.000000, 4.000000, 4.000000, 4.000000
88.000000, 0.000000, 4173.846191, 4164.615234, 4198.461426, 4190.256348, 4187.692383, 4201.538574, 4203.076660, 4196.410156, 4168.717773, 4203.589844, 4200.512695, 4211.281738, 4204.615234, 4198.461426, 3518.000000, 8263.000000, 8162.000000, 0.000000, 0.000000, 0.000000, 25950.000000, 978.974365, 4.000000, 4.000000, 4.000000, 4.000000, 4.000000, 4.000000, 4.000000, 4.000000, 4.000000, 4.000000, 4.000000, 4.000000, 4.000000, 4.000000, 4.000000, 4.000000
89.000000, 0.000000, 4168.717773, 4153.846191, 4195.384277, 4187.692383, 4177.436035, 4190.769043, 4196.410156, 4185.641113, 4166.153809, 4196.922852, 4193.846191, 4200.512695, 4198.974121, 4185.127930, 3476.000000, 8270.000000, 8179.000000, 0.000000, 0.000000, 0.000000, 25950.000000, 986.666626, 4.000000, 4.000000, 4.000000, 4.000000, 4.000000, 4.000000, 4.000000, 4.000000, 4.000000, 4.000000, 4.000000, 4.000000, 4.000000, 4.000000, 4.000000, 4.000000
90.000000, 0.000000, 4173.333008, 4158.974121, 4197.948730, 4191.794922, 4185.641113, 4186.666504, 4201.025391, 4185.127930, 4172.307617, 4201.538574, 4195.897461, 4202.563965, 4199.487305, 4188.717773, 3275.000000, 8270.000000, 8179.000000, 0.000000, 0.000000, 0.000000, 25950.000000, 994.871765, 4.000000, 4.000000, 4.000000, 4.000000, 4.000000, 4.000000, 4.000000, 4.000000, 4.000000, 4.000000, 4.000000, 4.000000, 4.000000, 4.000000, 4.000000, 4.000000
91.000000, 0.000000, 4187.179199, 4177.948730, 4203.076660, 4198.974121, 4202.051270, 4201.025391, 4203.076660, 4209.743652, 4190.256348, 4220.000000, 4209.230469, 4213.333008, 4213.846191, 4204.102539, 3563.000000, 8273.000000, 8182.000000, 0.000000, 0.000000, 0.000000, 25951.000000, 2.564102, 4.000000, 4.000000, 4.000000, 4.000000, 4.000000, 4.000000, 4.000000, 4.000000, 4.000000, 4.000000, 4.000000, 4.000000, 4.000000, 4.000000, 4.000000, 4.000000
92.000000, 0.000000, 4194.871582, 4187.179199, 4209.743652, 4207.692383, 4205.641113, 4217.436035, 4208.717773, 4224.102539, 4198.461426, 4234.871582, 4220.512695, 4221.538574, 4229.230469, 4215.384277, 3518.000000, 8273.000000, 8182.000000, 0.000000, 0.000000, 0.000000, 25951.000000, 10.769231, 4.000000, 4.000000, 4.000000, 4.000000, 4.000000, 4.000000, 4.000000, 4.000000, 4.000000, 4.000000, 4.000000, 4.000000, 4.000000, 4.000000, 4.000000, 4.000000
93.000000, 0.000000, 4193.333008, 4183.076660, 4213.333008, 4201.538574, 4206.153809, 4214.358887, 4221.538574, 4222.563965, 4192.307617, 4234.358887, 4217.436035, 4224.102539, 4227.179199, 4216.922852, 3476.000000, 8285.000000, 8182.000000, 0.000000, 0.000000, 0.000000, 25951.000000, 18.461538, 4.000000, 4.000000, 4.000000, 4.000000, 4.000000, 4.000000, 4.000000, 4.000000, 4.000000, 4.000000, 4.000000, 4.000000, 4.000000, 4.000000, 4.000000, 4.000000
94.000000, 0.000000, 4188.717773, 4174.358887, 4207.692383, 4193.333008, 4198.974121, 4201.538574, 4212.820313, 4216.922852, 4183.589844, 4221.538574, 4209.230469, 4223.076660, 4214.358887, 4210.256348, 3275.000000, 8285.000000, 8182.000000, 0.000000, 0.000000, 0.000000, 25951.000000, 26.666666, 4.000000, 4.000000, 4.000000, 4.000000, 4.000000, 4.000000, 4.000000, 4.000000, 4.000000, 4.000000, 4.000000, 4.000000, 4.000000, 4.000000, 4.000000, 4.000000
95.000000, 0.000000, 4176.410156, 4162.563965, 4191.794922, 4188.717773, 4183.589844, 4195.897461, 4194.358887, 4199.487305, 4173.846191, 4207.692383, 4199.487305, 4213.846191, 4201.538574, 4196.410156, 3563.000000, 8289.000000, 8189.000000, 0.000000, 0.000000, 0.000000, 25951.000000, 34.871796, 4.000000, 4.000000, 4.000000, 4.000000, 4.000000, 4.000000, 4.000000, 4.000000, 4.000000, 4.000000, 4.000000, 4.000000, 4.000000, 4.000000, 4.000000, 4.000000
96.000000, 0.000000, 4169.230469, 4155.897461, 4184.102539, 4185.127930, 4186.666504, 4197.948730, 4198.461426, 4185.127930, 4168.717773, 4202.563965, 4188.717773, 4202.563965, 4193.846191, 4188.205078, 3518.000000, 8289.000000, 8189.000000, 0.000000, 0.000000, 0.000000, 25951.000000, 42.564102, 4.000000, 4.000000, 4.000000, 4.000000, 4.000000, 4.000000, 4.000000, 4.000000, 4.000000, 4.000000, 4.000000, 4.000000, 4.000000, 4.000000, 4.000000, 4.000000
97.000000, 0.000000, 4173.846191, 4162.051270, 4190.769043, 4189.230469, 4200.000000, 4202.051270, 4204.615234, 4184.615234, 4168.205078, 4207.692383, 4187.692383, 4197.436035, 4194.871582, 4190.256348, 3476.000000, 8296.000000, 8193.000000, 0.000000, 0.000000, 0.000000, 25951.000000, 50.769230, 4.000000, 4.000000, 4.000000, 4.000000, 4.000000, 4.000000, 4.000000, 4.000000, 4.000000, 4.000000, 4.000000, 4.000000, 4.000000, 4.000000, 4.000000, 4.000000
98.000000, 0.000000, 4178.974121, 4169.743652, 4197.436035, 4188.717773, 4195.897461, 4203.589844, 4201.538574, 4189.743652, 4172.820313, 4214.871582, 4196.410156, 4195.897461, 4201.025391, 4198.461426, 3275.000000, 8296.000000, 8193.000000, 0.000000, 0.000000, 0.000000, 25951.000000, 58.461536, 4.000000, 4.000000, 4.000000, 4.000000, 4.000000, 4.000000, 4.000000, 4.000000, 4.000000, 4.000000, 4.000000, 4.000000, 4.000000, 4.000000, 4.000000, 4.000000
99.000000, 0.000000, 4186.153809, 4177.436035, 4201.538574, 4193.333008, 4197.436035, 4206.153809, 4205.127930, 4206.153809, 4186.153809, 4223.589844, 4203.589844, 4204.102539, 4211.794922, 4209.230469, 3563.000000, 8301.000000, 8201.000000, 0.000000, 0.000000, 0.000000, 25951.000000, 66.666664, 4.000000, 4.000000, 4.000000, 4.000000, 4.000000, 4.000000, 4.000000, 4.000000, 4.000000, 4.000000, 4.000000, 4.000000, 4.000000, 4.000000, 4.000000, 4.000000
100.000000, 0.000000, 4193.846191, 4184.615234, 4203.589844, 4195.897461, 4202.051270, 4205.127930, 4212.820313, 4211.794922, 4188.205078, 4230.256348, 4205.127930, 4213.333008, 4217.436035, 4211.281738, 3518.000000, 8301.000000, 8201.000000, 0.000000, 0.000000, 0.000000, 25951.000000, 74.358971, 4.000000, 4.000000, 4.000000, 4.000000, 4.000000, 4.000000, 4.000000, 4.000000, 4.000000, 4.000000, 4.000000, 4.000000, 4.000000, 4.000000, 4.000000, 4.000000
101.000000, 0.000000, 4187.692383, 4175.384277, 4198.974121, 4187.692383, 4189.743652, 4200.000000, 4212.307617, 4190.256348, 4171.794922, 4220.512695, 4200.000000, 4206.666504, 4203.589844, 4201.025391, 3476.000000, 8301.000000, 8200.000000, 0.000000, 0.000000, 0.000000, 25951.000000, 82.564102, 4.000000, 4.000000, 4.000000, 4.000000, 4.000000, 4.000000, 4.000000, 4.000000, 4.000000, 4.000000, 4.000000, 4.000000, 4.000000, 4.000000, 4.000000, 4.000000
102.000000, 0.000000, 4171.794922, 4156.410156, 4190.256348, 4187.692383, 4190.769043, 4206.153809, 4207.179199, 4183.076660, 4170.256348, 4204.102539, 4187.692383, 4198.461426, 4184.102539, 4187.179199, 3275.000000, 8301.000000, 8200.000000, 0.000000, 0.000000, 0.000000, 25951.000000, 90.256409, 4.000000, 4.000000, 4.000000, 4.000000, 4.000000, 4.000000, 4.000000, 4.000000, 4.000000, 4.000000, 4.000000, 4.000000, 4.000000, 4.000000, 4.000000, 4.000000
103.000000, 0.000000, 4162.051270, 4149.743652, 4187.179199, 4185.641113, 4203.589844, 4222.051270, 4210.256348, 4201.538574, 4186.666504, 4198.974121, 4173.333008, 4193.846191, 4173.333008, 4175.384277, 3563.000000, 8307.000000, 8198.000000, 0.000000, 0.000000, 0.000000, 25951.000000, 98.461533, 4.000000, 4.000000, 4.000000, 4.000000, 4.000000, 4.000000, 4.000000, 4.000000, 4.000000, 4.000000, 4.000000, 4.000000, 4.000000, 4.000000, 4.000000, 4.000000
104.000000, 0.000000, 4160.512695, 4147.692383, 4186.153809, 4182.051270, 4194.871582, 4220.512695, 4215.384277, 4203.589844, 4188.717773, 4201.025391, 4170.256348, 4186.153809, 4168.205078, 4167.179199, 3518.000000, 8307.000000, 8198.000000, 0.000000, 0.000000, 0.000000, 25951.000000, 106.153847, 4.000000, 4.000000, 4.000000, 4.000000, 4.000000, 4.000000, 4.000000, 4.000000, 4.000000, 4.000000, 4.000000, 4.000000, 4.000000, 4.000000, 4.000000, 4.000000
105.000000, 0.000000, 4162.051270, 4146.153809, 4184.102539, 4186.666504, 4182.563965, 4204.615234, 4210.769043, 4194.871582, 4184.102539, 4205.127930, 4176.922852, 4182.563965, 4170.769043, 4164.102539, 3476.000000, 8309.000000, 8198.000000, 0.000000, 0.000000, 0.000000, 25951.000000, 114.358971, 4.000000, 4.000000, 4.000000, 4.000000, 4.000000, 4.000000, 4.000000, 4.000000, 4.000000, 4.000000, 4.000000, 4.000000, 4.000000, 4.000000, 4.000000, 4.000000
106.000000, 0.000000, 4170.769043, 4161.538574, 4194.358887, 4193.846191, 4185.127930, 4201.538574, 4195.897461, 4202.051270, 4190.256348, 4215.384277, 4188.717773, 4195.384277, 4184.102539, 4176.410156, 3275.000000, 8309.000000, 8198.000000, 0.000000, 0.000000, 0.000000, 25951.000000, 122.564102, 4.000000, 4.000000, 4.000000, 4.000000, 4.000000, 4.000000, 4.000000, 4.000000, 4.000000, 4.000000, 4.000000, 4.000000, 4.000000, 4.000000, 4.000000, 4.000000
107.000000, 0.000000, 4184.102539, 4176.922852, 4207.179199, 4201.025391, 4185.641113, 4198.974121, 4185.127930, 4192.820313, 4190.769043, 4219.487305, 4197.948730, 4206.153809, 4197.948730, 4192.820313, 3563.000000, 8303.000000, 8191.000000, 0.000000, 0.000000, 0.000000, 25951.000000, 130.256409, 4.000000, 4.000000, 4.000000, 4.000000, 4.000000, 4.000000, 4.000000, 4.000000, 4.000000, 4.000000, 4.000000, 4.000000, 4.000000, 4.000000, 4.000000, 4.000000
108.000000, 0.000000, 4182.051270, 4175.384277, 4199.487305, 4194.358887, 4185.641113, 4185.127930, 4183.076660, 4166.666504, 4179.487305, 4210.769043, 4194.871582, 4200.512695, 4200.000000, 4194.358887, 3518.000000, 8303.000000, 8191.000000, 0.000000, 0.000000, 0.000000, 25951.000000, 138.461533, 4.000000, 4.000000, 4.000000, 4.000000, 4.000000, 4.000000, 4.000000, 4.000000, 4.000000, 4.000000, 4.000000, 4.000000, 4.000000, 4.000000, 4.000000, 4.000000
109.000000, 0.000000, 4174.871582, 4168.205078, 4187.179199, 4189.743652, 4185.641113, 4180.000000, 4184.102539, 4171.281738, 4177.436035, 4206.666504, 4188.205078, 4197.948730, 4188.205078, 4185.127930, 3476.000000, 8297.000000, 8178.000000, 0.000000, 0.000000, 0.000000, 25951.000000, 146.153839, 4.000000, 4.000000, 4.000000, 4.000000, 4.000000, 4.000000, 4.000000, 4.000000, 4.000000, 4.000000, 4.000000, 4.000000, 4.000000, 4.000000, 4.000000, 4.000000
110.000000, 0.000000, 4177.948730, 4169.743652, 4193.846191, 4195.897461, 4180.512695, 4181.538574, 4184.102539, 4187.692383, 4184.615234, 4213.333008, 4187.692383, 4202.051270, 4183.589844, 4185.127930, 3275.000000, 8297.000000, 8178.000000, 0.000000, 0.000000, 0.000000, 25951.000000, 153.846146, 4.000000, 4.000000, 4.000000, 4.000000, 4.000000, 4.000000, 4.000000, 4.000000, 4.000000, 4.000000, 4.000000, 4.000000, 4.000000, 4.000000, 4.000000, 4.000000
111.000000, 0.000000, 4182.051270, 4178.974121, 4195.384277, 4196.922852, 4183.076660, 4182.051270, 4184.102539, 4187.179199, 4187.692383, 4216.922852, 4190.769043, 4197.436035, 4189.743652, 4188.717773, 3563.000000, 8294.000000, 8171.000000, 0.000000, 0.000000, 0.000000, 25951.000000, 162.051285, 4.000000, 4.000000, 4.000000, 4.000000, 4.000000, 4.000000, 4.000000, 4.000000, 4.000000, 4.000000, 4.000000, 4.000000, 4.000000, 4.000000, 4.000000, 4.000000
112.000000, 0.000000, 4178.974121, 4182.051270, 4185.641113, 4197.948730, 4185.641113, 4191.281738, 4190.256348, 4186.666504, 4184.615234, 4213.333008, 4188.717773, 4194.871582, 4186.153809, 4187.692383, 3518.000000, 8294.000000, 8171.000000, 0.000000, 0.000000, 0.000000, 25951.000000, 169.743591, 4.000000, 4.000000, 4.000000, 4.000000, 4.000000, 4.000000, 4.000000, 4.000000, 4.000000, 4.000000, 4.000000, 4.000000, 4.000000, 4.000000, 4.000000, 4.000000
113.000000, 0.000000, 4182.051270, 4181.025391, 4189.230469, 4195.384277, 4176.922852, 4193.846191, 4185.127930, 4187.692383, 4184.102539, 4215.897461, 4195.384277, 4201.538574, 4186.666504, 4195.384277, 3476.000000, 8287.000000, 8151.000000, 0.000000, 0.000000, 0.000000, 25951.000000, 177.948715, 4.000000, 4.000000, 4.000000, 4.000000, 4.000000, 4.000000, 4.000000, 4.000000, 4.000000, 4.000000, 4.000000, 4.000000, 4.000000, 4.000000, 4.000000, 4.000000
114.000000, 0.000000, 4193.333008, 4182.563965, 4201.025391, 4197.436035, 4177.948730, 4191.281738, 4183.589844, 4188.205078, 4186.666504, 4225.127930, 4211.794922, 4209.230469, 4201.538574, 4206.666504, 3275.000000, 8287.000000, 8151.000000, 0.000000, 0.000000, 0.000000, 25951.000000, 186.153839, 4.000000, 4.000000, 4.000000, 4.000000, 4.000000, 4.000000, 4.000000, 4.000000, 4.000000, 4.000000, 4.000000, 4.000000, 4.000000, 4.000000, 4.000000, 4.000000
115.000000, 0.000000, 4192.307617, 4188.717773, 4203.076660, 4202.051270, 4188.717773, 4197.436035, 4200.000000, 4197.948730, 4188.717773, 4225.641113, 4213.333008, 4213.846191, 4209.743652, 4208.205078, 3563.000000, 8286.000000, 8143.000000, 0.000000, 0.000000, 0.000000, 25951.000000, 193.846146, 4.000000, 4.000000, 4.000000, 4.000000, 4.000000, 4.000000, 4.000000, 4.000000, 4.000000, 4.000000, 4.000000, 4.000000, 4.000000, 4.000000, 4.000000, 4.000000
116.000000, 0.000000, 4184.615234, 4188.717773, 4196.922852, 4194.871582, 4189.743652, 4196.410156, 4200.000000, 4202.051270, 4188.717773, 4220.512695, 4204.615234, 4212.307617, 4202.563965, 4201.538574, 3518.000000, 8286.000000, 8143.000000, 0.000000, 0.000000, 0.000000, 25951.000000, 202.051270, 4.000000, 4.000000, 4.000000, 4.000000, 4.000000, 4.000000, 4.000000, 4.000000, 4.000000, 4.000000, 4.000000, 4.000000, 4.000000, 4.000000, 4.000000, 4.000000
117.000000, 0.000000, 4182.051270, 4175.384277, 4188.205078, 4193.846191, 4186.153809, 4182.051270, 4180.512695, 4183.076660, 4178.974121, 4212.820313, 4198.461426, 4205.127930, 4191.794922, 4191.794922, 3476.000000, 8264.000000, 8140.000000, 0.000000, 0.000000, 0.000000, 25951.000000, 209.743591, 4.000000, 4.000000, 4.000000, 4.000000, 4.000000, 4.000000, 4.000000, 4.000000, 4.000000, 4.000000, 4.000000, 4.000000, 4.000000, 4.000000, 4.000000, 4.000000
118.000000, 0.000000, 4176.410156, 4167.692383, 4182.563965, 4191.794922, 4184.615234, 4181.538574, 4178.461426, 4164.102539, 4168.717773, 4203.589844, 4193.846191, 4197.948730, 4183.076660, 4186.153809, 3275.000000, 8264.000000, 8140.000000, 0.000000, 0.000000, 0.000000, 25951.000000, 217.948715, 4.000000, 4.000000, 4.000000, 4.000000, 4.000000, 4.000000, 4.000000, 4.000000, 4.000000, 4.000000, 4.000000, 4.000000, 4.000000, 4.000000, 4.000000, 4.000000
119.000000, 0.000000, 4177.948730, 4168.205078, 4187.692383, 4184.615234, 4178.461426, 4193.846191, 4190.769043, 4168.717773, 4167.179199, 4202.051270, 4189.743652, 4196.922852, 4179.487305, 4187.692383, 3563.000000, 8254.000000, 8153.000000, 0.000000, 0.000000, 0.000000, 25951.000000, 225.641022, 4.000000, 4.000000, 4.000000, 4.000000, 4.000000, 4.000000, 4.000000, 4.000000, 4.000000, 4.000000, 4.000000, 4.000000, 4.000000, 4.000000, 4.000000, 4.000000
120.000000, 0.000000, 4181.025391, 4162.563965, 4189.230469, 4187.692383, 4177.948730, 4197.436035, 4197.948730, 4182.563965, 4168.717773, 4207.692383, 4186.153809, 4198.974121, 4176.922852, 4187.692383, 3518.000000, 8254.000000, 8153.000000, 0.000000, 0.000000, 0.000000, 25951.000000, 233.846146, 4.000000, 4.000000, 4.000000, 4.000000, 4.000000, 4.000000, 4.000000, 4.000000, 4.000000, 4.000000, 4.000000, 4.000000, 4.000000, 4.000000, 4.000000, 4.000000
121.000000, 0.000000, 4176.922852, 4158.461426, 4184.615234, 4189.230469, 4192.307617, 4200.512695, 4202.563965, 4185.641113, 4172.820313, 4210.769043, 4188.717773, 4195.897461, 4172.307617, 4185.127930, 3476.000000, 8250.000000, 8161.000000, 0.000000, 0.000000, 0.000000, 25951.000000, 241.538452, 4.000000, 4.000000, 4.000000, 4.000000, 4.000000, 4.000000, 4.000000, 4.000000, 4.000000, 4.000000, 4.000000, 4.000000, 4.000000, 4.000000, 4.000000, 4.000000
122.000000, 0.000000, 4174.871582, 4164.615234, 4184.102539, 4194.358887, 4201.025391, 4205.127930, 4202.051270, 4189.230469, 4182.051270, 4211.794922, 4193.846191, 4190.769043, 4172.307617, 4186.666504, 3275.000000, 8250.000000, 8161.000000, 0.000000, 0.000000, 0.000000, 25951.000000, 249.743576, 4.000000, 4.000000, 4.000000, 4.000000, 4.000000, 4.000000, 4.000000, 4.000000, 4.000000, 4.000000, 4.000000, 4.000000, 4.000000, 4.000000, 4.000000, 4.000000
123.000000, 0.000000, 4180.512695, 4166.153809, 4186.666504, 4196.922852, 4199.487305, 4207.179199, 4198.974121, 4197.948730, 4189.743652, 4217.436035, 4192.820313, 4192.820313, 4172.820313, 4186.666504, 3563.000000, 8237.000000, 8159.000000, 0.000000, 0.000000, 0.000000, 25951.000000, 257.948700, 4.000000, 4.000000, 4.000000, 4.000000, 4.000000, 4.000000, 4.000000, 4.000000, 4.000000, 4.000000, 4.000000, 4.000000, 4.000000, 4.000000, 4.000000, 4.000000
124.000000, 0.000000, 4184.615234, 4161.538574, 4191.281738, 4194.871582, 4198.974121, 4203.076660, 4195.897461, 4192.307617, 4184.615234, 4216.410156, 4188.717773, 4195.897461, 4169.230469, 4184.102539, 3518.000000, 8237.000000, 8159.000000, 0.000000, 0.000000, 0.000000, 25951.000000, 265.641022, 4.000000, 4.000000, 4.000000, 4.000000, 4.000000, 4.000000, 4.000000, 4.000000, 4.000000, 4.000000, 4.000000, 4.000000, 4.000000, 4.000000, 4.000000, 4.000000
125.000000, 0.000000, 4184.102539, 4162.563965, 4199.487305, 4196.922852, 4198.974121, 4198.461426, 4191.281738, 4183.076660, 4181.025391, 4213.333008, 4193.333008, 4195.897461, 4168.717773, 4185.127930, 3476.000000, 8231.000000, 8158.000000, 0.000000, 0.000000, 0.000000, 25951.000000, 273.846161, 4.000000, 4.000000, 4.000000, 4.000000, 4.000000, 4.000000, 4.000000, 4.000000, 4.000000, 4.000000, 4.000000, 4.000000, 4.000000, 4.000000, 4.000000, 4.000000
126.000000, 1.000000, 4181.025391, 4160.000000, 4196.410156, 4195.384277, 4197.436035, 4198.461426, 4192.307617, 4183.589844, 4178.974121, 4210.769043, 4190.256348, 4192.820313, 4166.666504, 4182.051270, 3489.000000, 8231.000000, 8158.000000, 0.000000, 0.000000, 0.000000, 25951.000000, 281.538452, 4.000000, 4.000000, 4.000000, 4.000000, 4.000000, 4.000000, 4.000000, 4.000000, 4.000000, 4.000000, 4.000000, 4.000000, 4.000000, 4.000000, 4.000000, 4.000000
127.000000, 1.000000, 4177.948730, 4157.436035, 4193.333008, 4193.846191, 4196.410156, 4198.461426, 4192.820313, 4183.589844, 4177.436035, 4208.717773, 4187.179199, 4189.743652, 4164.615234, 4178.974121, 3502.000000, 8231.000000, 8158.000000, 0.000000, 0.000000, 0.000000, 25951.000000, 289.230774, 4.000000, 4.000000, 4.000000, 4.000000, 4.000000, 4.000000, 4.000000, 4.000000, 4.000000, 4.000000, 4.000000, 4.000000, 4.000000, 4.000000, 4.000000, 4.000000
0.000000, 1.000000, 4174.871582, 4154.871582, 4190.256348, 4192.307617, 4195.384277, 4198.461426, 4193.333008, 4184.102539, 4175.384277, 4206.666504, 4184.102539, 4186.666504, 4162.563965, 4175.897461, 3515.000000, 8231.000000, 8158.000000, 0.000000, 0.000000, 0.000000, 25951.000000, 297.435883, 4.000000, 4.000000, 4.000000, 4.000000, 4.000000, 4.000000, 4.000000, 4.000000, 4.000000, 4.000000, 4.000000, 4.000000, 4.000000, 4.000000, 4.000000, 4.000000
1.000000, 1.000000, 4171.794922, 4152.820313, 4187.179199, 4190.256348, 4194.358887, 4198.461426, 4193.846191, 4184.102539, 4173.846191, 4204.615234, 4180.512695, 4183.589844, 4160.512695, 4173.333008, 3528.000000, 8231.000000, 8158.000000, 0.000000, 0.000000, 0.000000, 25951.000000, 305.128204, 4.000000, 4.000000, 4.000000, 4.000000, 4.000000, 4.000000, 4.000000, 4.000000, 4.000000, 4.000000, 4.000000, 4.000000, 4.000000, 4.000000, 4.000000, 4.000000
2.000000, 1.000000, 4168.717773, 4150.256348, 4184.102539, 4188.717773, 4192.820313, 4198.461426, 4194.871582, 4184.615234, 4171.794922, 4202.051270, 4177.436035, 4180.512695, 4158.461426, 4170.256348, 3541.000000, 8231.000000, 8158.000000, 0.000000, 0.000000, 0.000000, 25951.000000, 312.820496, 4.000000, 4.000000, 4.000000, 4.000000, 4.000000, 4.000000, 4.000000, 4.000000, 4.000000, 4.000000, 4.000000, 4.000000, 4.000000, 4.000000, 4.000000, 4.000000
3.000000, 0.000000, 4165.127930, 4147.692383, 4181.025391, 4187.179199, 4191.794922, 4198.461426, 4195.897461, 4185.127930, 4169.743652, 4199.487305, 4173.846191, 4177.436035, 4155.897461, 4166.666504, 3555.000000, 8231.000000, 8158.000000, 0.000000, 0.000000, 0.000000, 25951.000000, 321.025635, 4.000000, 4.000000, 4.000000, 4.000000, 4.000000, 4.000000, 4.000000, 4.000000, 4.000000, 4.000000, 4.000000, 4.000000, 4.000000, 4.000000, 4.000000, 4.000000
4.000000, 0.000000, 4172.307617, 4152.307617, 4182.051270, 4189.743652, 4197.436035, 4196.410156, 4181.025391, 4183.076660, 4167.692383, 4199.487305, 4176.922852, 4181.538574, 4162.051270, 4173.333008, 3530.000000, 8231.000000, 8158.000000, 0.000000, 0.000000, 0.000000, 25951.000000, 328.717926, 4.000000, 4.000000, 4.000000, 4.000000, 4.000000, 4.000000, 4.000000, 4.000000, 4.000000, 4.000000, 4.000000, 4.000000, 4.000000, 4.000000, 4.000000, 4.000000
5.000000, 0.000000, 4177.436035, 4157.436035, 4186.666504, 4195.897461, 4198.974121, 4204.615234, 4188.717773, 4189.230469, 4172.820313, 4204.615234, 4185.641113, 4193.333008, 4172.820313, 4182.051270, 3571.000000, 8192.000000, 8163.000000, 0.000000, 0.000000, 0.000000, 25951.000000, 336.923065, 4.000000, 4.000000, 4.000000, 4.000000, 4.000000, 4.000000, 4.000000, 4.000000, 4.000000, 4.000000, 4.000000, 4.000000, 4.000000, 4.000000, 4.000000, 4.000000
6.000000, 0.000000, 4170.769043, 4153.333008, 4186.666504, 4191.281738, 4186.666504, 4203.076660, 4195.384277, 4194.358887, 4174.871582, 4203.589844, 4184.615234, 4191.281738, 4168.205078, 4179.487305, 3503.000000, 8192.000000, 8163.000000, 0.000000, 0.000000, 0.000000, 25951.000000, 344.615387, 4.000000, 4.000000, 4.000000, 4.000000, 4.000000, 4.000000, 4.000000, 4.000000, 4.000000, 4.000000, 4.000000, 4.000000, 4.000000, 4.000000, 4.000000, 4.000000
7.000000, 0.000000, 4173.846191, 4149.230469, 4185.127930, 4190.256348, 4186.153809, 4196.922852, 4187.692383, 4182.563965, 4169.743652, 4201.025391, 4182.051270, 4186.153809, 4165.641113, 4180.000000, 3504.000000, 8187.000000, 8159.000000, 0.000000, 0.000000, 0.000000, 25951.000000, 352.307678, 4.000000, 4.000000, 4.000000, 4.000000, 4.000000, 4.000000, 4.000000, 4.000000, 4.000000, 4.000000, 4.000000, 4.000000, 4.000000, 4.000000, 4.000000, 4.000000
8.000000, 0.000000, 4181.025391, 4152.307617, 4187.179199, 4187.179199, 4195.384277, 4199.487305, 4186.153809, 4167.179199, 4166.153809, 4203.076660, 4184.102539, 4190.769043, 4171.281738, 4186.153809, 3357.000000, 8187.000000, 8159.000000, 0.000000, 0.000000, 0.000000, 25951.000000, 360.512817, 4.000000, 4.000000, 4.000000, 4.000000, 4.000000, 4.000000, 4.000000, 4.000000, 4.000000, 4.000000, 4.000000, 4.000000, 4.000000, 4.000000, 4.000000, 4.000000
9.000000, 0.000000, 4178.461426, 4154.358887, 4190.256348, 4187.179199, 4191.794922, 4201.025391, 4188.205078, 4167.179199, 4168.717773, 4202.563965, 4179.487305, 4191.794922, 4171.281738, 4185.641113, 3535.000000, 8186.000000, 8158.000000, 0.000000, 0.000000, 0.000000, 25951.000000, 368.205109, 4.000000, 4.000000, 4.000000, 4.000000, 4.000000, 4.000000, 4.000000, 4.000000, 4.000000, 4.000000, 4.000000, 4.000000, 4.000000, 4.000000, 4.000000, 4.000000
10.000000, 0.000000, 4170.769043, 4151.794922, 4187.692383, 4191.281738, 4185.127930, 4190.256348, 4184.102539, 4168.205078, 4167.179199, 4195.384277, 4171.794922, 4180.512695, 4166.153809, 4180.000000, 3275.000000, 8186.000000, 8158.000000, 0.000000, 0.000000, 0.000000, 25951.000000, 375.897430, 4.000000, 4.000000, 4.000000, 4.000000, 4.000000, 4.000000, 4.000000, 4.000000, 4.000000, 4.000000, 4.000000, 4.000000, 4.000000, 4.000000, 4.000000, 4.000000
11.000000, 0.000000, 4171.281738, 4153.333008, 4184.615234, 4191.794922, 4188.717773, 4182.563965, 4191.281738, 4174.871582, 4174.871582, 4201.025391, 4176.922852, 4180.000000, 4168.205078, 4177.948730, 3572.000000, 8184.000000, 8167.000000, 0.000000, 0.000000, 0.000000, 25951.000000, 384.102570, 4.000000, 4.000000, 4.000000, 4.000000, 4.000000, 4.000000, 4.000000, 4.000000, 4.000000, 4.000000, 4.000000, 4.000000, 4.000000, 4.000000, 4.000000, 4.000000
12.000000, 0.000000, 4184.102539, 4165.127930, 4192.820313, 4199.487305, 4188.205078, 4194.358887, 4196.410156, 4190.256348, 4192.307617, 4221.538574, 4193.846191, 4197.948730, 4181.025391, 4187.179199, 3518.000000, 8184.000000, 8167.000000, 0.000000, 0.000000, 0.000000, 25951.000000, 391.794861, 4.000000, 4.000000, 4.000000, 4.000000, 4.000000, 4.000000, 4.000000, 4.000000, 4.000000, 4.000000, 4.000000, 4.000000, 4.000000, 4.000000, 4.000000, 4.000000
13.000000, 0.000000, 4194.358887, 4170.769043, 4201.538574, 4201.025391, 4185.641113, 4203.589844, 4193.846191, 4195.384277, 4194.358887, 4227.692383, 4202.051270, 4205.641113, 4188.717773, 4199.487305, 3476.000000, 8187.000000, 8178.000000, 0.000000, 0.000000, 0.000000, 25951.000000, 399.487183, 4.000000, 4.000000, 4.000000, 4.000000, 4.000000, 4.000000, 4.000000, 4.000000, 4.000000, 4.000000, 4.000000, 4.000000, 4.000000, 4.000000, 4.000000, 4.000000
14.000000, 0.000000, 4192.820313, 4168.205078, 4198.461426, 4196.922852, 4190.769043, 4199.487305, 4200.000000, 4191.794922, 4186.153809, 4216.410156, 4200.512695, 4203.076660, 4186.153809, 4202.051270, 3275.000000, 8187.000000, 8178.000000, 0.000000, 0.000000, 0.000000, 25951.000000, 407.179474, 4.000000, 4.000000, 4.000000, 4.000000, 4.000000, 4.000000, 4.000000, 4.000000, 4.000000, 4.000000, 4.000000, 4.000000, 4.000000, 4.000000, 4.000000, 4.000000
15.000000, 0.000000, 4188.717773, 4168.717773, 4192.820313, 4194.358887, 4193.333008, 4201.025391, 4200.000000, 4187.692383, 4182.563965, 4217.436035, 4200.512695, 4206.666504, 4186.666504, 4202.563965, 3572.000000, 8191.000000, 8182.000000, 0.000000, 0.000000, 0.000000, 25951.000000, 414.871796, 4.000000, 4.000000, 4.000000, 4.000000, 4.000000, 4.000000, 4.000000, 4.000000, 4.000000, 4.000000, 4.000000, 4.000000, 4.000000, 4.000000, 4.000000, 4.000000
16.000000, 0.000000, 4187.179199, 4163.589844, 4190.256348, 4189.230469, 4186.666504, 4200.512695, 4190.256348, 4178.461426, 4180.512695, 4220.512695, 4199.487305, 4202.051270, 4187.692383, 4199.487305, 0.000000, 8191.000000, 8182.000000, 0.000000, 0.000000, 0.000000, 25951.000000, 422.564087, 4.000000, 4.000000, 4.000000, 4.000000, 4.000000, 4.000000, 4.000000, 4.000000, 4.000000, 4.000000, 4.000000, 4.000000, 4.000000, 4.000000, 4.000000, 4.000000
17.000000, 0.000000, 4181.025391, 4157.436035, 4183.589844, 4193.846191, 4182.563965, 4188.205078, 4188.717773, 4166.666504, 4172.307617, 4203.589844, 4191.794922, 4190.256348, 4181.538574, 4189.230469, 0.000000, 8197.000000, 8177.000000, 0.000000, 0.000000, 0.000000, 25951.000000, 430.769226, 4.000000, 4.000000, 4.000000, 4.000000, 4.000000, 4.000000, 4.000000, 4.000000, 4.000000, 4.000000, 4.000000, 4.000000, 4.000000, 4.000000, 4.000000, 4.000000
18.000000, 0.000000, 4180.000000, 4165.641113, 4180.000000, 4196.922852, 4188.717773, 4180.000000, 4182.051270, 4160.000000, 4168.717773, 4197.948730, 4188.205078, 4187.692383, 4180.512695, 4189.743652, 0.000000, 8197.000000, 8177.000000, 0.000000, 0.000000, 0.000000, 25951.000000, 438.461517, 4.000000, 4.000000, 4.000000, 4.000000, 4.000000, 4.000000, 4.000000, 4.000000, 4.000000, 4.000000, 4.000000, 4.000000, 4.000000, 4.000000, 4.000000, 4.000000
19.000000, 0.000000, 4189.743652, 4173.333008, 4186.153809, 4196.922852, 4188.717773, 4184.615234, 4169.743652, 4165.641113, 4176.922852, 4210.256348, 4189.230469, 4190.769043, 4187.692383, 4198.974121, 0.000000, 8195.000000, 8177.000000, 0.000000, 0.000000, 0.000000, 25951.000000, 446.153839, 4.000000, 4.000000, 4.000000, 4.000000, 4.000000, 4.000000, 4.000000, 4.000000, 4.000000, 4.000000, 4.000000, 4.000000, 4.000000, 4.000000, 4.000000, 4.000000
20.000000, 0.000000, 4191.281738, 4168.205078, 4189.743652, 4198.461426, 4184.102539, 4188.205078, 4180.512695, 4178.461426, 4181.025391, 4207.179199, 4186.153809, 4193.333008, 4186.153809, 4198.974121, 0.000000, 8195.000000, 8177.000000, 0.000000, 0.000000, 0.000000, 25951.000000, 453.846130, 4.000000, 4.000000, 4.000000, 4.000000, 4.000000, 4.000000, 4.000000, 4.000000, 4.000000, 4.000000, 4.000000, 4.000000, 4.000000, 4.000000, 4.000000, 4.000000
21.000000, 0.000000, 4187.692383, 4171.794922, 4187.692383, 4193.846191, 4188.717773, 4188.205078, 4186.153809, 4175.384277, 4175.384277, 4199.487305, 4189.743652, 4194.871582, 4184.615234, 4198.461426, 0.000000, 8199.000000, 8180.000000, 0.000000, 0.000000, 0.000000, 25951.000000, 461.538452, 4.000000, 4.000000, 4.000000, 4.000000, 4.000000, 4.000000, 4.000000, 4.000000, 4.000000, 4.000000, 4.000000, 4.000000, 4.000000, 4.000000, 4.000000, 4.000000
22.000000, 0.000000, 4190.256348, 4175.384277, 4187.692383, 4195.897461, 4191.281738, 4184.615234, 4167.692383, 4164.102539, 4169.743652, 4203.076660, 4195.897461, 4194.871582, 4190.256348, 4201.025391, 0.000000, 8199.000000, 8180.000000, 0.000000, 0.000000, 0.000000, 25951.000000, 469.230743, 4.000000, 4.000000, 4.000000, 4.000000, 4.000000, 4.000000, 4.000000, 4.000000, 4.000000, 4.000000, 4.000000, 4.000000, 4.000000, 4.000000, 4.000000, 4.000000
23.000000, 0.000000, 4188.205078, 4171.281738, 4186.153809, 4197.436035, 4186.153809, 4183.589844, 4171.281738, 4173.333008, 4172.820313, 4203.076660, 4193.333008, 4195.897461, 4189.743652, 4197.948730, 0.000000, 8206.000000, 8174.000000, 0.000000, 0.000000, 0.000000, 25951.000000, 477.435883, 4.000000, 4.000000, 4.000000, 4.000000, 4.000000, 4.000000, 4.000000, 4.000000, 4.000000, 4.000000, 4.000000, 4.000000, 4.000000, 4.000000, 4.000000, 4.000000
24.000000, 0.000000, 4190.256348, 4179.487305, 4186.153809, 4197.436035, 4193.846191, 4191.281738, 4189.743652, 4180.000000, 4178.461426, 4203.076660, 4195.384277, 4198.974121, 4189.743652, 4197.948730, 0.000000, 8206.000000, 8174.000000, 0.000000, 0.000000, 0.000000, 25951.000000, 485.128204, 4.000000, 4.000000, 4.000000, 4.000000, 4.000000, 4.000000, 4.000000, 4.000000, 4.000000, 4.000000, 4.000000, 4.000000, 4.000000, 4.000000, 4.000000, 4.000000
25.000000, 0.000000, 4196.922852, 4188.205078, 4194.871582, 4202.051270, 4201.025391, 4189.743652, 4185.641113, 4176.410156, 4180.512695, 4211.281738, 4201.538574, 4196.922852, 4197.948730, 4202.051270, 0.000000, 8211.000000, 8173.000000, 0.000000, 0.000000, 0.000000, 25951.000000, 492.820496, 4.000000, 4.000000, 4.000000, 4.000000, 4.000000, 4.000000, 4.000000, 4.000000, 4.000000, 4.000000, 4.000000, 4.000000, 4.000000, 4.000000, 4.000000, 4.000000
26.000000, 0.000000, 4196.410156, 4183.076660, 4198.461426, 4198.461426, 4189.230469, 4184.102539, 4181.538574, 4183.076660, 4180.512695, 4217.436035, 4201.538574, 4195.384277, 4201.538574, 4201.025391, 0.000000, 8211.000000, 8173.000000, 0.000000, 0.000000, 0.000000, 25951.000000, 500.512817, 4.000000, 4.000000, 4.000000, 4.000000, 4.000000, 4.000000, 4.000000, 4.000000, 4.000000, 4.000000, 4.000000, 4.000000, 4.000000, 4.000000, 4.000000, 4.000000
27.000000, 0.000000, 4195.384277, 4181.538574, 4192.820313, 4198.974121, 4186.153809, 4193.846191, 4193.333008, 4184.615234, 4180.512695, 4216.922852, 4199.487305, 4201.025391, 4196.922852, 4198.974121, 0.000000, 8212.000000, 8178.000000, 0.000000, 0.000000, 0.000000, 25951.000000, 508.205109, 4.000000, 4.000000, 4.000000, 4.000000, 4.000000, 4.000000, 4.000000, 4.000000, 4.000000, 4.000000, 4.000000, 4.000000, 4.000000, 4.000000, 4.000000, 4.000000
28.000000, 0.000000, 4193.846191, 4184.102539, 4186.153809, 4197.436035, 4195.384277, 4206.153809, 4201.538574, 4181.025391, 4177.948730, 4212.820313, 4196.410156, 4199.487305, 4195.897461, 4197.436035, 0.000000, 8212.000000, 8178.000000, 0.000000, 0.000000, 0.000000, 25951.000000, 515.897400, 4.000000, 4.000000, 4.000000, 4.000000, 4.000000, 4.000000, 4.000000, 4.000000, 4.000000, 4.000000, 4.000000, 4.000000, 4.000000, 4.000000, 4.000000, 4.000000
29.000000, 0.000000, 4191.281738, 4184.102539, 4186.666504, 4195.384277, 4196.410156, 4201.538574, 4203.076660, 4186.666504, 4173.846191, 4210.769043, 4195.897461, 4198.461426, 4197.948730, 4198.461426, 0.000000, 8226.000000, 8172.000000, 0.000000, 0.000000, 0.000000, 25951.000000, 523.589722, 4.000000, 4.000000, 4.000000, 4.000000, 4.000000, 4.000000, 4.000000, 4.000000, 4.000000, 4.000000, 4.000000, 4.000000, 4.000000, 4.000000, 4.000000, 4.000000
30.000000, 0.000000, 4193.333008, 4187.692383, 4194.358887, 4198.974121, 4194.358887, 4194.358887, 4196.922852, 4183.076660, 4180.000000, 4212.820313, 4198.974121, 4203.589844, 4198.974121, 4200.512695, 0.000000, 8226.000000, 8172.000000, 0.000000, 0.000000, 0.000000, 25951.000000, 531.794861, 4.000000, 4.000000, 4.000000, 4.000000, 4.000000, 4.000000, 4.000000, 4.000000, 4.000000, 4.000000, 4.000000, 4.000000, 4.000000, 4.000000, 4.000000, 4.000000
31.000000, 0.000000, 4201.538574, 4192.820313, 4197.948730, 4194.358887, 4198.974121, 4196.922852, 4184.102539, 4174.871582, 4190.256348, 4218.974121, 4202.563965, 4202.563965, 4202.563965, 4201.538574, 0.000000, 8231.000000, 8168.000000, 0.000000, 0.000000, 0.000000, 25951.000000, 539.487183, 4.000000, 4.000000, 4.000000, 4.000000, 4.000000, 4.000000, 4.000000, 4.000000, 4.000000, 4.000000, 4.000000, 4.000000, 4.000000, 4.000000, 4.000000, 4.000000
32.000000, 0.000000, 4205.641113, 4193.846191, 4195.384277, 4197.948730, 4203.076660, 4198.974121, 4181.538574, 4182.051270, 4188.717773, 4223.589844, 4210.256348, 4204.102539, 4207.179199, 4209.230469, 0.000000, 8231.000000, 8168.000000, 0.000000, 0.000000, 0.000000, 25951.000000, 547.179443, 4.000000, 4.000000, 4.000000, 4.000000, 4.000000, 4.000000, 4.000000, 4.000000, 4.000000, 4.000000, 4.000000, 4.000000, 4.000000, 4.000000, 4.000000, 4.000000
33.000000, 0.000000, 4203.076660, 4196.410156, 4198.461426, 4203.589844, 4194.871582, 4190.256348, 4188.205078, 4186.153809, 4186.153809, 4222.051270, 4215.384277, 4210.769043, 4207.692383, 4217.436035, 0.000000, 8247.000000, 8161.000000, 0.000000, 0.000000, 0.000000, 25951.000000, 554.871765, 4.000000, 4.000000, 4.000000, 4.000000, 4.000000, 4.000000, 4.000000, 4.000000, 4.000000, 4.000000, 4.000000, 4.000000, 4.000000, 4.000000, 4.000000, 4.000000
34.000000, 0.000000, 4203.589844, 4201.025391, 4204.615234, 4202.051270, 4184.102539, 4183.589844, 4187.179199, 4178.974121, 4183.589844, 4214.871582, 4206.153809, 4206.666504, 4203.589844, 4213.846191, 0.000000, 8247.000000, 8161.000000, 0.000000, 0.000000, 0.000000, 25951.000000, 562.564087, 4.000000, 4.000000, 4.000000, 4.000000, 4.000000, 4.000000, 4.000000, 4.000000, 4.000000, 4.000000, 4.000000, 4.000000, 4.000000, 4.000000, 4.000000, 4.000000
35.000000, 0.000000, 4203.076660, 4202.563965, 4202.051270, 4206.666504, 4192.307617, 4192.820313, 4191.794922, 4183.076660, 4181.538574, 4213.333008, 4201.025391, 4204.615234, 4200.000000, 4207.692383, 0.000000, 8256.000000, 8158.000000, 0.000000, 0.000000, 0.000000, 25951.000000, 570.769226, 4.000000, 4.000000, 4.000000, 4.000000, 4.000000, 4.000000, 4.000000, 4.000000, 4.000000, 4.000000, 4.000000, 4.000000, 4.000000, 4.000000, 4.000000, 4.000000
36.000000, 0.000000, 4202.051270, 4197.436035, 4200.000000, 4204.615234, 4204.102539, 4205.127930, 4205.127930, 4194.358887, 4186.153809, 4218.974121, 4207.692383, 4210.256348, 4200.000000, 4206.666504, 0.000000, 8256.000000, 8158.000000, 0.000000, 0.000000, 0.000000, 25951.000000, 578.461548, 4.000000, 4.000000, 4.000000, 4.000000, 4.000000, 4.000000, 4.000000, 4.000000, 4.000000, 4.000000, 4.000000, 4.000000, 4.000000, 4.000000, 4.000000, 4.000000
37.000000, 0.000000, 4201.025391, 4186.153809, 4200.512695, 4197.436035, 4193.846191, 4200.000000, 4198.461426, 4196.410156, 4185.641113, 4217.948730, 4206.666504, 4208.205078, 4199.487305, 4204.615234, 0.000000, 8266.000000, 8153.000000, 0.000000, 0.000000, 0.000000, 25951.000000, 586.153809, 4.000000, 4.000000, 4.000000, 4.000000, 4.000000, 4.000000, 4.000000, 4.000000, 4.000000, 4.000000, 4.000000, 4.000000, 4.000000, 4.000000, 4.000000, 4.000000
38.000000, 0.000000, 4196.410156, 4181.538574, 4196.922852, 4195.384277, 4182.051270, 4188.717773, 4189.743652, 4193.846191, 4178.974121, 4214.358887, 4201.025391, 4205.641113, 4193.846191, 4202.051270, 0.000000, 8266.000000, 8153.000000, 0.000000, 0.000000, 0.000000, 25951.000000, 593.846130, 4.000000, 4.000000, 4.000000, 4.000000, 4.000000, 4.000000, 4.000000, 4.000000, 4.000000, 4.000000, 4.000000, 4.000000, 4.000000, 4.000000, 4.000000, 4.000000
39.000000, 0.000000, 4194.358887, 4188.717773, 4197.948730, 4198.974121, 4184.102539, 4185.641113, 4198.974121, 4191.281738, 4176.410156, 4216.410156, 4201.538574, 4207.692383, 4191.794922, 4202.563965, 0.000000, 8269.000000, 8141.000000, 0.000000, 0.000000, 0.000000, 25951.000000, 601.538452, 4.000000, 4.000000, 4.000000, 4.000000, 4.000000, 4.000000, 4.000000, 4.000000, 4.000000, 4.000000, 4.000000, 4.000000, 4.000000, 4.000000, 4.000000, 4.000000
40.000000, 0.000000, 4194.871582, 4187.692383, 4201.538574, 4202.563965, 4182.051270, 4184.615234, 4199.487305, 4185.127930, 4172.307617, 4215.897461, 4198.974121, 4205.127930, 4191.794922, 4200.512695, 0.000000, 8269.000000, 8141.000000, 0.000000, 0.000000, 0.000000, 25951.000000, 609.230774, 4.000000, 4.000000, 4.000000, 4.000000, 4.000000, 4.000000, 4.000000, 4.000000, 4.000000, 4.000000, 4.000000, 4.000000, 4.000000, 4.000000, 4.000000, 4.000000
41.000000, 0.000000, 4196.922852, 4183.589844, 4200.000000, 4198.461426, 4185.127930, 4187.692383, 4190.256348, 4182.563965, 4166.666504, 4213.846191, 4198.461426, 4201.025391, 4191.794922, 4200.000000, 0.000000, 8273.000000, 8141.000000, 0.000000, 0.000000, 0.000000, 25951.000000, 617.435852, 4.000000, 4.000000, 4.000000, 4.000000, 4.000000, 4.000000, 4.000000, 4.000000, 4.000000, 4.000000, 4.000000, 4.000000, 4.000000, 4.000000, 4.000000, 4.000000
42.000000, 0.000000, 4202.051270, 4193.846191, 4203.589844, 4204.615234, 4196.410156, 4198.974121, 4195.384277, 4191.281738, 4174.358887, 4215.384277, 4201.538574, 4206.153809, 4194.358887, 4202.051270, 0.000000, 8273.000000, 8141.000000, 0.000000, 0.000000, 0.000000, 25951.000000, 625.128174, 4.000000, 4.000000, 4.000000, 4.000000, 4.000000, 4.000000, 4.000000, 4.000000, 4.000000, 4.000000, 4.000000, 4.000000, 4.000000, 4.000000, 4.000000, 4.000000
43.000000, 0.000000, 4200.512695, 4197.436035, 4209.743652, 4208.717773, 4193.846191, 4207.692383, 4207.692383, 4198.461426, 4181.025391, 4218.974121, 4201.538574, 4211.281738, 4197.948730, 4201.538574, 0.000000, 8280.000000, 8131.000000, 0.000000, 0.000000, 0.000000, 25951.000000, 632.820496, 4.000000, 4.000000, 4.000000, 4.000000, 4.000000, 4.000000, 4.000000, 4.000000, 4.000000, 4.000000, 4.000000, 4.000000, 4.000000, 4.000000, 4.000000, 4.000000
44.000000, 0.000000, 4194.358887, 4189.743652, 4204.615234, 4197.948730, 4186.153809, 4200.512695, 4202.563965, 4191.794922, 4172.820313, 4223.076660, 4208.717773, 4214.358887, 4198.974121, 4202.563965, 0.000000, 8280.000000, 8131.000000, 0.000000, 0.000000, 0.000000, 25951.000000, 640.512817, 4.000000, 4.000000, 4.000000, 4.000000, 4.000000, 4.000000, 4.000000, 4.000000, 4.000000, 4.000000, 4.000000, 4.000000, 4.000000, 4.000000, 4.000000, 4.000000
45.000000, 0.000000, 4195.384277, 4186.153809, 4200.512695, 4199.487305, 4185.127930, 4198.461426, 4194.358887, 4181.025391, 4169.743652, 4227.179199, 4215.384277, 4218.461426, 4196.922852, 4204.102539, 0.000000, 8278.000000, 8124.000000, 0.000000, 0.000000, 0.000000, 25951.000000, 648.205139, 4.000000, 4.000000, 4.000000, 4.000000, 4.000000, 4.000000, 4.000000, 4.000000, 4.000000, 4.000000, 4.000000, 4.000000, 4.000000, 4.000000, 4.000000, 4.000000
46.000000, 0.000000, 4196.922852, 4190.256348, 4202.051270, 4205.641113, 4188.205078, 4213.333008, 4204.615234, 4187.692383, 4176.410156, 4229.743652, 4210.769043, 4218.974121, 4197.948730, 4204.102539, 0.000000, 8278.000000, 8124.000000, 0.000000, 0.000000, 0.000000, 25951.000000, 655.897400, 4.000000, 4.000000, 4.000000, 4.000000, 4.000000, 4.000000, 4.000000, 4.000000, 4.000000, 4.000000, 4.000000, 4.000000, 4.000000, 4.000000, 4.000000, 4.000000
47.000000, 0.000000, 4197.436035, 4193.333008, 4202.563965, 4208.205078, 4194.358887, 4211.794922, 4213.333008, 4195.897461, 4171.794922, 4228.205078, 4205.641113, 4213.333008, 4198.461426, 4205.641113, 0.000000, 8271.000000, 8123.000000, 0.000000, 0.000000, 0.000000, 25951.000000, 664.102539, 4.000000, 4.000000, 4.000000, 4.000000, 4.000000, 4.000000, 4.000000, 4.000000, 4.000000, 4.000000, 4.000000, 4.000000, 4.000000, 4.000000, 4.000000, 4.000000
48.000000, 0.000000, 4205.127930, 4198.974121, 4207.692383, 4210.769043, 4201.538574, 4197.436035, 4210.769043, 4197.948730, 4165.127930, 4227.179199, 4210.256348, 4211.281738, 4198.974121, 4214.358887, 0.000000, 8271.000000, 8123.000000, 0.000000, 0.000000, 0.000000, 25951.000000, 671.794861, 4.000000, 4.000000, 4.000000, 4.000000, 4.000000, 4.000000, 4.000000, 4.000000, 4.000000, 4.000000, 4.000000, 4.000000, 4.000000, 4.000000, 4.000000, 4.000000
49.000000, 0.000000, 4218.461426, 4212.307617, 4215.897461, 4211.281738, 4204.102539, 4206.153809, 4209.230469, 4208.717773, 4171.794922, 4233.333008, 4217.948730, 4220.000000, 4210.256348, 4229.743652, 0.000000, 8271.000000, 8125.000000, 0.000000, 0.000000, 0.000000, 25951.000000, 679.487183, 4.000000, 4.000000, 4.000000, 4.000000, 4.000000, 4.000000, 4.000000, 4.000000, 4.000000, 4.000000, 4.000000, 4.000000, 4.000000, 4.000000, 4.000000, 4.000000
50.000000, 0.000000, 4222.051270, 4213.333008, 4214.358887, 4215.384277, 4201.025391, 4218.974121, 4215.384277, 4218.461426, 4174.358887, 4236.410156, 4218.461426, 4224.615234, 4220.512695, 4236.410156, 0.000000, 8271.000000, 8125.000000, 0.000000, 0.000000, 0.000000, 25951.000000, 687.179443, 4.000000, 4.000000, 4.000000, 4.000000, 4.000000, 4.000000, 4.000000, 4.000000, 4.000000, 4.000000, 4.000000, 4.000000, 4.000000, 4.000000, 4.000000, 4.000000
51.000000, 0.000000, 4213.846191, 4204.102539, 4207.179199, 4210.256348, 4198.974121, 4210.769043, 4215.384277, 4211.281738, 4168.205078, 4232.307617, 4217.436035, 4220.512695, 4217.436035, 4231.281738, 0.000000, 8264.000000, 8123.000000, 0.000000, 0.000000, 0.000000, 25951.000000, 694.871765, 4.000000, 4.000000, 4.000000, 4.000000, 4.000000, 4.000000, 4.000000, 4.000000, 4.000000, 4.000000, 4.000000, 4.000000, 4.000000, 4.000000, 4.000000, 4.000000
52.000000, 0.000000, 4210.769043, 4201.025391, 4205.641113, 4206.666504, 4199.487305, 4201.025391, 4205.641113, 4204.615234, 4168.205078, 4231.794922, 4216.922852, 4219.487305, 4212.307617, 4229.743652, 0.000000, 8264.000000, 8123.000000, 0.000000, 0.000000, 0.000000, 25951.000000, 703.076904, 4.000000, 4.000000, 4.000000, 4.000000, 4.000000, 4.000000, 4.000000, 4.000000, 4.000000, 4.000000, 4.000000, 4.000000, 4.000000, 4.000000, 4.000000, 4.000000
53.000000, 0.000000, 4210.769043, 4198.974121, 4208.717773, 4209.743652, 4197.436035, 4202.051270, 4199.487305, 4203.076660, 4166.153809, 4232.307617, 4217.436035, 4222.563965, 4212.820313, 4230.769043, 0.000000, 8247.000000, 8135.000000, 0.000000, 0.000000, 0.000000, 25951.000000, 710.769226, 4.000000, 4.000000, 4.000000, 4.000000, 4.000000, 4.000000, 4.000000, 4.000000, 4.000000, 4.000000, 4.000000, 4.000000, 4.000000, 4.000000, 4.000000, 4.000000
54.000000, 0.000000, 4205.641113, 4190.769043, 4212.307617, 4201.538574, 4189.743652, 4204.102539, 4205.641113, 4201.538574, 4155.897461, 4226.666504, 4218.461426, 4222.563965, 4207.692383, 4225.127930, 0.000000, 8247.000000, 8135.000000, 0.000000, 0.000000, 0.000000, 25951.000000, 718.461548, 4.000000, 4.000000, 4.000000, 4.000000, 4.000000, 4.000000, 4.000000, 4.000000, 4.000000, 4.000000, 4.000000, 4.000000, 4.000000, 4.000000, 4.000000, 4.000000
55.000000, 0.000000, 4199.487305, 4181.538574, 4213.333008, 4197.948730, 4181.538574, 4194.871582, 4216.410156, 4208.717773, 4154.358887, 4214.871582, 4212.820313, 4221.538574, 4199.487305, 4216.410156, 0.000000, 8237.000000, 8136.000000, 0.000000, 0.000000, 0.000000, 25951.000000, 726.153809, 4.000000, 4.000000, 4.000000, 4.000000, 4.000000, 4.000000, 4.000000, 4.000000, 4.000000, 4.000000, 4.000000, 4.000000, 4.000000, 4.000000, 4.000000, 4.000000
56.000000, 0.000000, 4200.000000, 4184.102539, 4214.871582, 4200.512695, 4184.615234, 4183.076660, 4209.743652, 4206.666504, 4158.974121, 4212.820313, 4209.230469, 4223.076660, 4197.948730, 4217.436035, 0.000000, 8237.000000, 8136.000000, 0.000000, 0.000000, 0.000000, 25951.000000, 733.846130, 4.000000, 4.000000, 4.000000, 4.000000, 4.000000, 4.000000, 4.000000, 4.000000, 4.000000, 4.000000, 4.000000, 4.000000, 4.000000, 4.000000, 4.000000, 4.000000
57.000000, 0.000000, 4212.307617, 4196.922852, 4221.538574, 4204.615234, 4192.820313, 4191.794922, 4199.487305, 4188.205078, 4157.436035, 4225.127930, 4216.922852, 4224.102539, 4203.076660, 4226.666504, 0.000000, 8219.000000, 8143.000000, 0.000000, 0.000000, 0.000000, 25951.000000, 742.051270, 4.000000, 4.000000, 4.000000, 4.000000, 4.000000, 4.000000, 4.000000, 4.000000, 4.000000, 4.000000, 4.000000, 4.000000, 4.000000, 4.000000, 4.000000, 4.000000
58.000000, 0.000000, 4215.897461, 4204.102539, 4223.076660, 4207.692383, 4192.307617, 4207.692383, 4202.051270, 4192.307617, 4157.436035, 4229.230469, 4220.000000, 4222.563965, 4205.641113, 4226.153809, 0.000000, 8219.000000, 8143.000000, 0.000000, 0.000000, 0.000000, 25951.000000, 749.743591, 4.000000, 4.000000, 4.000000, 4.000000, 4.000000, 4.000000, 4.000000, 4.000000, 4.000000, 4.000000, 4.000000, 4.000000, 4.000000, 4.000000, 4.000000, 4.000000
59.000000, 0.000000, 4199.487305, 4193.333008, 4213.846191, 4199.487305, 4187.692383, 4197.436035, 4200.512695, 4209.230469, 4154.358887, 4218.461426, 4207.179199, 4213.846191, 4196.922852, 4209.230469, 0.000000, 8211.000000, 8149.000000, 0.000000, 0.000000, 0.000000, 25951.000000, 757.435852, 4.000000, 4.000000, 4.000000, 4.000000, 4.000000, 4.000000, 4.000000, 4.000000, 4.000000, 4.000000, 4.000000, 4.000000, 4.000000, 4.000000, 4.000000, 4.000000
60.000000, 0.000000, 4185.127930, 4180.512695, 4202.051270, 4197.948730, 4180.512695, 4183.589844, 4196.410156, 4193.846191, 4139.487305, 4207.179199, 4196.922852, 4204.102539, 4184.615234, 4196.922852, 0.000000, 8211.000000, 8149.000000, 0.000000, 0.000000, 0.000000, 25951.000000, 765.128174, 4.000000, 4.000000, 4.000000, 4.000000, 4.000000, 4.000000, 4.000000, 4.000000, 4.000000, 4.000000, 4.000000, 4.000000, 4.000000, 4.000000, 4.000000, 4.000000
61.000000, 0.000000, 4186.153809, 4184.615234, 4198.461426, 4201.538574, 4173.333008, 4186.666504, 4197.948730, 4181.025391, 4134.871582, 4208.205078, 4198.461426, 4206.666504, 4184.615234, 4201.025391, 0.000000, 8206.000000, 8158.000000, 0.000000, 0.000000, 0.000000, 25951.000000, 772.820496, 4.000000, 4.000000, 4.000000, 4.000000, 4.000000, 4.000000, 4.000000, 4.000000, 4.000000, 4.000000, 4.000000, 4.000000, 4.000000, 4.000000, 4.000000, 4.000000
62.000000, 0.000000, 4192.820313, 4190.256348, 4204.615234, 4202.051270, 4182.563965, 4189.743652, 4202.051270, 4200.000000, 4150.256348, 4215.384277, 4203.076660, 4215.897461, 4195.897461, 4206.666504, 0.000000, 8206.000000, 8158.000000, 0.000000, 0.000000, 0.000000, 25951.000000, 781.025635, 4.000000, 4.000000, 4.000000, 4.000000, 4.000000, 4.000000, 4.000000, 4.000000, 4.000000, 4.000000, 4.000000, 4.000000, 4.000000, 4.000000, 4.000000, 4.000000
63.000000, 0.000000, 4193.846191, 4182.051270, 4207.179199, 4206.666504, 4197.436035, 4194.358887, 4209.743652, 4209.230469, 4157.436035, 4220.000000, 4204.615234, 4211.794922, 4201.025391, 4204.615234, 0.000000, 8195.000000, 8172.000000, 0.000000, 0.000000, 0.000000, 25951.000000, 788.717957, 4.000000, 4.000000, 4.000000, 4.000000, 4.000000, 4.000000, 4.000000, 4.000000, 4.000000, 4.000000, 4.000000, 4.000000, 4.000000, 4.000000, 4.000000, 4.000000
64.000000, 0.000000, 4190.256348, 4171.794922, 4198.461426, 4199.487305, 4194.871582, 4200.512695, 4221.025391, 4200.512695, 4146.153809, 4218.974121, 4197.948730, 4200.000000, 4192.820313, 4197.948730, 3494.000000, 8195.000000, 8172.000000, 0.000000, 0.000000, 0.000000, 25951.000000, 796.410217, 4.000000, 4.000000, 4.000000, 4.000000, 4.000000, 4.000000, 4.000000, 4.000000, 4.000000, 4.000000, 4.000000, 4.000000, 4.000000, 4.000000, 4.000000, 4.000000
65.000000, 0.000000, 4188.717773, 4174.358887, 4192.307617, 4200.512695, 4181.538574, 4199.487305, 4218.461426, 4198.974121, 4136.410156, 4213.333008, 4191.281738, 4199.487305, 4186.153809, 4192.307617, 2277.000000, 8193.000000, 8174.000000, 0.000000, 0.000000, 0.000000, 25951.000000, 804.102539, 4.000000, 4.000000, 4.000000, 4.000000, 4.000000, 4.000000, 4.000000, 4.000000, 4.000000, 4.000000, 4.000000, 4.000000, 4.000000, 4.000000, 4.000000, 4.000000
66.000000, 0.000000, 4195.897461, 4182.563965, 4197.436035, 4208.717773, 4183.076660, 4195.897461, 4201.025391, 4199.487305, 4138.461426, 4214.358887, 4196.922852, 4200.512695, 4193.333008, 4196.922852, 3120.000000, 8193.000000, 8174.000000, 0.000000, 0.000000, 0.000000, 25951.000000, 811.794861, 4.000000, 4.000000, 4.000000, 4.000000, 4.000000, 4.000000, 4.000000, 4.000000, 4.000000, 4.000000, 4.000000, 4.000000, 4.000000, 4.000000, 4.000000, 4.000000
67.000000, 0.000000, 4202.563965, 4188.205078, 4208.717773, 4210.256348, 4196.410156, 4199.487305, 4196.410156, 4197.436035, 4144.615234, 4219.487305, 4204.102539, 4202.563965, 4203.076660, 4204.102539, 3554.000000, 8190.000000, 8195.000000, 0.000000, 0.000000, 0.000000, 25951.000000, 820.000000, 4.000000, 4.000000, 4.000000, 4.000000, 4.000000, 4.000000, 4.000000, 4.000000, 4.000000, 4.000000, 4.000000, 4.000000, 4.000000, 4.000000, 4.000000, 4.000000
68.000000, 0.000000, 4194.871582, 4186.153809, 4206.666504, 4209.230469, 4199.487305, 4201.025391, 4201.538574, 4201.025391, 4143.076660, 4215.897461, 4194.358887, 4203.589844, 4190.769043, 4195.384277, 3532.000000, 8190.000000, 8195.000000, 0.000000, 0.000000, 0.000000, 25951.000000, 827.692261, 4.000000, 4.000000, 4.000000, 4.000000, 4.000000, 4.000000, 4.000000, 4.000000, 4.000000, 4.000000, 4.000000, 4.000000, 4.000000, 4.000000, 4.000000, 4.000000
69.000000, 0.000000, 4175.384277, 4171.281738, 4181.025391, 4196.922852, 4191.281738, 4194.871582, 4200.512695, 4193.333008, 4124.102539, 4193.333008, 4168.717773, 4183.589844, 4160.512695, 4169.230469, 3571.000000, 8187.000000, 8197.000000, 0.000000, 0.000000, 0.000000, 25951.000000, 835.384583, 4.000000, 4.000000, 4.000000, 4.000000, 4.000000, 4.000000, 4.000000, 4.000000, 4.000000, 4.000000, 4.000000, 4.000000, 4.000000, 4.000000, 4.000000, 4.000000
70.000000, 0.000000, 4163.589844, 4156.922852, 4161.025391, 4189.230469, 4180.000000, 4198.461426, 4207.692383, 4173.846191, 4099.487305, 4164.102539, 4146.153809, 4158.461426, 4140.000000, 4148.717773, 3501.000000, 8187.000000, 8197.000000, 0.000000, 0.000000, 0.000000, 25951.000000, 843.076904, 4.000000, 4.000000, 4.000000, 4.000000, 4.000000, 4.000000, 4.000000, 4.000000, 4.000000, 4.000000, 4.000000, 4.000000, 4.000000, 4.000000, 4.000000, 4.000000
71.000000, 0.000000, 4170.256348, 4162.051270, 4171.281738, 4192.307617, 4184.615234, 4213.333008, 4221.025391, 4175.384277, 4105.641113, 4167.692383, 4151.281738, 4161.025391, 4144.102539, 4152.820313, 3497.000000, 8185.000000, 8200.000000, 0.000000, 0.000000, 0.000000, 25951.000000, 850.769226, 4.000000, 4.000000, 4.000000, 4.000000, 4.000000, 4.000000, 4.000000, 4.000000, 4.000000, 4.000000, 4.000000, 4.000000, 4.000000, 4.000000, 4.000000, 4.000000
72.000000, 0.000000, 4184.615234, 4177.436035, 4184.615234, 4191.281738, 4197.948730, 4222.563965, 4220.000000, 4194.358887, 4135.384277, 4201.025391, 4170.769043, 4176.410156, 4162.051270, 4168.717773, 3357.000000, 8185.000000, 8200.000000, 0.000000, 0.000000, 0.000000, 25951.000000, 858.974365, 4.000000, 4.000000, 4.000000, 4.000000, 4.000000, 4.000000, 4.000000, 4.000000, 4.000000, 4.000000, 4.000000, 4.000000, 4.000000, 4.000000, 4.000000, 4.000000
73.000000, 0.000000, 4184.102539, 4182.563965, 4180.512695, 4192.307617, 4198.974121, 4219.487305, 4216.922852, 4195.897461, 4141.025391, 4214.358887, 4172.820313, 4181.538574, 4175.384277, 4177.436035, 3535.000000, 8189.000000, 8200.000000, 0.000000, 0.000000, 0.000000, 25951.000000, 866.666626, 4.000000, 4.000000, 4.000000, 4.000000, 4.000000, 4.000000, 4.000000, 4.000000, 4.000000, 4.000000, 4.000000, 4.000000, 4.000000, 4.000000, 4.000000, 4.000000
74.000000, 0.000000, 4182.563965, 4185.641113, 4180.512695, 4194.871582, 4196.922852, 4211.281738, 4222.051270, 4187.179199, 4127.179199, 4202.563965, 4171.794922, 4181.025391, 4181.538574, 4182.051270, 3275.000000, 8189.000000, 8200.000000, 0.000000, 0.000000, 0.000000, 25951.000000, 874.358948, 4.000000, 4.000000, 4.000000, 4.000000, 4.000000, 4.000000, 4.000000, 4.000000, 4.000000, 4.000000, 4.000000, 4.000000, 4.000000, 4.000000, 4.000000, 4.000000
75.000000, 0.000000, 4195.897461, 4193.846191, 4190.256348, 4201.538574, 4194.871582, 4204.102539, 4210.256348, 4186.666504, 4120.512695, 4200.512695, 4184.102539, 4189.230469, 4187.179199, 4189.743652, 3572.000000, 8189.000000, 8207.000000, 0.000000, 0.000000, 0.000000, 25951.000000, 882.051270, 4.000000, 4.000000, 4.000000, 4.000000, 4.000000, 4.000000, 4.000000, 4.000000, 4.000000, 4.000000, 4.000000, 4.000000, 4.000000, 4.000000, 4.000000, 4.000000
76.000000, 0.000000, 4204.102539, 4201.025391, 4190.769043, 4203.076660, 4192.307617, 4200.512695, 4196.410156, 4185.641113, 4119.487305, 4207.692383, 4191.281738, 4199.487305, 4189.743652, 4194.358887, 3516.000000, 8189.000000, 8207.000000, 0.000000, 0.000000, 0.000000, 25951.000000, 889.743591, 4.000000, 4.000000, 4.000000, 4.000000, 4.000000, 4.000000, 4.000000, 4.000000, 4.000000, 4.000000, 4.000000, 4.000000, 4.000000, 4.000000, 4.000000, 4.000000
77.000000, 0.000000, 4201.025391, 4202.051270, 4186.153809, 4198.461426, 4194.871582, 4203.589844, 4208.717773, 4190.256348, 4127.179199, 4212.820313, 4187.692383, 4198.974121, 4187.692383, 4191.794922, 3475.000000, 8192.000000, 8193.000000, 0.000000, 0.000000, 0.000000, 25951.000000, 897.435852, 4.000000, 4.000000, 4.000000, 4.000000, 4.000000, 4.000000, 4.000000, 4.000000, 4.000000, 4.000000, 4.000000, 4.000000, 4.000000, 4.000000, 4.000000, 4.000000
78.000000, 0.000000, 4198.461426, 4196.410156, 4191.281738, 4202.563965, 4202.563965, 4209.743652, 4222.563965, 4207.692383, 4140.512695, 4217.948730, 4192.307617, 4194.871582, 4190.769043, 4191.794922, 3275.000000, 8192.000000, 8193.000000, 0.000000, 0.000000, 0.000000, 25951.000000, 905.640991, 4.000000, 4.000000, 4.000000, 4.000000, 4.000000, 4.000000, 4.000000, 4.000000, 4.000000, 4.000000, 4.000000, 4.000000, 4.000000, 4.000000, 4.000000, 4.000000
79.000000, 0.000000, 4200.000000, 4194.871582, 4194.871582, 4202.051270, 4201.538574, 4210.256348, 4217.436035, 4220.000000, 4145.641113, 4221.538574, 4203.076660, 4196.922852, 4201.025391, 4195.897461, 3572.000000, 8187.000000, 8195.000000, 0.000000, 0.000000, 0.000000, 25951.000000, 913.333313, 4.000000, 4.000000, 4.000000, 4.000000, 4.000000, 4.000000, 4.000000, 4.000000, 4.000000, 4.000000, 4.000000, 4.000000, 4.000000, 4.000000, 4.000000, 4.000000
80.000000, 0.000000, 4197.948730, 4190.256348, 4192.820313, 4197.436035, 4191.794922, 4205.641113, 4210.769043, 4222.563965, 4148.717773, 4220.000000, 4197.436035, 4200.000000, 4188.717773, 4192.820313, 3516.000000, 8187.000000, 8195.000000, 0.000000, 0.000000, 0.000000, 25951.000000, 921.025635, 4.000000, 4.000000, 4.000000, 4.000000, 4.000000, 4.000000, 4.000000, 4.000000, 4.000000, 4.000000, 4.000000, 4.000000, 4.000000, 4.000000, 4.000000, 4.000000
81.000000, 0.000000, 4188.717773, 4181.025391, 4191.281738, 4195.897461, 4192.307617, 4204.102539, 4216.922852, 4211.794922, 4151.794922, 4215.897461, 4184.102539, 4197.948730, 4167.692383, 4182.051270, 3475.000000, 8196.000000, 8179.000000, 0.000000, 0.000000, 0.000000, 25951.000000, 928.717896, 4.000000, 4.000000, 4.000000, 4.000000, 4.000000, 4.000000, 4.000000, 4.000000, 4.000000, 4.000000, 4.000000, 4.000000, 4.000000, 4.000000, 4.000000, 4.000000
82.000000, 0.000000, 4183.076660, 4181.025391, 4185.127930, 4191.281738, 4190.256348, 4202.563965, 4218.974121, 4200.512695, 4143.589844, 4214.871582, 4187.179199, 4195.384277, 4177.436035, 4181.025391, 3275.000000, 8196.000000, 8179.000000, 0.000000, 0.000000, 0.000000, 25951.000000, 936.410217, 4.000000, 4.000000, 4.000000, 4.000000, 4.000000, 4.000000, 4.000000, 4.000000, 4.000000, 4.000000, 4.000000, 4.000000, 4.000000, 4.000000, 4.000000, 4.000000
83.000000, 0.000000, 4192.820313, 4190.769043, 4184.102539, 4196.922852, 4183.076660, 4193.846191, 4206.153809, 4205.127930, 4135.897461, 4220.512695, 4200.000000, 4200.000000, 4200.000000, 4192.820313, 3572.000000, 8193.000000, 8172.000000, 0.000000, 0.000000, 0.000000, 25951.000000, 944.615356, 4.000000, 4.000000, 4.000000, 4.000000, 4.000000, 4.000000, 4.000000, 4.000000, 4.000000, 4.000000, 4.000000, 4.000000, 4.000000, 4.000000, 4.000000, 4.000000
84.000000, 0.000000, 4207.692383, 4202.563965, 4196.922852, 4202.051270, 4191.794922, 4195.897461, 4195.384277, 4213.333008, 4143.076660, 4228.205078, 4206.153809, 4208.717773, 4211.281738, 4209.230469, 3516.000000, 8193.000000, 8172.000000, 0.000000, 0.000000, 0.000000, 25951.000000, 952.307678, 4.000000, 4.000000, 4.000000, 4.000000, 4.000000, 4.000000, 4.000000, 4.000000, 4.000000, 4.000000, 4.000000, 4.000000, 4.000000, 4.000000, 4.000000, 4.000000
85.000000, 0.000000, 4210.256348, 4204.615234, 4201.538574, 4200.000000, 4201.025391, 4204.615234, 4196.410156, 4202.563965, 4143.589844, 4227.179199, 4207.179199, 4208.205078, 4213.846191, 4215.384277, 3475.000000, 8192.000000, 8174.000000, 0.000000, 0.000000, 0.000000, 25951.000000, 960.000000, 4.000000, 4.000000, 4.000000, 4.000000, 4.000000, 4.000000, 4.000000, 4.000000, 4.000000, 4.000000, 4.000000, 4.000000, 4.000000, 4.000000, 4.000000, 4.000000
86.000000, 0.000000, 4197.436035, 4189.230469, 4188.205078, 4194.871582, 4191.281738, 4198.974121, 4200.512695, 4186.153809, 4132.307617, 4217.948730, 4199.487305, 4190.769043, 4208.717773, 4204.615234, 3275.000000, 8192.000000, 8174.000000, 0.000000, 0.000000, 0.000000, 25951.000000, 967.692261, 4.000000, 4.000000, 4.000000, 4.000000, 4.000000, 4.000000, 4.000000, 4.000000, 4.000000, 4.000000, 4.000000, 4.000000, 4.000000, 4.000000, 4.000000, 4.000000
87.000000, 0.000000, 4187.692383, 4174.871582, 4177.436035, 4183.589844, 4177.948730, 4193.846191, 4200.512695, 4183.076660, 4129.743652, 4204.102539, 4190.769043, 4177.948730, 4201.025391, 4198.461426, 3572.000000, 8189.000000, 8183.000000, 0.000000, 0.000000, 0.000000, 25951.000000, 975.897400, 4.000000, 4.000000, 4.000000, 4.000000, 4.000000, 4.000000, 4.000000, 4.000000, 4.000000, 4.000000, 4.000000, 4.000000, 4.000000, 4.000000, 4.000000, 4.000000
88.000000, 0.000000, 4192.820313, 4175.384277, 4178.461426, 4185.127930, 4181.025391, 4200.000000, 4202.051270, 4186.153809, 4132.820313, 4197.436035, 4192.820313, 4188.205078, 4200.000000, 4206.153809, 3516.000000, 8189.000000, 8183.000000, 0.000000, 0.000000, 0.000000, 25951.000000, 983.589722, 4.000000, 4.000000, 4.000000, 4.000000, 4.000000, 4.000000, 4.000000, 4.000000, 4.000000, 4.000000, 4.000000, 4.000000, 4.000000, 4.000000, 4.000000, 4.000000
89.000000, 0.000000, 4202.051270, 4178.974121, 4188.717773, 4192.820313, 4189.743652, 4205.641113, 4207.179199, 4201.025391, 4144.102539, 4208.717773, 4202.563965, 4202.563965, 4203.076660, 4215.897461, 3475.000000, 8193.000000, 8180.000000, 0.000000, 0.000000, 0.000000, 25951.000000, 991.282043, 4.000000, 4.000000, 4.000000, 4.000000, 4.000000, 4.000000, 4.000000, 4.000000, 4.000000, 4.000000, 4.000000, 4.000000, 4.000000, 4.000000, 4.000000, 4.000000
90.000000, 0.000000, 4205.127930, 4177.436035, 4202.051270, 4196.410156, 4188.205078, 4202.051270, 4206.666504, 4215.897461, 4155.384277, 4218.461426, 4205.127930, 4201.025391, 4202.563965, 4214.871582, 3275.000000, 8193.000000, 8180.000000, 0.000000, 0.000000, 0.000000, 25951.000000, 998.974304, 4.000000, 4.000000, 4.000000, 4.000000, 4.000000, 4.000000, 4.000000, 4.000000, 4.000000, 4.000000, 4.000000, 4.000000, 4.000000, 4.000000, 4.000000, 4.000000
91.000000, 0.000000, 4202.563965, 4172.820313, 4201.538574, 4197.436035, 4183.076660, 4197.436035, 4196.922852, 4203.076660, 4143.589844, 4203.076660, 4197.948730, 4194.871582, 4195.384277, 4205.641113, 3572.000000, 8195.000000, 8175.000000, 0.000000, 0.000000, 0.000000, 25952.000000, 6.666667, 4.000000, 4.000000, 4.000000, 4.000000, 4.000000, 4.000000, 4.000000, 4.000000, 4.000000, 4.000000, 4.000000, 4.000000, 4.000000, 4.000000, 4.000000, 4.000000
92.000000, 0.000000, 4194.871582, 4163.589844, 4190.256348, 4188.717773, 4183.589844, 4197.948730, 4197.436035, 4183.076660, 4126.666504, 4185.127930, 4186.153809, 4189.743652, 4183.589844, 4198.974121, 3516.000000, 8195.000000, 8175.000000, 0.000000, 0.000000, 0.000000, 25952.000000, 14.358974, 4.000000, 4.000000, 4.000000, 4.000000, 4.000000, 4.000000, 4.000000, 4.000000, 4.000000, 4.000000, 4.000000, 4.000000, 4.000000, 4.000000, 4.000000, 4.000000
93.000000, 0.000000, 4193.333008, 4156.410156, 4188.205078, 4190.769043, 4188.717773, 4201.538574, 4209.230469, 4192.307617, 4131.281738, 4188.717773, 4184.615234, 4187.179199, 4180.512695, 4197.948730, 3475.000000, 8196.000000, 8172.000000, 0.000000, 0.000000, 0.000000, 25952.000000, 22.564102, 4.000000, 4.000000, 4.000000, 4.000000, 4.000000, 4.000000, 4.000000, 4.000000, 4.000000, 4.000000, 4.000000, 4.000000, 4.000000, 4.000000, 4.000000, 4.000000
94.000000, 0.000000, 4193.333008, 4156.922852, 4190.769043, 4191.281738, 4188.717773, 4203.076660, 4207.692383, 4206.153809, 4146.153809, 4198.974121, 4193.333008, 4194.871582, 4187.179199, 4200.512695, 3275.000000, 8196.000000, 8172.000000, 0.000000, 0.000000, 0.000000, 25952.000000, 30.256409, 4.000000, 4.000000, 4.000000, 4.000000, 4.000000, 4.000000, 4.000000, 4.000000, 4.000000, 4.000000, 4.000000, 4.000000, 4.000000, 4.000000, 4.000000, 4.000000
95.000000, 0.000000, 4193.333008, 4155.384277, 4194.358887, 4188.717773, 4184.615234, 4203.076660, 4202.563965, 4198.461426, 4150.769043, 4202.051270, 4201.538574, 4210.256348, 4194.358887, 4207.692383, 3572.000000, 8203.000000, 8166.000000, 0.000000, 0.000000, 0.000000, 25952.000000, 37.948715, 4.000000, 4.000000, 4.000000, 4.000000, 4.000000, 4.000000, 4.000000, 4.000000, 4.000000, 4.000000, 4.000000, 4.000000, 4.000000, 4.000000, 4.000000, 4.000000
96.000000, 0.000000, 4201.025391, 4153.333008, 4201.538574, 4194.358887, 4182.051270, 4206.153809, 4216.410156, 4207.179199, 4155.384277, 4205.641113, 4206.666504, 4221.025391, 4200.512695, 4216.410156, 3516.000000, 8203.000000, 8166.000000, 0.000000, 0.000000, 0.000000, 25952.000000, 45.641026, 4.000000, 4.000000, 4.000000, 4.000000, 4.000000, 4.000000, 4.000000, 4.000000, 4.000000, 4.000000, 4.000000, 4.000000, 4.000000, 4.000000, 4.000000, 4.000000
97.000000, 0.000000, 4205.641113, 4155.897461, 4204.615234, 4192.307617, 4185.641113, 4202.563965, 4222.051270, 4219.487305, 4155.897461, 4207.692383, 4206.666504, 4218.461426, 4201.538574, 4217.948730, 3475.000000, 8208.000000, 8153.000000, 0.000000, 0.000000, 0.000000, 25952.000000, 53.333332, 4.000000, 4.000000, 4.000000, 4.000000, 4.000000, 4.000000, 4.000000, 4.000000, 4.000000, 4.000000, 4.000000, 4.000000, 4.000000, 4.000000, 4.000000, 4.000000
98.000000, 0.000000, 4193.846191, 4155.384277, 4201.538574, 4191.794922, 4191.281738, 4199.487305, 4213.333008, 4202.563965, 4150.769043, 4203.076660, 4202.051270, 4209.230469, 4195.897461, 4211.281738, 3275.000000, 8208.000000, 8153.000000, 0.000000, 0.000000, 0.000000, 25952.000000, 61.538460, 4.000000, 4.000000, 4.000000, 4.000000, 4.000000, 4.000000, 4.000000, 4.000000, 4.000000, 4.000000, 4.000000, 4.000000, 4.000000, 4.000000, 4.000000, 4.000000
99.000000, 0.000000, 4181.538574, 4153.333008, 4193.333008, 4189.230469, 4190.769043, 4207.692383, 4220.000000, 4200.000000, 4153.846191, 4198.974121, 4198.461426, 4204.102539, 4193.333008, 4202.051270, 3572.000000, 8205.000000, 8150.000000, 0.000000, 0.000000, 0.000000, 25952.000000, 69.230766, 4.000000, 4.000000, 4.000000, 4.000000, 4.000000, 4.000000, 4.000000, 4.000000, 4.000000, 4.000000, 4.000000, 4.000000, 4.000000, 4.000000, 4.000000, 4.000000
100.000000, 0.000000, 4185.127930, 4152.307617, 4186.666504, 4185.641113, 4184.102539, 4210.256348, 4228.205078, 4214.358887, 4155.384277, 4201.538574, 4202.563965, 4204.102539, 4197.436035, 4199.487305, 3516.000000, 8205.000000, 8150.000000, 0.000000, 0.000000, 0.000000, 25952.000000, 76.923073, 4.000000, 4.000000, 4.000000, 4.000000, 4.000000, 4.000000, 4.000000, 4.000000, 4.000000, 4.000000, 4.000000, 4.000000, 4.000000, 4.000000, 4.000000, 4.000000
101.000000, 0.000000, 4191.794922, 4152.820313, 4190.769043, 4188.717773, 4184.615234, 4203.076660, 4217.436035, 4213.846191, 4154.358887, 4206.153809, 4209.230469, 4212.307617, 4200.512695, 4209.230469, 3475.000000, 8213.000000, 8142.000000, 0.000000, 0.000000, 0.000000, 25952.000000, 84.615379, 4.000000, 4.000000, 4.000000, 4.000000, 4.000000, 4.000000, 4.000000, 4.000000, 4.000000, 4.000000, 4.000000, 4.000000, 4.000000, 4.000000, 4.000000, 4.000000
102.000000, 0.000000, 4196.922852, 4158.974121, 4205.127930, 4190.256348, 4193.846191, 4204.615234, 4210.769043, 4210.256348, 4158.974121, 4210.256348, 4212.307617, 4219.487305, 4203.589844, 4218.974121, 3275.000000, 8213.000000, 8142.000000, 0.000000, 0.000000, 0.000000, 25952.000000, 92.307693, 4.000000, 4.000000, 4.000000, 4.000000, 4.000000, 4.000000, 4.000000, 4.000000, 4.000000, 4.000000, 4.000000, 4.000000, 4.000000, 4.000000, 4.000000, 4.000000
103.000000, 0.000000, 4208.205078, 4169.743652, 4215.897461, 4198.974121, 4206.153809, 4214.358887, 4221.538574, 4216.922852, 4167.692383, 4217.948730, 4216.410156, 4222.563965, 4211.794922, 4225.127930, 3572.000000, 8210.000000, 8141.000000, 0.000000, 0.000000, 0.000000, 25952.000000, 100.512817, 4.000000, 4.000000, 4.000000, 4.000000, 4.000000, 4.000000, 4.000000, 4.000000, 4.000000, 4.000000, 4.000000, 4.000000, 4.000000, 4.000000, 4.000000, 4.000000
104.000000, 0.000000, 4213.333008, 4172.820313, 4216.410156, 4202.051270, 4203.589844, 4218.461426, 4234.358887, 4230.769043, 4180.000000, 4225.127930, 4222.051270, 4223.076660, 4218.974121, 4231.281738, 3516.000000, 8210.000000, 8141.000000, 0.000000, 0.000000, 0.000000, 25952.000000, 108.205124, 4.000000, 4.000000, 4.000000, 4.000000, 4.000000, 4.000000, 4.000000, 4.000000, 4.000000, 4.000000, 4.000000, 4.000000, 4.000000, 4.000000, 4.000000, 4.000000
105.000000, 0.000000, 4206.153809, 4169.230469, 4215.897461, 4194.358887, 4189.230469, 4217.948730, 4236.410156, 4240.512695, 4185.127930, 4222.563965, 4221.538574, 4221.538574, 4215.384277, 4230.769043, 3475.000000, 8210.000000, 8142.000000, 0.000000, 0.000000, 0.000000, 25952.000000, 115.897430, 4.000000, 4.000000, 4.000000, 4.000000, 4.000000, 4.000000, 4.000000, 4.000000, 4.000000, 4.000000, 4.000000, 4.000000, 4.000000, 4.000000, 4.000000, 4.000000
106.000000, 0.000000, 4200.512695, 4165.641113, 4213.846191, 4195.897461, 4186.666504, 4213.846191, 4226.666504, 4223.589844, 4172.820313, 4214.358887, 4216.922852, 4218.974121, 4213.846191, 4225.641113, 3275.000000, 8210.000000, 8142.000000, 0.000000, 0.000000, 0.000000, 25952.000000, 123.589737, 4.000000, 4.000000, 4.000000, 4.000000, 4.000000, 4.000000, 4.000000, 4.000000, 4.000000, 4.000000, 4.000000, 4.000000, 4.000000, 4.000000, 4.000000, 4.000000
107.000000, 0.000000, 4200.000000, 4161.025391, 4209.743652, 4194.358887, 4192.820313, 4212.820313, 4216.410156, 4201.538574, 4165.127930, 4215.384277, 4215.897461, 4216.922852, 4214.358887, 4220.512695, 3572.000000, 8209.000000, 8143.000000, 0.000000, 0.000000, 0.000000, 25952.000000, 131.282043, 4.000000, 4.000000, 4.000000, 4.000000, 4.000000, 4.000000, 4.000000, 4.000000, 4.000000, 4.000000, 4.000000, 4.000000, 4.000000, 4.000000, 4.000000, 4.000000
108.000000, 0.000000, 4200.000000, 4160.000000, 4211.794922, 4193.333008, 4191.794922, 4212.820313, 4216.410156, 4209.230469, 4178.461426, 4221.538574, 4216.410156, 4220.512695, 4209.743652, 4216.922852, 3516.000000, 8209.000000, 8143.000000, 0.000000, 0.000000, 0.000000, 25952.000000, 139.487183, 4.000000, 4.000000, 4.000000, 4.000000, 4.000000, 4.000000, 4.000000, 4.000000, 4.000000, 4.000000, 4.000000, 4.000000, 4.000000, 4.000000, 4.000000, 4.000000
109.000000, 0.000000, 4202.051270, 4166.153809, 4217.436035, 4195.897461, 4190.256348, 4206.666504, 4218.461426, 4218.974121, 4185.127930, 4223.076660, 4223.076660, 4227.692383, 4210.769043, 4223.076660, 3475.000000, 8202.000000, 8146.000000, 0.000000, 0.000000, 0.000000, 25952.000000, 147.179489, 4.000000, 4.000000, 4.000000, 4.000000, 4.000000, 4.000000, 4.000000, 4.000000, 4.000000, 4.000000, 4.000000, 4.000000, 4.000000, 4.000000, 4.000000, 4.000000
110.000000, 0.000000, 4206.153809, 4172.820313, 4217.436035, 4193.846191, 4188.717773, 4202.051270, 4216.410156, 4213.333008, 4177.436035, 4221.025391, 4232.307617, 4230.256348, 4220.512695, 4233.333008, 3275.000000, 8202.000000, 8146.000000, 0.000000, 0.000000, 0.000000, 25952.000000, 154.871796, 4.000000, 4.000000, 4.000000, 4.000000, 4.000000, 4.000000, 4.000000, 4.000000, 4.000000, 4.000000, 4.000000, 4.000000, 4.000000, 4.000000, 4.000000, 4.000000
111.000000, 0.000000, 4202.563965, 4170.769043, 4211.281738, 4197.948730, 4183.589844, 4202.563965, 4213.846191, 4203.589844, 4171.281738, 4216.922852, 4226.153809, 4222.563965, 4223.076660, 4229.743652, 3572.000000, 8202.000000, 8145.000000, 0.000000, 0.000000, 0.000000, 25952.000000, 162.564102, 4.000000, 4.000000, 4.000000, 4.000000, 4.000000, 4.000000, 4.000000, 4.000000, 4.000000, 4.000000, 4.000000, 4.000000, 4.000000, 4.000000, 4.000000, 4.000000
112.000000, 0.000000, 4198.974121, 4169.743652, 4204.615234, 4197.948730, 4189.743652, 4203.076660, 4212.820313, 4201.538574, 4170.769043, 4217.436035, 4218.461426, 4213.846191, 4218.461426, 4223.589844, 3516.000000, 8202.000000, 8145.000000, 0.000000, 0.000000, 0.000000, 25952.000000, 170.256409, 4.000000, 4.000000, 4.000000, 4.000000, 4.000000, 4.000000, 4.000000, 4.000000, 4.000000, 4.000000, 4.000000, 4.000000, 4.000000, 4.000000, 4.000000, 4.000000
113.000000, 0.000000, 4203.076660, 4173.846191, 4203.076660, 4195.897461, 4203.076660, 4205.641113, 4216.922852, 4214.358887, 4178.461426, 4220.000000, 4224.102539, 4216.410156, 4218.974121, 4230.256348, 3475.000000, 8196.000000, 8144.000000, 0.000000, 0.000000, 0.000000, 25952.000000, 178.461533, 4.000000, 4.000000, 4.000000, 4.000000, 4.000000, 4.000000, 4.000000, 4.000000, 4.000000, 4.000000, 4.000000, 4.000000, 4.000000, 4.000000, 4.000000, 4.000000
114.000000, 0.000000, 4202.563965, 4174.358887, 4203.076660, 4196.410156, 4197.436035, 4207.692383, 4218.974121, 4215.384277, 4182.563965, 4218.461426, 4224.102539, 4219.487305, 4221.025391, 4233.333008, 3275.000000, 8196.000000, 8144.000000, 0.000000, 0.000000, 0.000000, 25952.000000, 186.153839, 4.000000, 4.000000, 4.000000, 4.000000, 4.000000, 4.000000, 4.000000, 4.000000, 4.000000, 4.000000, 4.000000, 4.000000, 4.000000, 4.000000, 4.000000, 4.000000
115.000000, 0.000000, 4200.000000, 4172.307617, 4202.563965, 4188.717773, 4189.230469, 4204.102539, 4209.230469, 4200.512695, 4181.025391, 4217.948730, 4216.410156, 4215.897461, 4220.000000, 4223.589844, 3572.000000, 8191.000000, 8160.000000, 0.000000, 0.000000, 0.000000, 25952.000000, 193.846146, 4.000000, 4.000000, 4.000000, 4.000000, 4.000000, 4.000000, 4.000000, 4.000000, 4.000000, 4.000000, 4.000000, 4.000000, 4.000000, 4.000000, 4.000000, 4.000000
116.000000, 0.000000, 4202.051270, 4171.281738, 4201.025391, 4186.666504, 4186.666504, 4199.487305, 4200.000000, 4201.025391, 4178.461426, 4218.974121, 4214.871582, 4209.743652, 4217.948730, 4217.948730, 3516.000000, 8191.000000, 8160.000000, 0.000000, 0.000000, 0.000000, 25952.000000, 201.538452, 4.000000, 4.000000, 4.000000, 4.000000, 4.000000, 4.000000, 4.000000, 4.000000, 4.000000, 4.000000, 4.000000, 4.000000, 4.000000, 4.000000, 4.000000, 4.000000
117.000000, 0.000000, 4192.307617, 4167.179199, 4195.897461, 4182.563965, 4177.948730, 4195.897461, 4201.025391, 4203.076660, 4172.820313, 4210.769043, 4207.179199, 4199.487305, 4209.230469, 4210.256348, 3475.000000, 8185.000000, 8169.000000, 0.000000, 0.000000, 0.000000, 25952.000000, 209.230759, 4.000000, 4.000000, 4.000000, 4.000000, 4.000000, 4.000000, 4.000000, 4.000000, 4.000000, 4.000000, 4.000000, 4.000000, 4.000000, 4.000000, 4.000000, 4.000000
118.000000, 0.000000, 4185.127930, 4164.615234, 4192.307617, 4180.512695, 4172.820313, 4194.871582, 4202.563965, 4191.794922, 4164.102539, 4200.512695, 4196.410156, 4194.871582, 4198.461426, 4198.974121, 3275.000000, 8185.000000, 8169.000000, 0.000000, 0.000000, 0.000000, 25952.000000, 216.923065, 4.000000, 4.000000, 4.000000, 4.000000, 4.000000, 4.000000, 4.000000, 4.000000, 4.000000, 4.000000, 4.000000, 4.000000, 4.000000, 4.000000, 4.000000, 4.000000
119.000000, 0.000000, 4196.922852, 4175.384277, 4203.589844, 4190.769043, 4183.589844, 4197.948730, 4199.487305, 4194.358887, 4167.179199, 4207.692383, 4204.615234, 4208.205078, 4204.102539, 4205.641113, 3572.000000, 8188.000000, 8168.000000, 0.000000, 0.000000, 0.000000, 25952.000000, 225.128204, 4.000000, 4.000000, 4.000000, 4.000000, 4.000000, 4.000000, 4.000000, 4.000000, 4.000000, 4.000000, 4.000000, 4.000000, 4.000000, 4.000000, 4.000000, 4.000000
120.000000, 0.000000, 4207.179199, 4190.769043, 4217.436035, 4196.922852, 4195.384277, 4197.948730, 4198.974121, 4202.563965, 4178.461426, 4221.025391, 4219.487305, 4220.512695, 4217.436035, 4222.563965, 3516.000000, 8188.000000, 8168.000000, 0.000000, 0.000000, 0.000000, 25952.000000, 232.820511, 4.000000, 4.000000, 4.000000, 4.000000, 4.000000, 4.000000, 4.000000, 4.000000, 4.000000, 4.000000, 4.000000, 4.000000, 4.000000, 4.000000, 4.000000, 4.000000
121.000000, 0.000000, 4208.205078, 4190.256348, 4215.897461, 4203.076660, 4197.436035, 4196.410156, 4198.461426, 4195.897461, 4177.436035, 4216.410156, 4216.410156, 4218.461426, 4216.922852, 4223.076660, 3475.000000, 8180.000000, 8175.000000, 0.000000, 0.000000, 0.000000, 25952.000000, 240.512817, 4.000000, 4.000000, 4.000000, 4.000000, 4.000000, 4.000000, 4.000000, 4.000000, 4.000000, 4.000000, 4.000000, 4.000000, 4.000000, 4.000000, 4.000000, 4.000000
122.000000, 0.000000, 4208.717773, 4184.102539, 4213.846191, 4203.076660, 4196.410156, 4200.000000, 4201.025391, 4195.384277, 4172.820313, 4205.127930, 4214.871582, 4212.820313, 4215.384277, 4216.410156, 3275.000000, 8180.000000, 8175.000000, 0.000000, 0.000000, 0.000000, 25952.000000, 248.205124, 4.000000, 4.000000, 4.000000, 4.000000, 4.000000, 4.000000, 4.000000, 4.000000, 4.000000, 4.000000, 4.000000, 4.000000, 4.000000, 4.000000, 4.000000, 4.000000
123.000000, 0.000000, 4207.179199, 4188.205078, 4220.512695, 4199.487305, 4190.769043, 4204.615234, 4208.205078, 4204.102539, 4175.384277, 4203.076660, 4217.436035, 4208.205078, 4218.461426, 4218.974121, 3572.000000, 8179.000000, 8177.000000, 0.000000, 0.000000, 0.000000, 25952.000000, 255.897430, 4.000000, 4.000000, 4.000000, 4.000000, 4.000000, 4.000000, 4.000000, 4.000000, 4.000000, 4.000000, 4.000000, 4.000000, 4.000000, 4.000000, 4.000000, 4.000000
124.000000, 0.000000, 4206.153809, 4189.230469, 4219.487305, 4199.487305, 4180.512695, 4194.358887, 4203.076660, 4200.000000, 4171.794922, 4199.487305, 4207.692383, 4202.563965, 4207.179199, 4215.897461, 3516.000000, 8179.000000, 8177.000000, 0.000000, 0.000000, 0.000000, 25952.000000, 264.102570, 4.000000, 4.000000, 4.000000, 4.000000, 4.000000, 4.000000, 4.000000, 4.000000, 4.000000, 4.000000, 4.000000, 4.000000, 4.000000, 4.000000, 4.000000, 4.000000
125.000000, 0.000000, 4210.256348, 4186.666504, 4211.281738, 4196.410156, 4186.666504, 4191.281738, 4197.948730, 4196.922852, 4170.769043, 4197.948730, 4205.127930, 4203.589844, 4202.563965, 4211.794922, 3475.000000, 8177.000000, 8192.000000, 0.000000, 0.000000, 0.000000, 25952.000000, 271.794861, 4.000000, 4.000000, 4.000000, 4.000000, 4.000000, 4.000000, 4.000000, 4.000000, 4.000000, 4.000000, 4.000000, 4.000000, 4.000000, 4.000000, 4.000000, 4.000000
126.000000, 0.000000, 4216.410156, 4195.384277, 4215.897461, 4200.000000, 4201.025391, 4207.179199, 4210.769043, 4210.256348, 4190.256348, 4211.281738, 4225.127930, 4223.076660, 4221.025391, 4222.563965, 3275.000000, 8177.000000, 8192.000000, 0.000000, 0.000000, 0.000000, 25952.000000, 279.487183, 4.000000, 4.000000, 4.000000, 4.000000, 4.000000, 4.000000, 4.000000, 4.000000, 4.000000, 4.000000, 4.000000, 4.000000, 4.000000, 4.000000, 4.000000, 4.000000
127.000000, 0.000000, 4217.436035, 4201.538574, 4225.641113, 4201.538574, 4202.563965, 4211.281738, 4217.948730, 4221.025391, 4205.641113, 4222.051270, 4238.461426, 4238.974121, 4230.256348, 4235.384277, 53.000000, 8180.000000, 8191.000000, 0.000000, 0.000000, 0.000000, 25952.000000, 287.179474, 4.000000, 4.000000, 4.000000, 4.000000, 4.000000, 4.000000, 4.000000, 4.000000, 4.000000, 4.000000, 4.000000, 4.000000, 4.000000, 4.000000, 4.000000, 4.000000
0.000000, 0.000000, 4213.333008, 4195.897461, 4223.589844, 4198.974121, 4195.897461, 4198.974121, 4205.641113, 4221.538574, 4194.871582, 4222.051270, 4231.794922, 4235.897461, 4223.076660, 4235.897461, 3492.000000, 8180.000000, 8191.000000, 0.000000, 0.000000, 0.000000, 25952.000000, 294.871796, 4.000000, 4.000000, 4.000000, 4.000000, 4.000000, 4.000000, 4.000000, 4.000000, 4.000000, 4.000000, 4.000000, 4.000000, 4.000000, 4.000000, 4.000000, 4.000000
1.000000, 0.000000, 4201.538574, 4184.615234, 4208.717773, 4196.410156, 4186.666504, 4191.794922, 4197.436035, 4214.358887, 4183.076660, 4213.333008, 4220.000000, 4222.051270, 4215.897461, 4223.589844, 2280.000000, 8184.000000, 8192.000000, 0.000000, 0.000000, 0.000000, 25952.000000, 303.076904, 4.000000, 4.000000, 4.000000, 4.000000, 4.000000, 4.000000, 4.000000, 4.000000, 4.000000, 4.000000, 4.000000, 4.000000, 4.000000, 4.000000, 4.000000, 4.000000
2.000000, 0.000000, 4195.897461, 4178.461426, 4196.922852, 4185.127930, 4177.948730, 4194.358887, 4202.051270, 4204.615234, 4186.153809, 4203.589844, 4213.846191, 4209.743652, 4208.205078, 4213.846191, 3119.000000, 8184.000000, 8192.000000, 0.000000, 0.000000, 0.000000, 25952.000000, 310.769226, 4.000000, 4.000000, 4.000000, 4.000000, 4.000000, 4.000000, 4.000000, 4.000000, 4.000000, 4.000000, 4.000000, 4.000000, 4.000000, 4.000000, 4.000000, 4.000000
3.000000, 0.000000, 4204.102539, 4181.538574, 4206.666504, 4191.281738, 4186.666504, 4200.512695, 4203.589844, 4201.025391, 4188.717773, 4207.179199, 4215.384277, 4209.743652, 4206.666504, 4215.384277, 3551.000000, 8189.000000, 8193.000000, 0.000000, 0.000000, 0.000000, 25952.000000, 318.461517, 4.000000, 4.000000, 4.000000, 4.000000, 4.000000, 4.000000, 4.000000, 4.000000, 4.000000, 4.000000, 4.000000, 4.000000, 4.000000, 4.000000, 4.000000, 4.000000
4.000000, 0.000000, 4207.179199, 4186.666504, 4215.897461, 4201.025391, 4198.974121, 4203.076660, 4201.025391, 4202.051270, 4183.076660, 4215.897461, 4218.974121, 4216.922852, 4214.871582, 4219.487305, 3528.000000, 8189.000000, 8193.000000, 0.000000, 0.000000, 0.000000, 25952.000000, 326.153839, 4.000000, 4.000000, 4.000000, 4.000000, 4.000000, 4.000000, 4.000000, 4.000000, 4.000000, 4.000000, 4.000000, 4.000000, 4.000000, 4.000000, 4.000000, 4.000000
5.000000, 0.000000, 4205.127930, 4190.769043, 4208.205078, 4196.922852, 4195.384277, 4200.512695, 4205.641113, 4208.717773, 4189.230469, 4214.358887, 4220.512695, 4218.461426, 4218.974121, 4217.948730, 3715.000000, 8189.000000, 8190.000000, 0.000000, 0.000000, 0.000000, 25952.000000, 333.846161, 4.000000, 4.000000, 4.000000, 4.000000, 4.000000, 4.000000, 4.000000, 4.000000, 4.000000, 4.000000, 4.000000, 4.000000, 4.000000, 4.000000, 4.000000, 4.000000
6.000000, 0.000000, 4207.179199, 4200.000000, 4203.589844, 4200.000000, 4197.948730, 4205.641113, 4217.436035, 4219.487305, 4201.538574, 4215.897461, 4226.153809, 4220.000000, 4217.948730, 4218.461426, 3499.000000, 8189.000000, 8190.000000, 0.000000, 0.000000, 0.000000, 25952.000000, 341.538452, 4.000000, 4.000000, 4.000000, 4.000000, 4.000000, 4.000000, 4.000000, 4.000000, 4.000000, 4.000000, 4.000000, 4.000000, 4.000000, 4.000000, 4.000000, 4.000000
