title:neutral38, recorded:23.05.18 21.32.16, timestamp started:2018-05-23T14:18:30.888274+02:00            , sampling:128, subject:Noé, labels:COUNTER INTERPOLATED AF3 F7 F3 FC5 T7 P7 O1 O2 P8 T8 FC6 F4 F8 AF4 RAW_CQ GYROX GYROY MARKER MARKER_HARDWARE SYNC TIME_STAMP_s TIME_STAMP_ms CQ_AF3 CQ_F7 CQ_F3 CQ_FC5 CQ_T7 CQ_P7 CQ_O1 CQ_O2 CQ_P8 CQ_T8 CQ_FC6 CQ_F4 CQ_F8 CQ_AF4 CQ_CMS CQ_DRL, chan:40, samples:2848, units:emotiv
65.000000, 0.000000, 4177.436035, 4190.256348, 4184.102539, 4185.127930, 4199.487305, 4200.512695, 4202.051270, 4291.794922, 4131.281738, 4220.000000, 4194.871582, 4192.307617, 4188.205078, 4180.512695, 2278.000000, 8378.000000, 8124.000000, 0.000000, 0.000000, 0.000000, 26026.000000, 435.384613, 4.000000, 4.000000, 4.000000, 4.000000, 4.000000, 4.000000, 4.000000, 4.000000, 4.000000, 4.000000, 4.000000, 4.000000, 4.000000, 4.000000, 4.000000, 4.000000
66.000000, 0.000000, 4176.922852, 4194.871582, 4184.102539, 4186.666504, 4200.000000, 4200.000000, 4199.487305, 4297.948730, 4132.307617, 4218.461426, 4190.769043, 4188.717773, 4183.589844, 4175.384277, 3110.000000, 8378.000000, 8124.000000, 0.000000, 0.000000, 0.000000, 26026.000000, 443.076904, 4.000000, 4.000000, 4.000000, 4.000000, 4.000000, 4.000000, 4.000000, 4.000000, 4.000000, 4.000000, 4.000000, 4.000000, 4.000000, 4.000000, 4.000000, 4.000000
67.000000, 0.000000, 4170.256348, 4187.692383, 4175.384277, 4184.615234, 4186.153809, 4189.743652, 4189.230469, 4290.256348, 4123.076660, 4206.666504, 4173.333008, 4176.410156, 4170.769043, 4158.974121, 3548.000000, 8383.000000, 8108.000000, 0.000000, 0.000000, 0.000000, 26026.000000, 451.282043, 4.000000, 4.000000, 4.000000, 4.000000, 4.000000, 4.000000, 4.000000, 4.000000, 4.000000, 4.000000, 4.000000, 4.000000, 4.000000, 4.000000, 4.000000, 4.000000
68.000000, 0.000000, 4172.820313, 4188.205078, 4174.358887, 4186.153809, 4183.076660, 4179.487305, 4180.000000, 4268.717773, 4114.358887, 4194.358887, 4166.666504, 4171.794922, 4165.641113, 4156.410156, 3528.000000, 8383.000000, 8108.000000, 0.000000, 0.000000, 0.000000, 26026.000000, 459.487183, 4.000000, 4.000000, 4.000000, 4.000000, 4.000000, 4.000000, 4.000000, 4.000000, 4.000000, 4.000000, 4.000000, 4.000000, 4.000000, 4.000000, 4.000000, 4.000000
69.000000, 0.000000, 4181.025391, 4202.051270, 4181.538574, 4187.179199, 4195.897461, 4181.025391, 4177.436035, 4260.000000, 4110.256348, 4192.820313, 4172.307617, 4177.436035, 4171.281738, 4167.692383, 3562.000000, 8381.000000, 8102.000000, 0.000000, 0.000000, 0.000000, 26026.000000, 467.179474, 4.000000, 4.000000, 4.000000, 4.000000, 4.000000, 4.000000, 4.000000, 4.000000, 4.000000, 4.000000, 4.000000, 4.000000, 4.000000, 4.000000, 4.000000, 4.000000
70.000000, 0.000000, 4180.512695, 4205.641113, 4184.615234, 4193.846191, 4204.615234, 4193.333008, 4179.487305, 4263.076660, 4105.641113, 4189.230469, 4172.307617, 4184.102539, 4166.666504, 4170.256348, 3501.000000, 8381.000000, 8102.000000, 0.000000, 0.000000, 0.000000, 26026.000000, 475.384613, 4.000000, 4.000000, 4.000000, 4.000000, 4.000000, 4.000000, 4.000000, 4.000000, 4.000000, 4.000000, 4.000000, 4.000000, 4.000000, 4.000000, 4.000000, 4.000000
71.000000, 0.000000, 4174.358887, 4192.820313, 4185.127930, 4191.794922, 4197.948730, 4204.102539, 4190.769043, 4262.563965, 4103.076660, 4182.051270, 4162.563965, 4183.076660, 4152.307617, 4162.563965, 3486.000000, 8385.000000, 8101.000000, 0.000000, 0.000000, 0.000000, 26026.000000, 483.076904, 4.000000, 4.000000, 4.000000, 4.000000, 4.000000, 4.000000, 4.000000, 4.000000, 4.000000, 4.000000, 4.000000, 4.000000, 4.000000, 4.000000, 4.000000, 4.000000
72.000000, 0.000000, 4168.717773, 4181.538574, 4183.076660, 4180.000000, 4191.281738, 4210.256348, 4210.769043, 4274.871582, 4115.384277, 4184.102539, 4157.948730, 4178.974121, 4145.641113, 4154.358887, 3349.000000, 8385.000000, 8101.000000, 0.000000, 0.000000, 0.000000, 26026.000000, 490.769226, 4.000000, 4.000000, 4.000000, 4.000000, 4.000000, 4.000000, 4.000000, 4.000000, 4.000000, 4.000000, 4.000000, 4.000000, 4.000000, 4.000000, 4.000000, 4.000000
73.000000, 0.000000, 4170.256348, 4183.076660, 4181.025391, 4181.025391, 4194.871582, 4210.769043, 4219.487305, 4294.358887, 4136.410156, 4202.051270, 4172.307617, 4186.153809, 4157.948730, 4160.512695, 3529.000000, 8376.000000, 8096.000000, 0.000000, 0.000000, 0.000000, 26026.000000, 498.974335, 4.000000, 4.000000, 4.000000, 4.000000, 4.000000, 4.000000, 4.000000, 4.000000, 4.000000, 4.000000, 4.000000, 4.000000, 4.000000, 4.000000, 4.000000, 4.000000
74.000000, 0.000000, 4181.538574, 4183.589844, 4190.769043, 4180.512695, 4197.436035, 4206.666504, 4211.281738, 4297.436035, 4146.666504, 4225.127930, 4193.846191, 4204.102539, 4175.897461, 4181.538574, 3241.000000, 8376.000000, 8096.000000, 0.000000, 0.000000, 0.000000, 26026.000000, 507.179474, 4.000000, 4.000000, 4.000000, 4.000000, 4.000000, 4.000000, 4.000000, 4.000000, 4.000000, 4.000000, 4.000000, 4.000000, 4.000000, 4.000000, 4.000000, 4.000000
75.000000, 0.000000, 4195.897461, 4182.563965, 4209.743652, 4188.205078, 4196.922852, 4202.563965, 4201.025391, 4292.820313, 4143.589844, 4234.358887, 4207.692383, 4223.076660, 4190.769043, 4200.512695, 3569.000000, 8368.000000, 8097.000000, 0.000000, 0.000000, 0.000000, 26026.000000, 514.871765, 4.000000, 4.000000, 4.000000, 4.000000, 4.000000, 4.000000, 4.000000, 4.000000, 4.000000, 4.000000, 4.000000, 4.000000, 4.000000, 4.000000, 4.000000, 4.000000
76.000000, 0.000000, 4211.794922, 4205.641113, 4222.051270, 4201.538574, 4202.051270, 4202.563965, 4200.000000, 4297.436035, 4143.076660, 4237.948730, 4221.538574, 4234.871582, 4212.307617, 4217.948730, 3509.000000, 8368.000000, 8097.000000, 0.000000, 0.000000, 0.000000, 26026.000000, 523.076904, 4.000000, 4.000000, 4.000000, 4.000000, 4.000000, 4.000000, 4.000000, 4.000000, 4.000000, 4.000000, 4.000000, 4.000000, 4.000000, 4.000000, 4.000000, 4.000000
77.000000, 0.000000, 4220.512695, 4227.692383, 4224.615234, 4201.025391, 4205.127930, 4206.666504, 4206.666504, 4297.948730, 4143.076660, 4239.487305, 4226.153809, 4232.307617, 4220.512695, 4223.589844, 3473.000000, 8347.000000, 8104.000000, 0.000000, 0.000000, 0.000000, 26026.000000, 530.769226, 4.000000, 4.000000, 4.000000, 4.000000, 4.000000, 4.000000, 4.000000, 4.000000, 4.000000, 4.000000, 4.000000, 4.000000, 4.000000, 4.000000, 4.000000, 4.000000
78.000000, 0.000000, 4207.179199, 4217.948730, 4215.384277, 4200.000000, 4200.000000, 4201.538574, 4207.179199, 4285.127930, 4137.948730, 4227.179199, 4211.281738, 4217.436035, 4202.051270, 4205.127930, 3241.000000, 8347.000000, 8104.000000, 0.000000, 0.000000, 0.000000, 26026.000000, 538.974365, 4.000000, 4.000000, 4.000000, 4.000000, 4.000000, 4.000000, 4.000000, 4.000000, 4.000000, 4.000000, 4.000000, 4.000000, 4.000000, 4.000000, 4.000000, 4.000000
79.000000, 0.000000, 4187.179199, 4213.333008, 4201.025391, 4197.948730, 4199.487305, 4188.205078, 4192.307617, 4277.948730, 4131.794922, 4216.922852, 4197.436035, 4203.076660, 4187.692383, 4183.589844, 3569.000000, 8335.000000, 8107.000000, 0.000000, 0.000000, 0.000000, 26026.000000, 546.666626, 4.000000, 4.000000, 4.000000, 4.000000, 4.000000, 4.000000, 4.000000, 4.000000, 4.000000, 4.000000, 4.000000, 4.000000, 4.000000, 4.000000, 4.000000, 4.000000
80.000000, 0.000000, 4181.538574, 4221.538574, 4189.743652, 4194.871582, 4201.538574, 4183.589844, 4178.461426, 4280.512695, 4122.051270, 4213.846191, 4190.769043, 4193.846191, 4182.563965, 4174.358887, 3509.000000, 8335.000000, 8107.000000, 0.000000, 0.000000, 0.000000, 26026.000000, 554.358948, 4.000000, 4.000000, 4.000000, 4.000000, 4.000000, 4.000000, 4.000000, 4.000000, 4.000000, 4.000000, 4.000000, 4.000000, 4.000000, 4.000000, 4.000000, 4.000000
81.000000, 0.000000, 4179.487305, 4210.256348, 4183.589844, 4192.307617, 4195.897461, 4195.897461, 4185.641113, 4275.897461, 4119.487305, 4205.641113, 4180.512695, 4186.666504, 4174.871582, 4168.205078, 3473.000000, 8321.000000, 8095.000000, 0.000000, 0.000000, 0.000000, 26026.000000, 562.564087, 4.000000, 4.000000, 4.000000, 4.000000, 4.000000, 4.000000, 4.000000, 4.000000, 4.000000, 4.000000, 4.000000, 4.000000, 4.000000, 4.000000, 4.000000, 4.000000
82.000000, 0.000000, 4179.487305, 4203.589844, 4184.615234, 4191.281738, 4192.307617, 4200.512695, 4192.820313, 4262.563965, 4123.076660, 4199.487305, 4177.436035, 4181.538574, 4171.794922, 4167.179199, 3241.000000, 8321.000000, 8095.000000, 0.000000, 0.000000, 0.000000, 26026.000000, 570.256409, 4.000000, 4.000000, 4.000000, 4.000000, 4.000000, 4.000000, 4.000000, 4.000000, 4.000000, 4.000000, 4.000000, 4.000000, 4.000000, 4.000000, 4.000000, 4.000000
83.000000, 0.000000, 4182.563965, 4213.846191, 4185.641113, 4196.922852, 4200.000000, 4186.666504, 4185.127930, 4257.436035, 4118.974121, 4200.000000, 4180.000000, 4178.461426, 4171.794922, 4169.230469, 3569.000000, 8295.000000, 8095.000000, 0.000000, 0.000000, 0.000000, 26026.000000, 577.948730, 4.000000, 4.000000, 4.000000, 4.000000, 4.000000, 4.000000, 4.000000, 4.000000, 4.000000, 4.000000, 4.000000, 4.000000, 4.000000, 4.000000, 4.000000, 4.000000
84.000000, 0.000000, 4178.974121, 4212.820313, 4182.051270, 4191.281738, 4204.615234, 4182.051270, 4184.615234, 4263.589844, 4123.076660, 4202.563965, 4180.000000, 4177.948730, 4172.307617, 4168.205078, 3509.000000, 8295.000000, 8095.000000, 0.000000, 0.000000, 0.000000, 26026.000000, 586.153809, 4.000000, 4.000000, 4.000000, 4.000000, 4.000000, 4.000000, 4.000000, 4.000000, 4.000000, 4.000000, 4.000000, 4.000000, 4.000000, 4.000000, 4.000000, 4.000000
85.000000, 0.000000, 4179.487305, 4207.179199, 4183.076660, 4189.743652, 4200.000000, 4192.820313, 4194.358887, 4265.127930, 4136.410156, 4210.769043, 4183.076660, 4185.127930, 4182.563965, 4171.794922, 3473.000000, 8278.000000, 8096.000000, 0.000000, 0.000000, 0.000000, 26026.000000, 593.846130, 4.000000, 4.000000, 4.000000, 4.000000, 4.000000, 4.000000, 4.000000, 4.000000, 4.000000, 4.000000, 4.000000, 4.000000, 4.000000, 4.000000, 4.000000, 4.000000
86.000000, 0.000000, 4180.512695, 4206.153809, 4187.692383, 4193.846191, 4200.000000, 4198.461426, 4201.538574, 4268.717773, 4139.487305, 4215.384277, 4186.153809, 4188.717773, 4182.563965, 4175.897461, 3241.000000, 8278.000000, 8096.000000, 0.000000, 0.000000, 0.000000, 26026.000000, 602.051270, 4.000000, 4.000000, 4.000000, 4.000000, 4.000000, 4.000000, 4.000000, 4.000000, 4.000000, 4.000000, 4.000000, 4.000000, 4.000000, 4.000000, 4.000000, 4.000000
87.000000, 0.000000, 4176.410156, 4204.102539, 4186.666504, 4190.256348, 4204.615234, 4200.512695, 4203.589844, 4281.538574, 4143.076660, 4213.333008, 4186.666504, 4185.127930, 4172.307617, 4174.358887, 3569.000000, 8239.000000, 8108.000000, 0.000000, 0.000000, 0.000000, 26026.000000, 610.256409, 4.000000, 4.000000, 4.000000, 4.000000, 4.000000, 4.000000, 4.000000, 4.000000, 4.000000, 4.000000, 4.000000, 4.000000, 4.000000, 4.000000, 4.000000, 4.000000
88.000000, 0.000000, 4176.410156, 4202.563965, 4183.589844, 4193.333008, 4203.076660, 4205.641113, 4204.615234, 4292.307617, 4151.794922, 4212.820313, 4187.692383, 4187.692383, 4173.333008, 4171.794922, 3509.000000, 8239.000000, 8108.000000, 0.000000, 0.000000, 0.000000, 26026.000000, 617.948730, 4.000000, 4.000000, 4.000000, 4.000000, 4.000000, 4.000000, 4.000000, 4.000000, 4.000000, 4.000000, 4.000000, 4.000000, 4.000000, 4.000000, 4.000000, 4.000000
89.000000, 0.000000, 4180.000000, 4204.102539, 4184.102539, 4192.820313, 4201.538574, 4201.025391, 4197.436035, 4282.563965, 4143.589844, 4208.717773, 4190.769043, 4193.333008, 4177.948730, 4171.794922, 3473.000000, 8228.000000, 8119.000000, 0.000000, 0.000000, 0.000000, 26026.000000, 625.640991, 4.000000, 4.000000, 4.000000, 4.000000, 4.000000, 4.000000, 4.000000, 4.000000, 4.000000, 4.000000, 4.000000, 4.000000, 4.000000, 4.000000, 4.000000, 4.000000
90.000000, 0.000000, 4182.563965, 4203.589844, 4184.615234, 4191.794922, 4200.512695, 4188.205078, 4184.615234, 4258.974121, 4129.230469, 4200.512695, 4187.179199, 4188.205078, 4170.769043, 4173.333008, 3241.000000, 8228.000000, 8119.000000, 0.000000, 0.000000, 0.000000, 26026.000000, 633.846130, 4.000000, 4.000000, 4.000000, 4.000000, 4.000000, 4.000000, 4.000000, 4.000000, 4.000000, 4.000000, 4.000000, 4.000000, 4.000000, 4.000000, 4.000000, 4.000000
91.000000, 0.000000, 4177.948730, 4201.538574, 4176.922852, 4195.897461, 4195.384277, 4190.256348, 4187.179199, 4255.897461, 4132.820313, 4198.461426, 4176.922852, 4174.871582, 4160.512695, 4165.127930, 3569.000000, 8213.000000, 8129.000000, 0.000000, 0.000000, 0.000000, 26026.000000, 641.538452, 4.000000, 4.000000, 4.000000, 4.000000, 4.000000, 4.000000, 4.000000, 4.000000, 4.000000, 4.000000, 4.000000, 4.000000, 4.000000, 4.000000, 4.000000, 4.000000
92.000000, 0.000000, 4174.358887, 4204.102539, 4168.717773, 4191.281738, 4197.948730, 4204.102539, 4202.051270, 4266.666504, 4131.794922, 4200.512695, 4175.384277, 4168.717773, 4160.512695, 4156.922852, 3509.000000, 8213.000000, 8129.000000, 0.000000, 0.000000, 0.000000, 26026.000000, 649.230774, 4.000000, 4.000000, 4.000000, 4.000000, 4.000000, 4.000000, 4.000000, 4.000000, 4.000000, 4.000000, 4.000000, 4.000000, 4.000000, 4.000000, 4.000000, 4.000000
93.000000, 0.000000, 4175.384277, 4201.538574, 4169.743652, 4193.846191, 4207.692383, 4201.538574, 4200.000000, 4264.615234, 4121.025391, 4196.922852, 4180.512695, 4173.846191, 4164.615234, 4157.436035, 3473.000000, 8206.000000, 8133.000000, 0.000000, 0.000000, 0.000000, 26026.000000, 657.435852, 4.000000, 4.000000, 4.000000, 4.000000, 4.000000, 4.000000, 4.000000, 4.000000, 4.000000, 4.000000, 4.000000, 4.000000, 4.000000, 4.000000, 4.000000, 4.000000
94.000000, 0.000000, 4171.281738, 4190.769043, 4171.281738, 4189.743652, 4204.102539, 4187.179199, 4188.205078, 4253.846191, 4123.076660, 4188.717773, 4175.384277, 4175.897461, 4159.487305, 4156.410156, 3241.000000, 8206.000000, 8133.000000, 0.000000, 0.000000, 0.000000, 26026.000000, 665.640991, 4.000000, 4.000000, 4.000000, 4.000000, 4.000000, 4.000000, 4.000000, 4.000000, 4.000000, 4.000000, 4.000000, 4.000000, 4.000000, 4.000000, 4.000000, 4.000000
95.000000, 0.000000, 4169.230469, 4183.589844, 4172.307617, 4181.025391, 4197.948730, 4191.794922, 4188.717773, 4247.179199, 4125.641113, 4182.051270, 4167.692383, 4171.794922, 4153.846191, 4155.384277, 3569.000000, 8204.000000, 8132.000000, 0.000000, 0.000000, 0.000000, 26026.000000, 673.333313, 4.000000, 4.000000, 4.000000, 4.000000, 4.000000, 4.000000, 4.000000, 4.000000, 4.000000, 4.000000, 4.000000, 4.000000, 4.000000, 4.000000, 4.000000, 4.000000
96.000000, 0.000000, 4175.897461, 4190.256348, 4182.051270, 4188.717773, 4202.563965, 4204.615234, 4190.769043, 4246.153809, 4120.000000, 4184.615234, 4170.256348, 4177.436035, 4164.615234, 4165.641113, 3509.000000, 8204.000000, 8132.000000, 0.000000, 0.000000, 0.000000, 26026.000000, 681.025635, 4.000000, 4.000000, 4.000000, 4.000000, 4.000000, 4.000000, 4.000000, 4.000000, 4.000000, 4.000000, 4.000000, 4.000000, 4.000000, 4.000000, 4.000000, 4.000000
97.000000, 0.000000, 4190.769043, 4200.000000, 4193.333008, 4196.922852, 4206.153809, 4202.563965, 4186.153809, 4252.307617, 4128.717773, 4191.794922, 4181.025391, 4188.717773, 4178.461426, 4182.563965, 3473.000000, 8198.000000, 8143.000000, 0.000000, 0.000000, 0.000000, 26026.000000, 689.230774, 4.000000, 4.000000, 4.000000, 4.000000, 4.000000, 4.000000, 4.000000, 4.000000, 4.000000, 4.000000, 4.000000, 4.000000, 4.000000, 4.000000, 4.000000, 4.000000
98.000000, 0.000000, 4191.794922, 4189.743652, 4197.436035, 4197.436035, 4202.563965, 4198.461426, 4186.666504, 4248.205078, 4136.410156, 4187.179199, 4178.461426, 4189.743652, 4162.051270, 4177.436035, 3241.000000, 8198.000000, 8143.000000, 0.000000, 0.000000, 0.000000, 26026.000000, 696.923035, 4.000000, 4.000000, 4.000000, 4.000000, 4.000000, 4.000000, 4.000000, 4.000000, 4.000000, 4.000000, 4.000000, 4.000000, 4.000000, 4.000000, 4.000000, 4.000000
99.000000, 0.000000, 4182.563965, 4181.025391, 4198.974121, 4193.333008, 4202.051270, 4200.000000, 4186.153809, 4234.358887, 4126.153809, 4182.051270, 4167.692383, 4183.589844, 4148.205078, 4166.153809, 3569.000000, 8198.000000, 8149.000000, 0.000000, 0.000000, 0.000000, 26026.000000, 705.128174, 4.000000, 4.000000, 4.000000, 4.000000, 4.000000, 4.000000, 4.000000, 4.000000, 4.000000, 4.000000, 4.000000, 4.000000, 4.000000, 4.000000, 4.000000, 4.000000
100.000000, 0.000000, 4192.820313, 4193.333008, 4202.051270, 4196.410156, 4202.051270, 4201.538574, 4182.051270, 4235.384277, 4126.666504, 4191.794922, 4175.384277, 4186.666504, 4174.358887, 4182.051270, 3509.000000, 8198.000000, 8149.000000, 0.000000, 0.000000, 0.000000, 26026.000000, 712.820496, 4.000000, 4.000000, 4.000000, 4.000000, 4.000000, 4.000000, 4.000000, 4.000000, 4.000000, 4.000000, 4.000000, 4.000000, 4.000000, 4.000000, 4.000000, 4.000000
101.000000, 0.000000, 4200.512695, 4195.897461, 4202.563965, 4201.025391, 4201.538574, 4198.461426, 4187.179199, 4241.025391, 4135.897461, 4201.025391, 4191.794922, 4189.743652, 4196.922852, 4195.384277, 3473.000000, 8207.000000, 8149.000000, 0.000000, 0.000000, 0.000000, 26026.000000, 720.512817, 4.000000, 4.000000, 4.000000, 4.000000, 4.000000, 4.000000, 4.000000, 4.000000, 4.000000, 4.000000, 4.000000, 4.000000, 4.000000, 4.000000, 4.000000, 4.000000
102.000000, 0.000000, 4188.205078, 4182.563965, 4195.897461, 4192.307617, 4202.563965, 4192.307617, 4188.717773, 4233.846191, 4131.281738, 4197.436035, 4189.743652, 4184.615234, 4188.717773, 4186.153809, 3241.000000, 8207.000000, 8149.000000, 0.000000, 0.000000, 0.000000, 26026.000000, 728.717957, 4.000000, 4.000000, 4.000000, 4.000000, 4.000000, 4.000000, 4.000000, 4.000000, 4.000000, 4.000000, 4.000000, 4.000000, 4.000000, 4.000000, 4.000000, 4.000000
103.000000, 0.000000, 4181.538574, 4181.538574, 4190.256348, 4197.436035, 4194.358887, 4182.563965, 4176.410156, 4220.000000, 4122.563965, 4194.871582, 4183.589844, 4185.127930, 4189.743652, 4182.563965, 3569.000000, 8209.000000, 8150.000000, 0.000000, 0.000000, 0.000000, 26026.000000, 736.410217, 4.000000, 4.000000, 4.000000, 4.000000, 4.000000, 4.000000, 4.000000, 4.000000, 4.000000, 4.000000, 4.000000, 4.000000, 4.000000, 4.000000, 4.000000, 4.000000
104.000000, 0.000000, 4187.692383, 4187.179199, 4191.794922, 4202.563965, 4187.692383, 4174.871582, 4168.205078, 4209.743652, 4120.512695, 4198.461426, 4188.717773, 4187.179199, 4206.153809, 4189.743652, 3509.000000, 8209.000000, 8150.000000, 0.000000, 0.000000, 0.000000, 26026.000000, 744.615356, 4.000000, 4.000000, 4.000000, 4.000000, 4.000000, 4.000000, 4.000000, 4.000000, 4.000000, 4.000000, 4.000000, 4.000000, 4.000000, 4.000000, 4.000000, 4.000000
105.000000, 0.000000, 4191.281738, 4186.153809, 4196.922852, 4198.461426, 4199.487305, 4176.410156, 4168.205078, 4217.436035, 4126.153809, 4200.512695, 4192.307617, 4185.127930, 4205.127930, 4192.820313, 3473.000000, 8212.000000, 8149.000000, 0.000000, 0.000000, 0.000000, 26026.000000, 752.307678, 4.000000, 4.000000, 4.000000, 4.000000, 4.000000, 4.000000, 4.000000, 4.000000, 4.000000, 4.000000, 4.000000, 4.000000, 4.000000, 4.000000, 4.000000, 4.000000
106.000000, 0.000000, 4195.384277, 4192.820313, 4203.589844, 4207.179199, 4211.281738, 4184.615234, 4174.358887, 4235.384277, 4135.897461, 4202.563965, 4192.307617, 4190.769043, 4200.512695, 4196.922852, 3241.000000, 8212.000000, 8149.000000, 0.000000, 0.000000, 0.000000, 26026.000000, 760.000000, 4.000000, 4.000000, 4.000000, 4.000000, 4.000000, 4.000000, 4.000000, 4.000000, 4.000000, 4.000000, 4.000000, 4.000000, 4.000000, 4.000000, 4.000000, 4.000000
107.000000, 0.000000, 4196.410156, 4196.410156, 4203.589844, 4209.743652, 4205.641113, 4187.179199, 4182.051270, 4233.846191, 4136.922852, 4205.127930, 4191.281738, 4196.922852, 4204.102539, 4195.384277, 3569.000000, 8228.000000, 8156.000000, 0.000000, 0.000000, 0.000000, 26026.000000, 768.205139, 4.000000, 4.000000, 4.000000, 4.000000, 4.000000, 4.000000, 4.000000, 4.000000, 4.000000, 4.000000, 4.000000, 4.000000, 4.000000, 4.000000, 4.000000, 4.000000
108.000000, 0.000000, 4188.205078, 4185.641113, 4193.333008, 4203.076660, 4199.487305, 4184.102539, 4185.641113, 4227.179199, 4133.846191, 4203.076660, 4187.692383, 4188.717773, 4204.615234, 4185.641113, 3509.000000, 8228.000000, 8156.000000, 0.000000, 0.000000, 0.000000, 26026.000000, 775.897400, 4.000000, 4.000000, 4.000000, 4.000000, 4.000000, 4.000000, 4.000000, 4.000000, 4.000000, 4.000000, 4.000000, 4.000000, 4.000000, 4.000000, 4.000000, 4.000000
109.000000, 0.000000, 4182.051270, 4180.512695, 4184.615234, 4200.000000, 4201.538574, 4184.102539, 4184.102539, 4235.384277, 4138.974121, 4201.025391, 4184.615234, 4178.461426, 4198.461426, 4183.589844, 3473.000000, 8232.000000, 8163.000000, 0.000000, 0.000000, 0.000000, 26026.000000, 784.102539, 4.000000, 4.000000, 4.000000, 4.000000, 4.000000, 4.000000, 4.000000, 4.000000, 4.000000, 4.000000, 4.000000, 4.000000, 4.000000, 4.000000, 4.000000, 4.000000
110.000000, 0.000000, 4184.615234, 4183.076660, 4186.153809, 4200.000000, 4201.538574, 4186.666504, 4184.102539, 4230.769043, 4139.487305, 4202.051270, 4184.615234, 4181.025391, 4197.436035, 4185.641113, 3241.000000, 8232.000000, 8163.000000, 0.000000, 0.000000, 0.000000, 26026.000000, 791.794861, 4.000000, 4.000000, 4.000000, 4.000000, 4.000000, 4.000000, 4.000000, 4.000000, 4.000000, 4.000000, 4.000000, 4.000000, 4.000000, 4.000000, 4.000000, 4.000000
111.000000, 0.000000, 4188.205078, 4186.153809, 4194.358887, 4207.179199, 4197.436035, 4186.153809, 4186.153809, 4220.000000, 4136.410156, 4204.102539, 4192.307617, 4191.281738, 4208.717773, 4187.179199, 3569.000000, 8230.000000, 8165.000000, 0.000000, 0.000000, 0.000000, 26026.000000, 800.000000, 4.000000, 4.000000, 4.000000, 4.000000, 4.000000, 4.000000, 4.000000, 4.000000, 4.000000, 4.000000, 4.000000, 4.000000, 4.000000, 4.000000, 4.000000, 4.000000
112.000000, 0.000000, 4185.641113, 4186.153809, 4198.974121, 4206.666504, 4198.461426, 4185.127930, 4185.127930, 4226.153809, 4142.051270, 4212.307617, 4201.538574, 4197.436035, 4215.897461, 4189.743652, 3509.000000, 8230.000000, 8165.000000, 0.000000, 0.000000, 0.000000, 26026.000000, 807.692261, 4.000000, 4.000000, 4.000000, 4.000000, 4.000000, 4.000000, 4.000000, 4.000000, 4.000000, 4.000000, 4.000000, 4.000000, 4.000000, 4.000000, 4.000000, 4.000000
113.000000, 0.000000, 4188.717773, 4189.230469, 4203.589844, 4205.641113, 4205.641113, 4191.281738, 4184.615234, 4234.871582, 4144.102539, 4217.436035, 4202.563965, 4200.512695, 4212.307617, 4194.358887, 3473.000000, 8226.000000, 8159.000000, 0.000000, 0.000000, 0.000000, 26026.000000, 815.384583, 4.000000, 4.000000, 4.000000, 4.000000, 4.000000, 4.000000, 4.000000, 4.000000, 4.000000, 4.000000, 4.000000, 4.000000, 4.000000, 4.000000, 4.000000, 4.000000
114.000000, 0.000000, 4198.974121, 4193.333008, 4209.230469, 4210.256348, 4208.717773, 4197.436035, 4191.794922, 4233.846191, 4140.512695, 4216.410156, 4202.051270, 4206.153809, 4213.333008, 4201.025391, 3241.000000, 8226.000000, 8159.000000, 0.000000, 0.000000, 0.000000, 26026.000000, 823.076904, 4.000000, 4.000000, 4.000000, 4.000000, 4.000000, 4.000000, 4.000000, 4.000000, 4.000000, 4.000000, 4.000000, 4.000000, 4.000000, 4.000000, 4.000000, 4.000000
115.000000, 0.000000, 4200.512695, 4191.794922, 4209.230469, 4207.179199, 4203.076660, 4189.743652, 4196.410156, 4231.794922, 4138.461426, 4215.897461, 4203.589844, 4202.563965, 4218.974121, 4203.076660, 3569.000000, 8235.000000, 8148.000000, 0.000000, 0.000000, 0.000000, 26026.000000, 831.282043, 4.000000, 4.000000, 4.000000, 4.000000, 4.000000, 4.000000, 4.000000, 4.000000, 4.000000, 4.000000, 4.000000, 4.000000, 4.000000, 4.000000, 4.000000, 4.000000
116.000000, 0.000000, 4193.846191, 4185.641113, 4202.563965, 4207.179199, 4196.922852, 4182.563965, 4189.743652, 4230.769043, 4136.410156, 4214.358887, 4198.974121, 4193.333008, 4211.281738, 4197.436035, 3509.000000, 8235.000000, 8148.000000, 0.000000, 0.000000, 0.000000, 26026.000000, 839.487183, 4.000000, 4.000000, 4.000000, 4.000000, 4.000000, 4.000000, 4.000000, 4.000000, 4.000000, 4.000000, 4.000000, 4.000000, 4.000000, 4.000000, 4.000000, 4.000000
117.000000, 0.000000, 4195.897461, 4185.641113, 4198.461426, 4204.615234, 4201.025391, 4188.205078, 4186.666504, 4233.333008, 4139.487305, 4212.307617, 4197.948730, 4195.897461, 4203.076660, 4197.436035, 3473.000000, 8229.000000, 8151.000000, 0.000000, 0.000000, 0.000000, 26026.000000, 847.179443, 4.000000, 4.000000, 4.000000, 4.000000, 4.000000, 4.000000, 4.000000, 4.000000, 4.000000, 4.000000, 4.000000, 4.000000, 4.000000, 4.000000, 4.000000, 4.000000
118.000000, 0.000000, 4200.512695, 4187.692383, 4199.487305, 4206.153809, 4203.589844, 4189.230469, 4192.307617, 4235.384277, 4146.153809, 4213.333008, 4201.538574, 4203.589844, 4209.743652, 4202.051270, 3241.000000, 8229.000000, 8151.000000, 0.000000, 0.000000, 0.000000, 26026.000000, 854.871765, 4.000000, 4.000000, 4.000000, 4.000000, 4.000000, 4.000000, 4.000000, 4.000000, 4.000000, 4.000000, 4.000000, 4.000000, 4.000000, 4.000000, 4.000000, 4.000000
119.000000, 0.000000, 4196.410156, 4184.615234, 4197.436035, 4209.230469, 4189.743652, 4185.127930, 4188.717773, 4234.358887, 4145.641113, 4215.384277, 4199.487305, 4202.051270, 4213.333008, 4202.051270, 3569.000000, 8227.000000, 8159.000000, 0.000000, 0.000000, 0.000000, 26026.000000, 863.076904, 4.000000, 4.000000, 4.000000, 4.000000, 4.000000, 4.000000, 4.000000, 4.000000, 4.000000, 4.000000, 4.000000, 4.000000, 4.000000, 4.000000, 4.000000, 4.000000
120.000000, 0.000000, 4196.922852, 4183.589844, 4197.948730, 4203.076660, 4182.051270, 4184.102539, 4182.051270, 4232.307617, 4143.076660, 4216.410156, 4198.461426, 4198.461426, 4208.205078, 4200.512695, 3509.000000, 8227.000000, 8159.000000, 0.000000, 0.000000, 0.000000, 26026.000000, 870.769226, 4.000000, 4.000000, 4.000000, 4.000000, 4.000000, 4.000000, 4.000000, 4.000000, 4.000000, 4.000000, 4.000000, 4.000000, 4.000000, 4.000000, 4.000000, 4.000000
121.000000, 0.000000, 4200.000000, 4184.615234, 4201.538574, 4202.051270, 4193.846191, 4186.153809, 4192.307617, 4227.692383, 4141.538574, 4214.871582, 4200.000000, 4202.051270, 4209.230469, 4204.102539, 3473.000000, 8222.000000, 8159.000000, 0.000000, 0.000000, 0.000000, 26026.000000, 878.974365, 4.000000, 4.000000, 4.000000, 4.000000, 4.000000, 4.000000, 4.000000, 4.000000, 4.000000, 4.000000, 4.000000, 4.000000, 4.000000, 4.000000, 4.000000, 4.000000
122.000000, 0.000000, 4201.538574, 4182.563965, 4203.589844, 4203.076660, 4203.076660, 4190.769043, 4198.974121, 4229.743652, 4141.025391, 4215.384277, 4201.025391, 4205.641113, 4217.436035, 4209.230469, 3241.000000, 8222.000000, 8159.000000, 0.000000, 0.000000, 0.000000, 26026.000000, 886.666626, 4.000000, 4.000000, 4.000000, 4.000000, 4.000000, 4.000000, 4.000000, 4.000000, 4.000000, 4.000000, 4.000000, 4.000000, 4.000000, 4.000000, 4.000000, 4.000000
123.000000, 0.000000, 4205.127930, 4177.948730, 4203.589844, 4202.563965, 4195.384277, 4189.743652, 4189.743652, 4237.948730, 4141.025391, 4218.461426, 4201.538574, 4203.589844, 4213.333008, 4208.717773, 3569.000000, 8226.000000, 8158.000000, 0.000000, 0.000000, 0.000000, 26026.000000, 894.358948, 4.000000, 4.000000, 4.000000, 4.000000, 4.000000, 4.000000, 4.000000, 4.000000, 4.000000, 4.000000, 4.000000, 4.000000, 4.000000, 4.000000, 4.000000, 4.000000
124.000000, 0.000000, 4196.410156, 4170.769043, 4196.410156, 4200.512695, 4186.153809, 4184.102539, 4182.563965, 4222.563965, 4133.333008, 4211.794922, 4195.897461, 4197.948730, 4202.051270, 4198.461426, 3509.000000, 8226.000000, 8158.000000, 0.000000, 0.000000, 0.000000, 26026.000000, 902.051270, 4.000000, 4.000000, 4.000000, 4.000000, 4.000000, 4.000000, 4.000000, 4.000000, 4.000000, 4.000000, 4.000000, 4.000000, 4.000000, 4.000000, 4.000000, 4.000000
125.000000, 0.000000, 4184.102539, 4165.641113, 4185.641113, 4195.384277, 4186.153809, 4187.692383, 4185.127930, 4196.922852, 4123.589844, 4203.076660, 4190.769043, 4190.769043, 4198.461426, 4186.666504, 3473.000000, 8217.000000, 8147.000000, 0.000000, 0.000000, 0.000000, 26026.000000, 910.256409, 4.000000, 4.000000, 4.000000, 4.000000, 4.000000, 4.000000, 4.000000, 4.000000, 4.000000, 4.000000, 4.000000, 4.000000, 4.000000, 4.000000, 4.000000, 4.000000
126.000000, 0.000000, 4188.717773, 4171.281738, 4188.205078, 4204.102539, 4195.384277, 4194.871582, 4187.692383, 4200.000000, 4128.717773, 4208.205078, 4197.436035, 4194.871582, 4205.127930, 4190.769043, 3241.000000, 8217.000000, 8147.000000, 0.000000, 0.000000, 0.000000, 26026.000000, 918.461487, 4.000000, 4.000000, 4.000000, 4.000000, 4.000000, 4.000000, 4.000000, 4.000000, 4.000000, 4.000000, 4.000000, 4.000000, 4.000000, 4.000000, 4.000000, 4.000000
127.000000, 0.000000, 4198.461426, 4185.127930, 4197.948730, 4208.717773, 4198.974121, 4193.846191, 4185.641113, 4221.538574, 4142.563965, 4218.974121, 4203.076660, 4205.641113, 4212.307617, 4200.512695, 52.000000, 8217.000000, 8140.000000, 0.000000, 0.000000, 0.000000, 26026.000000, 926.153809, 4.000000, 4.000000, 4.000000, 4.000000, 4.000000, 4.000000, 4.000000, 4.000000, 4.000000, 4.000000, 4.000000, 4.000000, 4.000000, 4.000000, 4.000000, 4.000000
0.000000, 0.000000, 4196.922852, 4189.230469, 4198.461426, 4207.179199, 4194.871582, 4191.794922, 4185.127930, 4217.948730, 4142.051270, 4224.102539, 4205.127930, 4205.127930, 4213.333008, 4202.051270, 3491.000000, 8217.000000, 8140.000000, 0.000000, 0.000000, 0.000000, 26026.000000, 933.846130, 4.000000, 4.000000, 4.000000, 4.000000, 4.000000, 4.000000, 4.000000, 4.000000, 4.000000, 4.000000, 4.000000, 4.000000, 4.000000, 4.000000, 4.000000, 4.000000
1.000000, 0.000000, 4196.922852, 4185.127930, 4195.897461, 4209.230469, 4200.000000, 4197.436035, 4187.692383, 4200.512695, 4137.436035, 4229.743652, 4212.307617, 4204.102539, 4217.436035, 4208.717773, 2279.000000, 8216.000000, 8141.000000, 0.000000, 0.000000, 0.000000, 26026.000000, 941.538452, 4.000000, 4.000000, 4.000000, 4.000000, 4.000000, 4.000000, 4.000000, 4.000000, 4.000000, 4.000000, 4.000000, 4.000000, 4.000000, 4.000000, 4.000000, 4.000000
2.000000, 0.000000, 4202.563965, 4187.179199, 4200.000000, 4206.153809, 4208.205078, 4203.589844, 4188.717773, 4209.743652, 4146.153809, 4235.384277, 4215.897461, 4207.692383, 4221.025391, 4214.358887, 3311.000000, 8216.000000, 8141.000000, 0.000000, 0.000000, 0.000000, 26026.000000, 949.743591, 4.000000, 4.000000, 4.000000, 4.000000, 4.000000, 4.000000, 4.000000, 4.000000, 4.000000, 4.000000, 4.000000, 4.000000, 4.000000, 4.000000, 4.000000, 4.000000
3.000000, 0.000000, 4203.589844, 4191.794922, 4202.563965, 4208.717773, 4204.102539, 4205.641113, 4187.179199, 4224.102539, 4151.794922, 4233.846191, 4209.743652, 4207.179199, 4218.461426, 4207.692383, 3548.000000, 8204.000000, 8149.000000, 0.000000, 0.000000, 0.000000, 26026.000000, 957.435852, 4.000000, 4.000000, 4.000000, 4.000000, 4.000000, 4.000000, 4.000000, 4.000000, 4.000000, 4.000000, 4.000000, 4.000000, 4.000000, 4.000000, 4.000000, 4.000000
4.000000, 0.000000, 4198.974121, 4189.230469, 4195.384277, 4205.127930, 4202.051270, 4198.461426, 4186.153809, 4213.846191, 4145.127930, 4233.333008, 4207.179199, 4203.076660, 4217.948730, 4204.102539, 3531.000000, 8204.000000, 8149.000000, 0.000000, 0.000000, 0.000000, 26026.000000, 965.128174, 4.000000, 4.000000, 4.000000, 4.000000, 4.000000, 4.000000, 4.000000, 4.000000, 4.000000, 4.000000, 4.000000, 4.000000, 4.000000, 4.000000, 4.000000, 4.000000
5.000000, 0.000000, 4192.820313, 4184.615234, 4184.102539, 4196.410156, 4202.563965, 4187.179199, 4182.051270, 4204.102539, 4138.974121, 4231.281738, 4204.102539, 4196.922852, 4216.922852, 4201.025391, 3568.000000, 8208.000000, 8149.000000, 0.000000, 0.000000, 0.000000, 26026.000000, 973.333313, 4.000000, 4.000000, 4.000000, 4.000000, 4.000000, 4.000000, 4.000000, 4.000000, 4.000000, 4.000000, 4.000000, 4.000000, 4.000000, 4.000000, 4.000000, 4.000000
6.000000, 0.000000, 4188.717773, 4182.051270, 4179.487305, 4201.538574, 4192.820313, 4182.051270, 4175.897461, 4206.153809, 4140.512695, 4217.436035, 4192.307617, 4188.717773, 4203.589844, 4186.666504, 3502.000000, 8208.000000, 8149.000000, 0.000000, 0.000000, 0.000000, 26026.000000, 981.025635, 4.000000, 4.000000, 4.000000, 4.000000, 4.000000, 4.000000, 4.000000, 4.000000, 4.000000, 4.000000, 4.000000, 4.000000, 4.000000, 4.000000, 4.000000, 4.000000
7.000000, 0.000000, 4196.922852, 4186.666504, 4187.692383, 4202.563965, 4189.230469, 4181.025391, 4171.794922, 4204.615234, 4140.512695, 4205.641113, 4185.127930, 4187.692383, 4196.922852, 4187.179199, 3504.000000, 8211.000000, 8141.000000, 0.000000, 0.000000, 0.000000, 26026.000000, 989.230774, 4.000000, 4.000000, 4.000000, 4.000000, 4.000000, 4.000000, 4.000000, 4.000000, 4.000000, 4.000000, 4.000000, 4.000000, 4.000000, 4.000000, 4.000000, 4.000000
8.000000, 0.000000, 4205.127930, 4192.307617, 4196.410156, 4202.563965, 4185.641113, 4175.897461, 4167.179199, 4194.358887, 4134.871582, 4202.051270, 4186.153809, 4191.794922, 4203.589844, 4200.512695, 3355.000000, 8211.000000, 8141.000000, 0.000000, 0.000000, 0.000000, 26026.000000, 996.923035, 4.000000, 4.000000, 4.000000, 4.000000, 4.000000, 4.000000, 4.000000, 4.000000, 4.000000, 4.000000, 4.000000, 4.000000, 4.000000, 4.000000, 4.000000, 4.000000
9.000000, 0.000000, 4197.436035, 4188.205078, 4190.256348, 4201.538574, 4174.871582, 4165.641113, 4163.076660, 4188.717773, 4135.384277, 4202.563965, 4185.641113, 4185.641113, 4203.076660, 4197.948730, 3531.000000, 8215.000000, 8144.000000, 0.000000, 0.000000, 0.000000, 26027.000000, 5.128205, 4.000000, 4.000000, 4.000000, 4.000000, 4.000000, 4.000000, 4.000000, 4.000000, 4.000000, 4.000000, 4.000000, 4.000000, 4.000000, 4.000000, 4.000000, 4.000000
10.000000, 0.000000, 4191.281738, 4186.666504, 4182.563965, 4200.000000, 4177.436035, 4165.641113, 4165.127930, 4188.717773, 4138.461426, 4203.589844, 4185.641113, 4182.563965, 4201.025391, 4190.256348, 3246.000000, 8215.000000, 8144.000000, 0.000000, 0.000000, 0.000000, 26027.000000, 12.820513, 4.000000, 4.000000, 4.000000, 4.000000, 4.000000, 4.000000, 4.000000, 4.000000, 4.000000, 4.000000, 4.000000, 4.000000, 4.000000, 4.000000, 4.000000, 4.000000
11.000000, 0.000000, 4202.563965, 4196.922852, 4191.281738, 4204.615234, 4193.846191, 4177.436035, 4171.281738, 4197.436035, 4135.384277, 4208.717773, 4192.820313, 4192.820313, 4208.717773, 4197.436035, 3569.000000, 8216.000000, 8141.000000, 0.000000, 0.000000, 0.000000, 26027.000000, 20.512819, 4.000000, 4.000000, 4.000000, 4.000000, 4.000000, 4.000000, 4.000000, 4.000000, 4.000000, 4.000000, 4.000000, 4.000000, 4.000000, 4.000000, 4.000000, 4.000000
12.000000, 0.000000, 4213.333008, 4205.641113, 4201.025391, 4203.589844, 4198.461426, 4188.205078, 4172.820313, 4204.102539, 4135.384277, 4213.846191, 4202.051270, 4200.000000, 4220.000000, 4212.307617, 3512.000000, 8216.000000, 8141.000000, 0.000000, 0.000000, 0.000000, 26027.000000, 28.717949, 4.000000, 4.000000, 4.000000, 4.000000, 4.000000, 4.000000, 4.000000, 4.000000, 4.000000, 4.000000, 4.000000, 4.000000, 4.000000, 4.000000, 4.000000, 4.000000
13.000000, 0.000000, 4215.384277, 4195.897461, 4203.589844, 4204.615234, 4192.820313, 4184.615234, 4168.717773, 4200.000000, 4143.589844, 4215.897461, 4202.051270, 4202.563965, 4226.153809, 4222.051270, 3473.000000, 8219.000000, 8135.000000, 0.000000, 0.000000, 0.000000, 26027.000000, 36.410255, 4.000000, 4.000000, 4.000000, 4.000000, 4.000000, 4.000000, 4.000000, 4.000000, 4.000000, 4.000000, 4.000000, 4.000000, 4.000000, 4.000000, 4.000000, 4.000000
14.000000, 0.000000, 4222.051270, 4195.897461, 4209.743652, 4207.179199, 4196.410156, 4182.051270, 4177.948730, 4207.692383, 4152.820313, 4221.538574, 4204.615234, 4207.692383, 4229.743652, 4226.153809, 3246.000000, 8219.000000, 8135.000000, 0.000000, 0.000000, 0.000000, 26027.000000, 44.615383, 4.000000, 4.000000, 4.000000, 4.000000, 4.000000, 4.000000, 4.000000, 4.000000, 4.000000, 4.000000, 4.000000, 4.000000, 4.000000, 4.000000, 4.000000, 4.000000
15.000000, 0.000000, 4234.358887, 4213.846191, 4214.358887, 4208.205078, 4203.076660, 4195.384277, 4197.436035, 4228.717773, 4163.076660, 4231.794922, 4213.846191, 4214.871582, 4233.846191, 4232.820313, 3569.000000, 8222.000000, 8134.000000, 0.000000, 0.000000, 0.000000, 26027.000000, 52.307690, 4.000000, 4.000000, 4.000000, 4.000000, 4.000000, 4.000000, 4.000000, 4.000000, 4.000000, 4.000000, 4.000000, 4.000000, 4.000000, 4.000000, 4.000000, 4.000000
16.000000, 0.000000, 4239.487305, 4217.948730, 4213.846191, 4213.333008, 4203.589844, 4201.025391, 4196.410156, 4227.692383, 4166.153809, 4235.384277, 4220.512695, 4219.487305, 4236.410156, 4242.563965, 0.000000, 8222.000000, 8134.000000, 0.000000, 0.000000, 0.000000, 26027.000000, 60.000000, 4.000000, 4.000000, 4.000000, 4.000000, 4.000000, 4.000000, 4.000000, 4.000000, 4.000000, 4.000000, 4.000000, 4.000000, 4.000000, 4.000000, 4.000000, 4.000000
17.000000, 0.000000, 4243.076660, 4220.512695, 4209.743652, 4211.281738, 4204.615234, 4190.769043, 4183.589844, 4205.127930, 4157.948730, 4230.256348, 4216.410156, 4215.384277, 4236.922852, 4246.153809, 0.000000, 8221.000000, 8141.000000, 0.000000, 0.000000, 0.000000, 26027.000000, 68.205124, 4.000000, 4.000000, 4.000000, 4.000000, 4.000000, 4.000000, 4.000000, 4.000000, 4.000000, 4.000000, 4.000000, 4.000000, 4.000000, 4.000000, 4.000000, 4.000000
18.000000, 0.000000, 4250.769043, 4234.871582, 4205.127930, 4213.333008, 4205.127930, 4182.051270, 4183.076660, 4205.127930, 4150.769043, 4220.000000, 4206.666504, 4206.666504, 4231.794922, 4239.487305, 0.000000, 8221.000000, 8141.000000, 0.000000, 0.000000, 0.000000, 26027.000000, 75.897430, 4.000000, 4.000000, 4.000000, 4.000000, 4.000000, 4.000000, 4.000000, 4.000000, 4.000000, 4.000000, 4.000000, 4.000000, 4.000000, 4.000000, 4.000000, 4.000000
19.000000, 0.000000, 4251.281738, 4242.563965, 4204.615234, 4214.358887, 4200.000000, 4185.641113, 4186.666504, 4216.410156, 4153.846191, 4215.384277, 4200.000000, 4200.000000, 4222.563965, 4232.820313, 0.000000, 8221.000000, 8140.000000, 0.000000, 0.000000, 0.000000, 26027.000000, 83.589745, 4.000000, 4.000000, 4.000000, 4.000000, 4.000000, 4.000000, 4.000000, 4.000000, 4.000000, 4.000000, 4.000000, 4.000000, 4.000000, 4.000000, 4.000000, 4.000000
20.000000, 0.000000, 4250.256348, 4245.641113, 4208.717773, 4211.281738, 4205.127930, 4196.922852, 4184.102539, 4207.692383, 4155.384277, 4215.384277, 4200.000000, 4201.025391, 4217.948730, 4234.358887, 0.000000, 8221.000000, 8140.000000, 0.000000, 0.000000, 0.000000, 26027.000000, 91.282051, 4.000000, 4.000000, 4.000000, 4.000000, 4.000000, 4.000000, 4.000000, 4.000000, 4.000000, 4.000000, 4.000000, 4.000000, 4.000000, 4.000000, 4.000000, 4.000000
21.000000, 0.000000, 4255.897461, 4254.871582, 4208.717773, 4217.948730, 4219.487305, 4202.051270, 4182.563965, 4197.948730, 4149.743652, 4214.871582, 4199.487305, 4202.563965, 4216.922852, 4234.871582, 0.000000, 8221.000000, 8141.000000, 0.000000, 0.000000, 0.000000, 26027.000000, 99.487175, 4.000000, 4.000000, 4.000000, 4.000000, 4.000000, 4.000000, 4.000000, 4.000000, 4.000000, 4.000000, 4.000000, 4.000000, 4.000000, 4.000000, 4.000000, 4.000000
22.000000, 0.000000, 4260.000000, 4260.000000, 4208.205078, 4218.461426, 4217.948730, 4202.051270, 4187.692383, 4201.025391, 4148.205078, 4217.436035, 4198.974121, 4200.000000, 4218.974121, 4232.820313, 0.000000, 8221.000000, 8141.000000, 0.000000, 0.000000, 0.000000, 26027.000000, 107.179482, 4.000000, 4.000000, 4.000000, 4.000000, 4.000000, 4.000000, 4.000000, 4.000000, 4.000000, 4.000000, 4.000000, 4.000000, 4.000000, 4.000000, 4.000000, 4.000000
23.000000, 0.000000, 4265.127930, 4262.563965, 4216.410156, 4220.000000, 4214.871582, 4196.922852, 4190.256348, 4208.717773, 4153.846191, 4220.000000, 4201.538574, 4204.102539, 4216.922852, 4234.358887, 0.000000, 8220.000000, 8140.000000, 0.000000, 0.000000, 0.000000, 26027.000000, 114.871796, 4.000000, 4.000000, 4.000000, 4.000000, 4.000000, 4.000000, 4.000000, 4.000000, 4.000000, 4.000000, 4.000000, 4.000000, 4.000000, 4.000000, 4.000000, 4.000000
24.000000, 0.000000, 4261.538574, 4264.615234, 4219.487305, 4226.153809, 4213.846191, 4188.205078, 4185.127930, 4209.230469, 4148.205078, 4210.769043, 4191.794922, 4205.127930, 4201.025391, 4225.641113, 0.000000, 8220.000000, 8140.000000, 0.000000, 0.000000, 0.000000, 26027.000000, 122.564102, 4.000000, 4.000000, 4.000000, 4.000000, 4.000000, 4.000000, 4.000000, 4.000000, 4.000000, 4.000000, 4.000000, 4.000000, 4.000000, 4.000000, 4.000000, 4.000000
25.000000, 0.000000, 4252.820313, 4262.563965, 4213.846191, 4221.538574, 4204.102539, 4182.051270, 4180.512695, 4200.000000, 4134.358887, 4198.974121, 4174.871582, 4192.307617, 4178.974121, 4207.692383, 0.000000, 8219.000000, 8138.000000, 0.000000, 0.000000, 0.000000, 26027.000000, 130.769226, 4.000000, 4.000000, 4.000000, 4.000000, 4.000000, 4.000000, 4.000000, 4.000000, 4.000000, 4.000000, 4.000000, 4.000000, 4.000000, 4.000000, 4.000000, 4.000000
26.000000, 0.000000, 4256.410156, 4262.051270, 4213.846191, 4226.153809, 4206.153809, 4185.641113, 4184.102539, 4199.487305, 4139.487305, 4197.948730, 4173.333008, 4190.256348, 4169.743652, 4200.512695, 0.000000, 8219.000000, 8138.000000, 0.000000, 0.000000, 0.000000, 26027.000000, 138.461533, 4.000000, 4.000000, 4.000000, 4.000000, 4.000000, 4.000000, 4.000000, 4.000000, 4.000000, 4.000000, 4.000000, 4.000000, 4.000000, 4.000000, 4.000000, 4.000000
27.000000, 0.000000, 4253.846191, 4257.436035, 4217.948730, 4225.641113, 4220.000000, 4188.717773, 4184.102539, 4203.076660, 4151.794922, 4201.538574, 4178.974121, 4198.974121, 4171.794922, 4203.589844, 0.000000, 8214.000000, 8146.000000, 0.000000, 0.000000, 0.000000, 26027.000000, 146.666656, 4.000000, 4.000000, 4.000000, 4.000000, 4.000000, 4.000000, 4.000000, 4.000000, 4.000000, 4.000000, 4.000000, 4.000000, 4.000000, 4.000000, 4.000000, 4.000000
28.000000, 0.000000, 4241.538574, 4246.666504, 4214.871582, 4217.948730, 4217.948730, 4183.589844, 4173.846191, 4204.102539, 4149.743652, 4201.025391, 4175.897461, 4194.871582, 4168.205078, 4202.051270, 0.000000, 8214.000000, 8146.000000, 0.000000, 0.000000, 0.000000, 26027.000000, 154.358963, 4.000000, 4.000000, 4.000000, 4.000000, 4.000000, 4.000000, 4.000000, 4.000000, 4.000000, 4.000000, 4.000000, 4.000000, 4.000000, 4.000000, 4.000000, 4.000000
29.000000, 0.000000, 4236.410156, 4245.641113, 4209.743652, 4221.025391, 4209.230469, 4182.563965, 4173.333008, 4212.307617, 4148.717773, 4201.538574, 4172.307617, 4189.230469, 4160.512695, 4198.461426, 0.000000, 8211.000000, 8158.000000, 0.000000, 0.000000, 0.000000, 26027.000000, 162.051285, 4.000000, 4.000000, 4.000000, 4.000000, 4.000000, 4.000000, 4.000000, 4.000000, 4.000000, 4.000000, 4.000000, 4.000000, 4.000000, 4.000000, 4.000000, 4.000000
30.000000, 0.000000, 4243.076660, 4250.769043, 4213.333008, 4225.127930, 4211.281738, 4183.589844, 4183.076660, 4213.333008, 4155.384277, 4209.230469, 4180.000000, 4197.948730, 4162.563965, 4201.025391, 0.000000, 8211.000000, 8158.000000, 0.000000, 0.000000, 0.000000, 26027.000000, 170.256409, 4.000000, 4.000000, 4.000000, 4.000000, 4.000000, 4.000000, 4.000000, 4.000000, 4.000000, 4.000000, 4.000000, 4.000000, 4.000000, 4.000000, 4.000000, 4.000000
31.000000, 0.000000, 4245.641113, 4244.615234, 4220.512695, 4225.127930, 4210.769043, 4184.615234, 4188.205078, 4202.563965, 4156.410156, 4213.846191, 4185.127930, 4206.153809, 4168.205078, 4204.615234, 0.000000, 8216.000000, 8163.000000, 0.000000, 0.000000, 0.000000, 26027.000000, 177.948715, 4.000000, 4.000000, 4.000000, 4.000000, 4.000000, 4.000000, 4.000000, 4.000000, 4.000000, 4.000000, 4.000000, 4.000000, 4.000000, 4.000000, 4.000000, 4.000000
32.000000, 0.000000, 4236.410156, 4232.307617, 4218.974121, 4221.025391, 4204.102539, 4189.743652, 4186.666504, 4194.358887, 4150.256348, 4207.692383, 4179.487305, 4200.000000, 4160.512695, 4200.512695, 0.000000, 8216.000000, 8163.000000, 0.000000, 0.000000, 0.000000, 26027.000000, 186.153839, 4.000000, 4.000000, 4.000000, 4.000000, 4.000000, 4.000000, 4.000000, 4.000000, 4.000000, 4.000000, 4.000000, 4.000000, 4.000000, 4.000000, 4.000000, 4.000000
33.000000, 0.000000, 4221.538574, 4222.051270, 4206.666504, 4217.436035, 4197.436035, 4186.666504, 4176.410156, 4184.102539, 4140.512695, 4200.000000, 4172.307617, 4187.692383, 4150.769043, 4190.256348, 0.000000, 8220.000000, 8169.000000, 0.000000, 0.000000, 0.000000, 26027.000000, 193.846146, 4.000000, 4.000000, 4.000000, 4.000000, 4.000000, 4.000000, 4.000000, 4.000000, 4.000000, 4.000000, 4.000000, 4.000000, 4.000000, 4.000000, 4.000000, 4.000000
34.000000, 0.000000, 4216.922852, 4217.948730, 4197.436035, 4215.384277, 4198.974121, 4178.461426, 4163.076660, 4183.076660, 4136.410156, 4197.948730, 4167.179199, 4182.563965, 4151.794922, 4185.127930, 0.000000, 8220.000000, 8169.000000, 0.000000, 0.000000, 0.000000, 26027.000000, 202.051270, 4.000000, 4.000000, 4.000000, 4.000000, 4.000000, 4.000000, 4.000000, 4.000000, 4.000000, 4.000000, 4.000000, 4.000000, 4.000000, 4.000000, 4.000000, 4.000000
35.000000, 0.000000, 4229.230469, 4225.127930, 4204.102539, 4213.333008, 4214.871582, 4181.538574, 4161.538574, 4190.769043, 4144.615234, 4205.641113, 4175.384277, 4190.256348, 4159.487305, 4194.358887, 0.000000, 8221.000000, 8180.000000, 0.000000, 0.000000, 0.000000, 26027.000000, 209.743591, 4.000000, 4.000000, 4.000000, 4.000000, 4.000000, 4.000000, 4.000000, 4.000000, 4.000000, 4.000000, 4.000000, 4.000000, 4.000000, 4.000000, 4.000000, 4.000000
36.000000, 0.000000, 4236.410156, 4230.769043, 4216.410156, 4223.589844, 4221.025391, 4188.717773, 4169.230469, 4187.179199, 4151.281738, 4217.948730, 4193.333008, 4205.127930, 4170.769043, 4210.769043, 0.000000, 8221.000000, 8180.000000, 0.000000, 0.000000, 0.000000, 26027.000000, 217.435898, 4.000000, 4.000000, 4.000000, 4.000000, 4.000000, 4.000000, 4.000000, 4.000000, 4.000000, 4.000000, 4.000000, 4.000000, 4.000000, 4.000000, 4.000000, 4.000000
37.000000, 0.000000, 4232.307617, 4226.153809, 4219.487305, 4224.615234, 4215.897461, 4190.256348, 4177.436035, 4187.179199, 4150.256348, 4215.384277, 4194.871582, 4209.230469, 4169.743652, 4211.794922, 0.000000, 8214.000000, 8180.000000, 0.000000, 0.000000, 0.000000, 26027.000000, 225.641022, 4.000000, 4.000000, 4.000000, 4.000000, 4.000000, 4.000000, 4.000000, 4.000000, 4.000000, 4.000000, 4.000000, 4.000000, 4.000000, 4.000000, 4.000000, 4.000000
38.000000, 0.000000, 4229.743652, 4217.948730, 4217.948730, 4216.922852, 4214.358887, 4193.846191, 4188.717773, 4207.179199, 4151.794922, 4202.051270, 4176.410156, 4202.563965, 4149.230469, 4196.410156, 0.000000, 8214.000000, 8180.000000, 0.000000, 0.000000, 0.000000, 26027.000000, 233.333328, 4.000000, 4.000000, 4.000000, 4.000000, 4.000000, 4.000000, 4.000000, 4.000000, 4.000000, 4.000000, 4.000000, 4.000000, 4.000000, 4.000000, 4.000000, 4.000000
39.000000, 0.000000, 4228.205078, 4212.307617, 4217.948730, 4216.410156, 4209.743652, 4198.974121, 4203.076660, 4222.051270, 4158.461426, 4204.615234, 4172.820313, 4202.563965, 4143.589844, 4189.743652, 0.000000, 8214.000000, 8177.000000, 0.000000, 0.000000, 0.000000, 26027.000000, 241.025635, 4.000000, 4.000000, 4.000000, 4.000000, 4.000000, 4.000000, 4.000000, 4.000000, 4.000000, 4.000000, 4.000000, 4.000000, 4.000000, 4.000000, 4.000000, 4.000000
40.000000, 0.000000, 4227.179199, 4208.717773, 4219.487305, 4210.769043, 4199.487305, 4191.281738, 4208.205078, 4216.922852, 4164.102539, 4222.563965, 4190.256348, 4213.846191, 4165.127930, 4200.000000, 0.000000, 8214.000000, 8177.000000, 0.000000, 0.000000, 0.000000, 26027.000000, 249.230759, 4.000000, 4.000000, 4.000000, 4.000000, 4.000000, 4.000000, 4.000000, 4.000000, 4.000000, 4.000000, 4.000000, 4.000000, 4.000000, 4.000000, 4.000000, 4.000000
41.000000, 0.000000, 4231.281738, 4214.358887, 4221.538574, 4215.384277, 4201.025391, 4183.076660, 4205.127930, 4198.974121, 4155.897461, 4228.717773, 4201.538574, 4221.538574, 4176.922852, 4207.692383, 0.000000, 8206.000000, 8188.000000, 0.000000, 0.000000, 0.000000, 26027.000000, 256.923065, 4.000000, 4.000000, 4.000000, 4.000000, 4.000000, 4.000000, 4.000000, 4.000000, 4.000000, 4.000000, 4.000000, 4.000000, 4.000000, 4.000000, 4.000000, 4.000000
42.000000, 0.000000, 4230.256348, 4224.102539, 4217.948730, 4222.051270, 4208.205078, 4190.256348, 4200.512695, 4201.025391, 4152.307617, 4223.076660, 4198.461426, 4218.974121, 4170.769043, 4202.563965, 0.000000, 8206.000000, 8188.000000, 0.000000, 0.000000, 0.000000, 26027.000000, 264.615387, 4.000000, 4.000000, 4.000000, 4.000000, 4.000000, 4.000000, 4.000000, 4.000000, 4.000000, 4.000000, 4.000000, 4.000000, 4.000000, 4.000000, 4.000000, 4.000000
43.000000, 0.000000, 4218.974121, 4217.436035, 4206.153809, 4215.384277, 4202.051270, 4198.461426, 4203.076660, 4218.461426, 4161.025391, 4223.076660, 4190.769043, 4210.256348, 4168.205078, 4192.307617, 0.000000, 8202.000000, 8192.000000, 0.000000, 0.000000, 0.000000, 26027.000000, 272.820496, 4.000000, 4.000000, 4.000000, 4.000000, 4.000000, 4.000000, 4.000000, 4.000000, 4.000000, 4.000000, 4.000000, 4.000000, 4.000000, 4.000000, 4.000000, 4.000000
44.000000, 0.000000, 4207.692383, 4204.615234, 4198.974121, 4212.820313, 4198.461426, 4194.358887, 4200.512695, 4218.974121, 4168.717773, 4228.717773, 4188.205078, 4203.589844, 4167.692383, 4184.615234, 0.000000, 8202.000000, 8192.000000, 0.000000, 0.000000, 0.000000, 26027.000000, 280.512817, 4.000000, 4.000000, 4.000000, 4.000000, 4.000000, 4.000000, 4.000000, 4.000000, 4.000000, 4.000000, 4.000000, 4.000000, 4.000000, 4.000000, 4.000000, 4.000000
45.000000, 0.000000, 4202.563965, 4200.000000, 4197.436035, 4208.717773, 4204.615234, 4186.153809, 4186.666504, 4218.974121, 4174.358887, 4225.127930, 4188.717773, 4194.871582, 4160.000000, 4178.461426, 0.000000, 8202.000000, 8178.000000, 0.000000, 0.000000, 0.000000, 26027.000000, 288.205109, 4.000000, 4.000000, 4.000000, 4.000000, 4.000000, 4.000000, 4.000000, 4.000000, 4.000000, 4.000000, 4.000000, 4.000000, 4.000000, 4.000000, 4.000000, 4.000000
46.000000, 0.000000, 4199.487305, 4197.436035, 4194.871582, 4207.179199, 4206.153809, 4184.102539, 4185.127930, 4226.153809, 4174.358887, 4215.897461, 4180.000000, 4187.692383, 4151.794922, 4170.256348, 0.000000, 8202.000000, 8178.000000, 0.000000, 0.000000, 0.000000, 26027.000000, 296.410248, 4.000000, 4.000000, 4.000000, 4.000000, 4.000000, 4.000000, 4.000000, 4.000000, 4.000000, 4.000000, 4.000000, 4.000000, 4.000000, 4.000000, 4.000000, 4.000000
47.000000, 0.000000, 4197.436035, 4197.436035, 4197.948730, 4208.205078, 4208.205078, 4193.846191, 4201.538574, 4219.487305, 4168.205078, 4214.358887, 4176.410156, 4194.358887, 4150.256348, 4168.205078, 0.000000, 8204.000000, 8165.000000, 0.000000, 0.000000, 0.000000, 26027.000000, 304.102570, 4.000000, 4.000000, 4.000000, 4.000000, 4.000000, 4.000000, 4.000000, 4.000000, 4.000000, 4.000000, 4.000000, 4.000000, 4.000000, 4.000000, 4.000000, 4.000000
48.000000, 0.000000, 4203.589844, 4200.000000, 4203.589844, 4207.179199, 4211.281738, 4204.102539, 4206.666504, 4209.230469, 4166.666504, 4221.025391, 4186.153809, 4202.563965, 4158.461426, 4177.436035, 0.000000, 8204.000000, 8165.000000, 0.000000, 0.000000, 0.000000, 26027.000000, 311.794861, 4.000000, 4.000000, 4.000000, 4.000000, 4.000000, 4.000000, 4.000000, 4.000000, 4.000000, 4.000000, 4.000000, 4.000000, 4.000000, 4.000000, 4.000000, 4.000000
49.000000, 0.000000, 4201.025391, 4192.820313, 4195.897461, 4207.692383, 4197.948730, 4192.820313, 4192.307617, 4210.256348, 4165.641113, 4216.922852, 4182.051270, 4196.410156, 4154.871582, 4174.358887, 0.000000, 8203.000000, 8161.000000, 0.000000, 0.000000, 0.000000, 26027.000000, 320.000000, 4.000000, 4.000000, 4.000000, 4.000000, 4.000000, 4.000000, 4.000000, 4.000000, 4.000000, 4.000000, 4.000000, 4.000000, 4.000000, 4.000000, 4.000000, 4.000000
50.000000, 0.000000, 4188.205078, 4182.051270, 4184.615234, 4201.538574, 4188.717773, 4174.358887, 4181.025391, 4211.281738, 4160.000000, 4205.641113, 4164.102539, 4189.743652, 4136.922852, 4158.974121, 0.000000, 8203.000000, 8161.000000, 0.000000, 0.000000, 0.000000, 26027.000000, 327.692291, 4.000000, 4.000000, 4.000000, 4.000000, 4.000000, 4.000000, 4.000000, 4.000000, 4.000000, 4.000000, 4.000000, 4.000000, 4.000000, 4.000000, 4.000000, 4.000000
51.000000, 0.000000, 4187.692383, 4182.563965, 4190.769043, 4200.000000, 4197.948730, 4175.897461, 4181.025391, 4212.820313, 4155.897461, 4205.641113, 4166.666504, 4198.461426, 4140.000000, 4163.076660, 0.000000, 8207.000000, 8160.000000, 0.000000, 0.000000, 0.000000, 26027.000000, 335.897430, 4.000000, 4.000000, 4.000000, 4.000000, 4.000000, 4.000000, 4.000000, 4.000000, 4.000000, 4.000000, 4.000000, 4.000000, 4.000000, 4.000000, 4.000000, 4.000000
52.000000, 0.000000, 4197.436035, 4186.153809, 4200.000000, 4201.025391, 4192.307617, 4178.461426, 4183.589844, 4208.717773, 4154.358887, 4210.769043, 4177.948730, 4203.589844, 4157.948730, 4181.538574, 0.000000, 8207.000000, 8160.000000, 0.000000, 0.000000, 0.000000, 26027.000000, 343.589722, 4.000000, 4.000000, 4.000000, 4.000000, 4.000000, 4.000000, 4.000000, 4.000000, 4.000000, 4.000000, 4.000000, 4.000000, 4.000000, 4.000000, 4.000000, 4.000000
53.000000, 0.000000, 4203.076660, 4183.076660, 4199.487305, 4195.897461, 4183.589844, 4169.743652, 4186.666504, 4199.487305, 4152.307617, 4205.127930, 4174.871582, 4199.487305, 4157.436035, 4186.666504, 0.000000, 8197.000000, 8157.000000, 0.000000, 0.000000, 0.000000, 26027.000000, 351.282043, 4.000000, 4.000000, 4.000000, 4.000000, 4.000000, 4.000000, 4.000000, 4.000000, 4.000000, 4.000000, 4.000000, 4.000000, 4.000000, 4.000000, 4.000000, 4.000000
54.000000, 0.000000, 4202.051270, 4183.589844, 4200.512695, 4201.025391, 4191.281738, 4167.179199, 4184.102539, 4199.487305, 4154.871582, 4198.974121, 4176.410156, 4202.051270, 4149.743652, 4179.487305, 0.000000, 8197.000000, 8157.000000, 0.000000, 0.000000, 0.000000, 26027.000000, 359.487183, 4.000000, 4.000000, 4.000000, 4.000000, 4.000000, 4.000000, 4.000000, 4.000000, 4.000000, 4.000000, 4.000000, 4.000000, 4.000000, 4.000000, 4.000000, 4.000000
55.000000, 0.000000, 4197.948730, 4187.692383, 4201.025391, 4204.102539, 4191.281738, 4175.384277, 4180.000000, 4202.563965, 4157.436035, 4203.076660, 4185.641113, 4204.615234, 4151.794922, 4176.922852, 0.000000, 8200.000000, 8161.000000, 0.000000, 0.000000, 0.000000, 26027.000000, 367.179474, 4.000000, 4.000000, 4.000000, 4.000000, 4.000000, 4.000000, 4.000000, 4.000000, 4.000000, 4.000000, 4.000000, 4.000000, 4.000000, 4.000000, 4.000000, 4.000000
56.000000, 0.000000, 4194.358887, 4183.589844, 4194.871582, 4205.641113, 4187.692383, 4182.563965, 4188.205078, 4202.563965, 4156.922852, 4203.589844, 4185.127930, 4200.000000, 4149.743652, 4174.358887, 0.000000, 8200.000000, 8161.000000, 0.000000, 0.000000, 0.000000, 26027.000000, 375.384613, 4.000000, 4.000000, 4.000000, 4.000000, 4.000000, 4.000000, 4.000000, 4.000000, 4.000000, 4.000000, 4.000000, 4.000000, 4.000000, 4.000000, 4.000000, 4.000000
57.000000, 0.000000, 4189.230469, 4171.281738, 4189.743652, 4203.589844, 4197.948730, 4181.025391, 4196.410156, 4202.051270, 4156.410156, 4199.487305, 4181.025391, 4195.384277, 4142.563965, 4168.717773, 0.000000, 8205.000000, 8163.000000, 0.000000, 0.000000, 0.000000, 26027.000000, 383.076904, 4.000000, 4.000000, 4.000000, 4.000000, 4.000000, 4.000000, 4.000000, 4.000000, 4.000000, 4.000000, 4.000000, 4.000000, 4.000000, 4.000000, 4.000000, 4.000000
58.000000, 0.000000, 4190.769043, 4168.205078, 4190.769043, 4197.436035, 4205.127930, 4179.487305, 4182.563965, 4200.000000, 4162.051270, 4203.076660, 4186.153809, 4195.897461, 4142.051270, 4171.794922, 0.000000, 8205.000000, 8163.000000, 0.000000, 0.000000, 0.000000, 26027.000000, 391.282043, 4.000000, 4.000000, 4.000000, 4.000000, 4.000000, 4.000000, 4.000000, 4.000000, 4.000000, 4.000000, 4.000000, 4.000000, 4.000000, 4.000000, 4.000000, 4.000000
59.000000, 0.000000, 4195.897461, 4173.846191, 4193.333008, 4204.102539, 4198.974121, 4184.615234, 4177.948730, 4200.512695, 4165.127930, 4206.666504, 4187.692383, 4198.461426, 4143.589844, 4174.871582, 0.000000, 8203.000000, 8161.000000, 0.000000, 0.000000, 0.000000, 26027.000000, 398.974335, 4.000000, 4.000000, 4.000000, 4.000000, 4.000000, 4.000000, 4.000000, 4.000000, 4.000000, 4.000000, 4.000000, 4.000000, 4.000000, 4.000000, 4.000000, 4.000000
60.000000, 0.000000, 4186.153809, 4168.205078, 4185.127930, 4202.051270, 4198.461426, 4187.179199, 4194.871582, 4199.487305, 4156.410156, 4198.461426, 4175.897461, 4188.717773, 4134.358887, 4162.051270, 0.000000, 8203.000000, 8161.000000, 0.000000, 0.000000, 0.000000, 26027.000000, 407.179474, 4.000000, 4.000000, 4.000000, 4.000000, 4.000000, 4.000000, 4.000000, 4.000000, 4.000000, 4.000000, 4.000000, 4.000000, 4.000000, 4.000000, 4.000000, 4.000000
61.000000, 0.000000, 4171.794922, 4153.846191, 4171.281738, 4193.333008, 4201.025391, 4191.281738, 4203.076660, 4191.794922, 4150.256348, 4189.743652, 4164.102539, 4175.897461, 4119.487305, 4146.153809, 0.000000, 8208.000000, 8164.000000, 0.000000, 0.000000, 0.000000, 26027.000000, 414.871796, 4.000000, 4.000000, 4.000000, 4.000000, 4.000000, 4.000000, 4.000000, 4.000000, 4.000000, 4.000000, 4.000000, 4.000000, 4.000000, 4.000000, 4.000000, 4.000000
62.000000, 0.000000, 4172.820313, 4152.307617, 4166.153809, 4195.384277, 4197.948730, 4200.000000, 4198.974121, 4189.743652, 4159.487305, 4197.436035, 4166.666504, 4177.948730, 4124.615234, 4149.743652, 0.000000, 8208.000000, 8164.000000, 0.000000, 0.000000, 0.000000, 26027.000000, 423.076904, 4.000000, 4.000000, 4.000000, 4.000000, 4.000000, 4.000000, 4.000000, 4.000000, 4.000000, 4.000000, 4.000000, 4.000000, 4.000000, 4.000000, 4.000000, 4.000000
63.000000, 0.000000, 4178.974121, 4164.615234, 4171.794922, 4196.922852, 4199.487305, 4202.051270, 4201.538574, 4201.538574, 4170.256348, 4205.641113, 4174.358887, 4184.102539, 4140.512695, 4159.487305, 0.000000, 8210.000000, 8163.000000, 0.000000, 0.000000, 0.000000, 26027.000000, 430.769226, 4.000000, 4.000000, 4.000000, 4.000000, 4.000000, 4.000000, 4.000000, 4.000000, 4.000000, 4.000000, 4.000000, 4.000000, 4.000000, 4.000000, 4.000000, 4.000000
64.000000, 0.000000, 4172.820313, 4166.666504, 4174.358887, 4198.461426, 4206.666504, 4199.487305, 4208.205078, 4213.846191, 4173.333008, 4203.589844, 4172.307617, 4180.512695, 4136.922852, 4154.871582, 3491.000000, 8210.000000, 8163.000000, 0.000000, 0.000000, 0.000000, 26027.000000, 438.461517, 4.000000, 4.000000, 4.000000, 4.000000, 4.000000, 4.000000, 4.000000, 4.000000, 4.000000, 4.000000, 4.000000, 4.000000, 4.000000, 4.000000, 4.000000, 4.000000
65.000000, 0.000000, 4164.102539, 4155.384277, 4173.333008, 4193.333008, 4207.692383, 4203.589844, 4208.717773, 4206.153809, 4170.256348, 4202.051270, 4166.666504, 4175.897461, 4127.179199, 4146.666504, 2281.000000, 8207.000000, 8155.000000, 0.000000, 0.000000, 0.000000, 26027.000000, 446.666656, 4.000000, 4.000000, 4.000000, 4.000000, 4.000000, 4.000000, 4.000000, 4.000000, 4.000000, 4.000000, 4.000000, 4.000000, 4.000000, 4.000000, 4.000000, 4.000000
66.000000, 0.000000, 4166.666504, 4151.794922, 4173.333008, 4191.281738, 4200.000000, 4204.615234, 4196.922852, 4185.127930, 4159.487305, 4198.974121, 4161.538574, 4172.820313, 4127.692383, 4144.615234, 3149.000000, 8207.000000, 8155.000000, 0.000000, 0.000000, 0.000000, 26027.000000, 454.358978, 4.000000, 4.000000, 4.000000, 4.000000, 4.000000, 4.000000, 4.000000, 4.000000, 4.000000, 4.000000, 4.000000, 4.000000, 4.000000, 4.000000, 4.000000, 4.000000
67.000000, 0.000000, 4168.717773, 4155.384277, 4170.769043, 4193.846191, 4198.461426, 4202.051270, 4191.794922, 4180.512695, 4153.333008, 4189.230469, 4155.897461, 4163.076660, 4125.641113, 4142.051270, 3548.000000, 8211.000000, 8156.000000, 0.000000, 0.000000, 0.000000, 26027.000000, 462.051270, 4.000000, 4.000000, 4.000000, 4.000000, 4.000000, 4.000000, 4.000000, 4.000000, 4.000000, 4.000000, 4.000000, 4.000000, 4.000000, 4.000000, 4.000000, 4.000000
68.000000, 0.000000, 4165.641113, 4153.333008, 4165.641113, 4188.717773, 4202.051270, 4205.127930, 4198.461426, 4188.717773, 4155.384277, 4183.589844, 4151.794922, 4153.333008, 4121.538574, 4138.974121, 3531.000000, 8211.000000, 8156.000000, 0.000000, 0.000000, 0.000000, 26027.000000, 469.743591, 4.000000, 4.000000, 4.000000, 4.000000, 4.000000, 4.000000, 4.000000, 4.000000, 4.000000, 4.000000, 4.000000, 4.000000, 4.000000, 4.000000, 4.000000, 4.000000
69.000000, 0.000000, 4167.179199, 4152.820313, 4168.717773, 4192.307617, 4195.384277, 4206.153809, 4194.871582, 4188.717773, 4155.897461, 4186.153809, 4152.307617, 4158.461426, 4122.563965, 4144.615234, 3569.000000, 8207.000000, 8158.000000, 0.000000, 0.000000, 0.000000, 26027.000000, 477.948700, 4.000000, 4.000000, 4.000000, 4.000000, 4.000000, 4.000000, 4.000000, 4.000000, 4.000000, 4.000000, 4.000000, 4.000000, 4.000000, 4.000000, 4.000000, 4.000000
70.000000, 0.000000, 4169.230469, 4156.410156, 4176.410156, 4193.333008, 4192.820313, 4200.000000, 4187.692383, 4180.512695, 4153.846191, 4187.692383, 4154.358887, 4165.127930, 4122.563965, 4152.307617, 3234.000000, 8207.000000, 8158.000000, 0.000000, 0.000000, 0.000000, 26027.000000, 486.153839, 4.000000, 4.000000, 4.000000, 4.000000, 4.000000, 4.000000, 4.000000, 4.000000, 4.000000, 4.000000, 4.000000, 4.000000, 4.000000, 4.000000, 4.000000, 4.000000
71.000000, 0.000000, 4172.307617, 4154.358887, 4180.000000, 4191.794922, 4198.974121, 4195.897461, 4196.922852, 4184.615234, 4152.820313, 4186.153809, 4158.974121, 4167.692383, 4124.615234, 4153.846191, 3502.000000, 8211.000000, 8155.000000, 0.000000, 0.000000, 0.000000, 26027.000000, 493.846130, 4.000000, 4.000000, 4.000000, 4.000000, 4.000000, 4.000000, 4.000000, 4.000000, 4.000000, 4.000000, 4.000000, 4.000000, 4.000000, 4.000000, 4.000000, 4.000000
72.000000, 0.000000, 4175.897461, 4152.307617, 4183.589844, 4198.461426, 4199.487305, 4199.487305, 4205.127930, 4195.897461, 4152.820313, 4185.127930, 4167.692383, 4177.948730, 4133.846191, 4157.948730, 3128.000000, 8211.000000, 8155.000000, 0.000000, 0.000000, 0.000000, 26027.000000, 501.538452, 4.000000, 4.000000, 4.000000, 4.000000, 4.000000, 4.000000, 4.000000, 4.000000, 4.000000, 4.000000, 4.000000, 4.000000, 4.000000, 4.000000, 4.000000, 4.000000
73.000000, 0.000000, 4176.922852, 4156.922852, 4186.153809, 4195.897461, 4195.897461, 4203.589844, 4198.461426, 4192.307617, 4153.333008, 4186.666504, 4173.333008, 4186.153809, 4137.948730, 4167.179199, 3539.000000, 8207.000000, 8155.000000, 0.000000, 0.000000, 0.000000, 26027.000000, 509.230743, 4.000000, 4.000000, 4.000000, 4.000000, 4.000000, 4.000000, 4.000000, 4.000000, 4.000000, 4.000000, 4.000000, 4.000000, 4.000000, 4.000000, 4.000000, 4.000000
74.000000, 0.000000, 4178.461426, 4162.563965, 4184.615234, 4196.922852, 4198.461426, 4201.538574, 4191.794922, 4182.051270, 4153.846191, 4192.820313, 4175.897461, 4187.179199, 4138.461426, 4174.358887, 3254.000000, 8207.000000, 8155.000000, 0.000000, 0.000000, 0.000000, 26027.000000, 517.435913, 4.000000, 4.000000, 4.000000, 4.000000, 4.000000, 4.000000, 4.000000, 4.000000, 4.000000, 4.000000, 4.000000, 4.000000, 4.000000, 4.000000, 4.000000, 4.000000
75.000000, 0.000000, 4184.102539, 4166.666504, 4190.769043, 4200.512695, 4202.563965, 4198.974121, 4196.410156, 4188.717773, 4157.948730, 4202.563965, 4182.563965, 4195.897461, 4148.205078, 4183.076660, 3571.000000, 8209.000000, 8163.000000, 0.000000, 0.000000, 0.000000, 26027.000000, 525.128174, 4.000000, 4.000000, 4.000000, 4.000000, 4.000000, 4.000000, 4.000000, 4.000000, 4.000000, 4.000000, 4.000000, 4.000000, 4.000000, 4.000000, 4.000000, 4.000000
76.000000, 0.000000, 4189.743652, 4169.743652, 4201.025391, 4200.000000, 4198.461426, 4201.025391, 4212.820313, 4203.589844, 4159.487305, 4201.538574, 4188.205078, 4207.692383, 4154.871582, 4188.717773, 3516.000000, 8209.000000, 8163.000000, 0.000000, 0.000000, 0.000000, 26027.000000, 532.820496, 4.000000, 4.000000, 4.000000, 4.000000, 4.000000, 4.000000, 4.000000, 4.000000, 4.000000, 4.000000, 4.000000, 4.000000, 4.000000, 4.000000, 4.000000, 4.000000
77.000000, 0.000000, 4193.333008, 4168.717773, 4202.563965, 4203.589844, 4195.897461, 4207.692383, 4220.512695, 4201.025391, 4153.846191, 4189.230469, 4186.666504, 4211.281738, 4153.846191, 4191.794922, 3473.000000, 8206.000000, 8163.000000, 0.000000, 0.000000, 0.000000, 26027.000000, 541.025635, 4.000000, 4.000000, 4.000000, 4.000000, 4.000000, 4.000000, 4.000000, 4.000000, 4.000000, 4.000000, 4.000000, 4.000000, 4.000000, 4.000000, 4.000000, 4.000000
78.000000, 0.000000, 4196.922852, 4169.230469, 4198.974121, 4200.000000, 4197.948730, 4199.487305, 4196.922852, 4186.153809, 4155.897461, 4188.205078, 4187.179199, 4210.256348, 4156.922852, 4197.948730, 3254.000000, 8206.000000, 8163.000000, 0.000000, 0.000000, 0.000000, 26027.000000, 548.717957, 4.000000, 4.000000, 4.000000, 4.000000, 4.000000, 4.000000, 4.000000, 4.000000, 4.000000, 4.000000, 4.000000, 4.000000, 4.000000, 4.000000, 4.000000, 4.000000
79.000000, 0.000000, 4201.025391, 4174.358887, 4202.563965, 4201.025391, 4201.025391, 4184.615234, 4179.487305, 4194.358887, 4169.230469, 4200.000000, 4192.820313, 4213.333008, 4158.974121, 4204.102539, 3571.000000, 8196.000000, 8164.000000, 0.000000, 0.000000, 0.000000, 26027.000000, 556.923035, 4.000000, 4.000000, 4.000000, 4.000000, 4.000000, 4.000000, 4.000000, 4.000000, 4.000000, 4.000000, 4.000000, 4.000000, 4.000000, 4.000000, 4.000000, 4.000000
80.000000, 0.000000, 4197.436035, 4174.358887, 4202.563965, 4203.589844, 4198.461426, 4188.717773, 4193.333008, 4212.307617, 4174.358887, 4204.102539, 4193.846191, 4211.794922, 4154.871582, 4198.461426, 3516.000000, 8196.000000, 8164.000000, 0.000000, 0.000000, 0.000000, 26027.000000, 565.128174, 4.000000, 4.000000, 4.000000, 4.000000, 4.000000, 4.000000, 4.000000, 4.000000, 4.000000, 4.000000, 4.000000, 4.000000, 4.000000, 4.000000, 4.000000, 4.000000
81.000000, 0.000000, 4190.256348, 4169.743652, 4197.436035, 4199.487305, 4195.897461, 4197.948730, 4206.666504, 4202.563965, 4167.179199, 4200.000000, 4188.717773, 4203.076660, 4152.820313, 4189.230469, 3473.000000, 8201.000000, 8163.000000, 0.000000, 0.000000, 0.000000, 26027.000000, 572.820496, 4.000000, 4.000000, 4.000000, 4.000000, 4.000000, 4.000000, 4.000000, 4.000000, 4.000000, 4.000000, 4.000000, 4.000000, 4.000000, 4.000000, 4.000000, 4.000000
82.000000, 0.000000, 4190.769043, 4175.384277, 4200.000000, 4203.076660, 4201.538574, 4195.897461, 4201.538574, 4187.179199, 4167.179199, 4198.461426, 4188.205078, 4202.051270, 4156.410156, 4192.307617, 3254.000000, 8201.000000, 8163.000000, 0.000000, 0.000000, 0.000000, 26027.000000, 580.512817, 4.000000, 4.000000, 4.000000, 4.000000, 4.000000, 4.000000, 4.000000, 4.000000, 4.000000, 4.000000, 4.000000, 4.000000, 4.000000, 4.000000, 4.000000, 4.000000
83.000000, 0.000000, 4196.922852, 4186.666504, 4206.153809, 4204.615234, 4202.051270, 4197.436035, 4197.948730, 4202.051270, 4174.871582, 4203.076660, 4192.820313, 4206.666504, 4159.487305, 4196.922852, 3571.000000, 8201.000000, 8169.000000, 0.000000, 0.000000, 0.000000, 26027.000000, 588.717957, 4.000000, 4.000000, 4.000000, 4.000000, 4.000000, 4.000000, 4.000000, 4.000000, 4.000000, 4.000000, 4.000000, 4.000000, 4.000000, 4.000000, 4.000000, 4.000000
84.000000, 0.000000, 4196.922852, 4186.666504, 4206.666504, 4204.615234, 4189.743652, 4203.076660, 4201.538574, 4213.846191, 4173.846191, 4201.025391, 4192.307617, 4205.127930, 4160.512695, 4191.281738, 3516.000000, 8201.000000, 8169.000000, 0.000000, 0.000000, 0.000000, 26027.000000, 596.923035, 4.000000, 4.000000, 4.000000, 4.000000, 4.000000, 4.000000, 4.000000, 4.000000, 4.000000, 4.000000, 4.000000, 4.000000, 4.000000, 4.000000, 4.000000, 4.000000
85.000000, 0.000000, 4194.358887, 4181.025391, 4201.538574, 4204.102539, 4188.717773, 4200.512695, 4203.589844, 4195.897461, 4167.179199, 4193.846191, 4186.666504, 4198.974121, 4160.512695, 4184.615234, 3473.000000, 8211.000000, 8181.000000, 0.000000, 0.000000, 0.000000, 26027.000000, 604.615356, 4.000000, 4.000000, 4.000000, 4.000000, 4.000000, 4.000000, 4.000000, 4.000000, 4.000000, 4.000000, 4.000000, 4.000000, 4.000000, 4.000000, 4.000000, 4.000000
86.000000, 0.000000, 4202.051270, 4190.256348, 4202.563965, 4204.615234, 4209.743652, 4202.051270, 4206.666504, 4191.281738, 4169.743652, 4195.384277, 4187.692383, 4200.000000, 4164.102539, 4187.179199, 3254.000000, 8211.000000, 8181.000000, 0.000000, 0.000000, 0.000000, 26027.000000, 612.307678, 4.000000, 4.000000, 4.000000, 4.000000, 4.000000, 4.000000, 4.000000, 4.000000, 4.000000, 4.000000, 4.000000, 4.000000, 4.000000, 4.000000, 4.000000, 4.000000
87.000000, 0.000000, 4203.589844, 4200.512695, 4205.641113, 4212.820313, 4216.922852, 4207.179199, 4206.666504, 4203.076660, 4171.794922, 4198.461426, 4188.717773, 4201.025391, 4166.666504, 4184.615234, 3571.000000, 8217.000000, 8175.000000, 0.000000, 0.000000, 0.000000, 26027.000000, 620.512817, 4.000000, 4.000000, 4.000000, 4.000000, 4.000000, 4.000000, 4.000000, 4.000000, 4.000000, 4.000000, 4.000000, 4.000000, 4.000000, 4.000000, 4.000000, 4.000000
88.000000, 0.000000, 4194.871582, 4188.717773, 4204.102539, 4207.692383, 4203.076660, 4198.461426, 4198.461426, 4201.025391, 4165.641113, 4196.410156, 4186.666504, 4194.358887, 4167.692383, 4178.461426, 3516.000000, 8217.000000, 8175.000000, 0.000000, 0.000000, 0.000000, 26027.000000, 628.717957, 4.000000, 4.000000, 4.000000, 4.000000, 4.000000, 4.000000, 4.000000, 4.000000, 4.000000, 4.000000, 4.000000, 4.000000, 4.000000, 4.000000, 4.000000, 4.000000
89.000000, 0.000000, 4193.846191, 4176.922852, 4200.000000, 4200.000000, 4192.307617, 4193.333008, 4191.794922, 4198.461426, 4168.717773, 4201.025391, 4188.717773, 4192.307617, 4170.256348, 4182.051270, 3473.000000, 8221.000000, 8178.000000, 0.000000, 0.000000, 0.000000, 26027.000000, 636.410217, 4.000000, 4.000000, 4.000000, 4.000000, 4.000000, 4.000000, 4.000000, 4.000000, 4.000000, 4.000000, 4.000000, 4.000000, 4.000000, 4.000000, 4.000000, 4.000000
90.000000, 0.000000, 4196.922852, 4188.717773, 4195.897461, 4202.563965, 4205.127930, 4201.025391, 4186.666504, 4203.589844, 4177.436035, 4203.076660, 4187.179199, 4194.871582, 4168.717773, 4184.102539, 3254.000000, 8221.000000, 8178.000000, 0.000000, 0.000000, 0.000000, 26027.000000, 644.102539, 4.000000, 4.000000, 4.000000, 4.000000, 4.000000, 4.000000, 4.000000, 4.000000, 4.000000, 4.000000, 4.000000, 4.000000, 4.000000, 4.000000, 4.000000, 4.000000
91.000000, 0.000000, 4202.051270, 4204.615234, 4202.563965, 4206.666504, 4217.436035, 4201.538574, 4184.102539, 4201.538574, 4173.333008, 4193.846191, 4187.179199, 4201.025391, 4169.743652, 4186.153809, 3571.000000, 8222.000000, 8192.000000, 0.000000, 0.000000, 0.000000, 26027.000000, 652.307678, 4.000000, 4.000000, 4.000000, 4.000000, 4.000000, 4.000000, 4.000000, 4.000000, 4.000000, 4.000000, 4.000000, 4.000000, 4.000000, 4.000000, 4.000000, 4.000000
92.000000, 0.000000, 4202.051270, 4193.333008, 4202.563965, 4205.127930, 4183.076660, 4188.717773, 4188.717773, 4195.384277, 4165.127930, 4193.333008, 4188.205078, 4203.076660, 4165.127930, 4186.666504, 3516.000000, 8222.000000, 8192.000000, 0.000000, 0.000000, 0.000000, 26027.000000, 660.512817, 4.000000, 4.000000, 4.000000, 4.000000, 4.000000, 4.000000, 4.000000, 4.000000, 4.000000, 4.000000, 4.000000, 4.000000, 4.000000, 4.000000, 4.000000, 4.000000
93.000000, 0.000000, 4192.307617, 4180.000000, 4187.179199, 4191.794922, 4156.410156, 4182.051270, 4195.384277, 4203.589844, 4175.897461, 4202.051270, 4188.205078, 4197.948730, 4158.461426, 4183.076660, 3473.000000, 8232.000000, 8190.000000, 0.000000, 0.000000, 0.000000, 26027.000000, 668.205139, 4.000000, 4.000000, 4.000000, 4.000000, 4.000000, 4.000000, 4.000000, 4.000000, 4.000000, 4.000000, 4.000000, 4.000000, 4.000000, 4.000000, 4.000000, 4.000000
94.000000, 0.000000, 4195.897461, 4193.333008, 4186.153809, 4194.871582, 4198.461426, 4193.846191, 4200.000000, 4209.230469, 4184.102539, 4203.589844, 4195.897461, 4197.948730, 4171.281738, 4191.281738, 3254.000000, 8232.000000, 8190.000000, 0.000000, 0.000000, 0.000000, 26027.000000, 675.897400, 4.000000, 4.000000, 4.000000, 4.000000, 4.000000, 4.000000, 4.000000, 4.000000, 4.000000, 4.000000, 4.000000, 4.000000, 4.000000, 4.000000, 4.000000, 4.000000
95.000000, 0.000000, 4208.717773, 4207.179199, 4201.025391, 4208.205078, 4217.436035, 4202.563965, 4203.589844, 4199.487305, 4173.333008, 4198.974121, 4201.538574, 4207.692383, 4183.076660, 4204.615234, 3571.000000, 8241.000000, 8175.000000, 0.000000, 0.000000, 0.000000, 26027.000000, 684.102539, 4.000000, 4.000000, 4.000000, 4.000000, 4.000000, 4.000000, 4.000000, 4.000000, 4.000000, 4.000000, 4.000000, 4.000000, 4.000000, 4.000000, 4.000000, 4.000000
96.000000, 0.000000, 4209.230469, 4205.127930, 4203.589844, 4206.153809, 4178.461426, 4192.307617, 4193.846191, 4195.384277, 4168.717773, 4191.281738, 4193.333008, 4210.769043, 4177.436035, 4205.127930, 3516.000000, 8241.000000, 8175.000000, 0.000000, 0.000000, 0.000000, 26027.000000, 691.794861, 4.000000, 4.000000, 4.000000, 4.000000, 4.000000, 4.000000, 4.000000, 4.000000, 4.000000, 4.000000, 4.000000, 4.000000, 4.000000, 4.000000, 4.000000, 4.000000
97.000000, 0.000000, 4206.153809, 4204.102539, 4197.436035, 4204.102539, 4176.922852, 4187.179199, 4179.487305, 4198.461426, 4170.256348, 4189.743652, 4193.846191, 4210.256348, 4185.641113, 4204.102539, 3473.000000, 8247.000000, 8172.000000, 0.000000, 0.000000, 0.000000, 26027.000000, 700.000000, 4.000000, 4.000000, 4.000000, 4.000000, 4.000000, 4.000000, 4.000000, 4.000000, 4.000000, 4.000000, 4.000000, 4.000000, 4.000000, 4.000000, 4.000000, 4.000000
98.000000, 0.000000, 4210.769043, 4211.281738, 4205.641113, 4200.512695, 4211.281738, 4203.076660, 4187.692383, 4198.974121, 4172.307617, 4202.051270, 4213.333008, 4217.436035, 4204.102539, 4216.922852, 3254.000000, 8247.000000, 8172.000000, 0.000000, 0.000000, 0.000000, 26027.000000, 707.692261, 4.000000, 4.000000, 4.000000, 4.000000, 4.000000, 4.000000, 4.000000, 4.000000, 4.000000, 4.000000, 4.000000, 4.000000, 4.000000, 4.000000, 4.000000, 4.000000
99.000000, 0.000000, 4215.384277, 4211.794922, 4215.897461, 4193.846191, 4207.179199, 4210.769043, 4204.102539, 4205.127930, 4182.563965, 4210.256348, 4217.436035, 4225.127930, 4206.666504, 4223.076660, 3571.000000, 8261.000000, 8154.000000, 0.000000, 0.000000, 0.000000, 26027.000000, 715.897400, 4.000000, 4.000000, 4.000000, 4.000000, 4.000000, 4.000000, 4.000000, 4.000000, 4.000000, 4.000000, 4.000000, 4.000000, 4.000000, 4.000000, 4.000000, 4.000000
100.000000, 0.000000, 4210.256348, 4208.717773, 4208.205078, 4196.410156, 4189.743652, 4198.461426, 4204.102539, 4202.051270, 4179.487305, 4197.948730, 4201.538574, 4219.487305, 4205.641113, 4214.871582, 3516.000000, 8261.000000, 8154.000000, 0.000000, 0.000000, 0.000000, 26027.000000, 724.102539, 4.000000, 4.000000, 4.000000, 4.000000, 4.000000, 4.000000, 4.000000, 4.000000, 4.000000, 4.000000, 4.000000, 4.000000, 4.000000, 4.000000, 4.000000, 4.000000
101.000000, 0.000000, 4206.153809, 4218.974121, 4200.512695, 4198.974121, 4204.615234, 4197.436035, 4194.871582, 4194.358887, 4168.205078, 4190.256348, 4197.948730, 4213.333008, 4212.820313, 4211.794922, 3473.000000, 8268.000000, 8128.000000, 0.000000, 0.000000, 0.000000, 26027.000000, 731.794861, 4.000000, 4.000000, 4.000000, 4.000000, 4.000000, 4.000000, 4.000000, 4.000000, 4.000000, 4.000000, 4.000000, 4.000000, 4.000000, 4.000000, 4.000000, 4.000000
102.000000, 0.000000, 4207.692383, 4228.205078, 4206.153809, 4202.051270, 4226.666504, 4201.538574, 4191.794922, 4203.589844, 4174.871582, 4196.410156, 4203.589844, 4218.974121, 4221.538574, 4216.410156, 3254.000000, 8268.000000, 8128.000000, 0.000000, 0.000000, 0.000000, 26027.000000, 739.487183, 4.000000, 4.000000, 4.000000, 4.000000, 4.000000, 4.000000, 4.000000, 4.000000, 4.000000, 4.000000, 4.000000, 4.000000, 4.000000, 4.000000, 4.000000, 4.000000
103.000000, 0.000000, 4206.153809, 4222.563965, 4207.179199, 4194.871582, 4233.333008, 4193.846191, 4197.948730, 4208.717773, 4177.436035, 4195.897461, 4204.102539, 4222.563965, 4230.769043, 4215.384277, 3571.000000, 8238.000000, 8062.000000, 0.000000, 0.000000, 0.000000, 26027.000000, 747.692261, 4.000000, 4.000000, 4.000000, 4.000000, 4.000000, 4.000000, 4.000000, 4.000000, 4.000000, 4.000000, 4.000000, 4.000000, 4.000000, 4.000000, 4.000000, 4.000000
104.000000, 0.000000, 4202.563965, 4224.102539, 4199.487305, 4189.230469, 4230.256348, 4192.820313, 4204.615234, 4197.948730, 4168.205078, 4186.666504, 4200.512695, 4214.871582, 4233.333008, 4207.692383, 3516.000000, 8238.000000, 8062.000000, 0.000000, 0.000000, 0.000000, 26027.000000, 755.897400, 4.000000, 4.000000, 4.000000, 4.000000, 4.000000, 4.000000, 4.000000, 4.000000, 4.000000, 4.000000, 4.000000, 4.000000, 4.000000, 4.000000, 4.000000, 4.000000
105.000000, 0.000000, 4205.641113, 4239.487305, 4200.512695, 4198.974121, 4230.256348, 4202.563965, 4207.179199, 4196.410156, 4173.333008, 4182.563965, 4197.948730, 4207.692383, 4230.769043, 4203.589844, 3473.000000, 8227.000000, 8036.000000, 0.000000, 0.000000, 0.000000, 26027.000000, 763.589722, 4.000000, 4.000000, 4.000000, 4.000000, 4.000000, 4.000000, 4.000000, 4.000000, 4.000000, 4.000000, 4.000000, 4.000000, 4.000000, 4.000000, 4.000000, 4.000000
106.000000, 0.000000, 4213.333008, 4253.333008, 4203.589844, 4199.487305, 4241.025391, 4201.025391, 4200.000000, 4205.641113, 4187.692383, 4193.333008, 4202.051270, 4210.769043, 4239.487305, 4210.256348, 3254.000000, 8227.000000, 8036.000000, 0.000000, 0.000000, 0.000000, 26027.000000, 771.282043, 4.000000, 4.000000, 4.000000, 4.000000, 4.000000, 4.000000, 4.000000, 4.000000, 4.000000, 4.000000, 4.000000, 4.000000, 4.000000, 4.000000, 4.000000, 4.000000
107.000000, 0.000000, 4217.948730, 4260.000000, 4204.615234, 4203.589844, 4248.717773, 4194.358887, 4189.743652, 4204.102539, 4194.871582, 4203.076660, 4209.230469, 4220.512695, 4251.794922, 4221.025391, 3571.000000, 8215.000000, 8014.000000, 0.000000, 0.000000, 0.000000, 26027.000000, 779.487183, 4.000000, 4.000000, 4.000000, 4.000000, 4.000000, 4.000000, 4.000000, 4.000000, 4.000000, 4.000000, 4.000000, 4.000000, 4.000000, 4.000000, 4.000000, 4.000000
108.000000, 0.000000, 4211.794922, 4252.307617, 4204.615234, 4205.127930, 4245.641113, 4198.974121, 4196.922852, 4201.538574, 4193.333008, 4194.358887, 4203.589844, 4215.897461, 4245.641113, 4215.384277, 3516.000000, 8215.000000, 8014.000000, 0.000000, 0.000000, 0.000000, 26027.000000, 787.692261, 4.000000, 4.000000, 4.000000, 4.000000, 4.000000, 4.000000, 4.000000, 4.000000, 4.000000, 4.000000, 4.000000, 4.000000, 4.000000, 4.000000, 4.000000, 4.000000
109.000000, 0.000000, 4204.615234, 4245.127930, 4198.461426, 4196.922852, 4238.461426, 4200.512695, 4206.153809, 4197.948730, 4184.102539, 4185.641113, 4196.922852, 4200.000000, 4238.461426, 4202.563965, 3473.000000, 8170.000000, 8014.000000, 0.000000, 0.000000, 0.000000, 26027.000000, 795.384583, 4.000000, 4.000000, 4.000000, 4.000000, 4.000000, 4.000000, 4.000000, 4.000000, 4.000000, 4.000000, 4.000000, 4.000000, 4.000000, 4.000000, 4.000000, 4.000000
110.000000, 0.000000, 4209.743652, 4256.922852, 4196.410156, 4200.512695, 4248.717773, 4198.974121, 4188.717773, 4187.179199, 4181.538574, 4186.153809, 4197.948730, 4199.487305, 4246.153809, 4203.589844, 3254.000000, 8170.000000, 8014.000000, 0.000000, 0.000000, 0.000000, 26027.000000, 803.076904, 4.000000, 4.000000, 4.000000, 4.000000, 4.000000, 4.000000, 4.000000, 4.000000, 4.000000, 4.000000, 4.000000, 4.000000, 4.000000, 4.000000, 4.000000, 4.000000
111.000000, 0.000000, 4213.333008, 4264.102539, 4197.436035, 4202.051270, 4261.025391, 4201.025391, 4178.974121, 4180.000000, 4191.281738, 4180.000000, 4192.307617, 4197.948730, 4244.102539, 4206.666504, 3571.000000, 8148.000000, 8001.000000, 0.000000, 0.000000, 0.000000, 26027.000000, 811.282043, 4.000000, 4.000000, 4.000000, 4.000000, 4.000000, 4.000000, 4.000000, 4.000000, 4.000000, 4.000000, 4.000000, 4.000000, 4.000000, 4.000000, 4.000000, 4.000000
112.000000, 0.000000, 4207.179199, 4249.743652, 4188.717773, 4198.461426, 4243.589844, 4200.000000, 4193.846191, 4177.948730, 4205.641113, 4173.333008, 4180.000000, 4185.127930, 4231.794922, 4198.974121, 3516.000000, 8148.000000, 8001.000000, 0.000000, 0.000000, 0.000000, 26027.000000, 818.974365, 4.000000, 4.000000, 4.000000, 4.000000, 4.000000, 4.000000, 4.000000, 4.000000, 4.000000, 4.000000, 4.000000, 4.000000, 4.000000, 4.000000, 4.000000, 4.000000
113.000000, 0.000000, 4205.127930, 4245.127930, 4184.102539, 4195.384277, 4231.281738, 4207.179199, 4204.615234, 4195.384277, 4236.922852, 4181.025391, 4183.589844, 4184.615234, 4239.487305, 4199.487305, 3473.000000, 8123.000000, 7989.000000, 0.000000, 0.000000, 0.000000, 26027.000000, 827.179443, 4.000000, 4.000000, 4.000000, 4.000000, 4.000000, 4.000000, 4.000000, 4.000000, 4.000000, 4.000000, 4.000000, 4.000000, 4.000000, 4.000000, 4.000000, 4.000000
114.000000, 0.000000, 4210.769043, 4254.871582, 4190.256348, 4197.948730, 4238.461426, 4215.384277, 4210.256348, 4225.641113, 4273.333008, 4187.179199, 4199.487305, 4198.974121, 4252.820313, 4211.281738, 3254.000000, 8123.000000, 7989.000000, 0.000000, 0.000000, 0.000000, 26027.000000, 834.871765, 4.000000, 4.000000, 4.000000, 4.000000, 4.000000, 4.000000, 4.000000, 4.000000, 4.000000, 4.000000, 4.000000, 4.000000, 4.000000, 4.000000, 4.000000, 4.000000
115.000000, 0.000000, 4212.307617, 4256.410156, 4201.538574, 4208.717773, 4235.384277, 4208.205078, 4212.820313, 4230.769043, 4287.179199, 4187.179199, 4204.615234, 4209.743652, 4249.230469, 4216.410156, 3571.000000, 8113.000000, 8013.000000, 0.000000, 0.000000, 0.000000, 26027.000000, 842.564087, 4.000000, 4.000000, 4.000000, 4.000000, 4.000000, 4.000000, 4.000000, 4.000000, 4.000000, 4.000000, 4.000000, 4.000000, 4.000000, 4.000000, 4.000000, 4.000000
116.000000, 0.000000, 4215.384277, 4260.000000, 4210.769043, 4207.692383, 4232.820313, 4199.487305, 4203.589844, 4214.358887, 4294.358887, 4196.410156, 4206.666504, 4215.897461, 4249.230469, 4218.461426, 3516.000000, 8113.000000, 8013.000000, 0.000000, 0.000000, 0.000000, 26027.000000, 850.256409, 4.000000, 4.000000, 4.000000, 4.000000, 4.000000, 4.000000, 4.000000, 4.000000, 4.000000, 4.000000, 4.000000, 4.000000, 4.000000, 4.000000, 4.000000, 4.000000
117.000000, 0.000000, 4220.512695, 4258.974121, 4208.717773, 4206.153809, 4235.384277, 4199.487305, 4194.358887, 4215.384277, 4304.615234, 4197.948730, 4209.230469, 4219.487305, 4253.846191, 4220.512695, 3473.000000, 8110.000000, 8040.000000, 0.000000, 0.000000, 0.000000, 26027.000000, 858.461548, 4.000000, 4.000000, 4.000000, 4.000000, 4.000000, 4.000000, 4.000000, 4.000000, 4.000000, 4.000000, 4.000000, 4.000000, 4.000000, 4.000000, 4.000000, 4.000000
118.000000, 0.000000, 4218.461426, 4249.230469, 4204.615234, 4204.102539, 4223.589844, 4197.436035, 4196.410156, 4221.538574, 4301.538574, 4184.615234, 4203.589844, 4215.897461, 4248.717773, 4216.922852, 3254.000000, 8110.000000, 8040.000000, 0.000000, 0.000000, 0.000000, 26027.000000, 866.153809, 4.000000, 4.000000, 4.000000, 4.000000, 4.000000, 4.000000, 4.000000, 4.000000, 4.000000, 4.000000, 4.000000, 4.000000, 4.000000, 4.000000, 4.000000, 4.000000
119.000000, 0.000000, 4220.512695, 4252.307617, 4212.820313, 4201.538574, 4217.948730, 4198.974121, 4204.102539, 4208.205078, 4295.384277, 4187.179199, 4200.512695, 4213.846191, 4245.641113, 4220.000000, 3571.000000, 8121.000000, 8105.000000, 0.000000, 0.000000, 0.000000, 26027.000000, 874.358948, 4.000000, 4.000000, 4.000000, 4.000000, 4.000000, 4.000000, 4.000000, 4.000000, 4.000000, 4.000000, 4.000000, 4.000000, 4.000000, 4.000000, 4.000000, 4.000000
120.000000, 0.000000, 4227.179199, 4262.563965, 4221.538574, 4209.230469, 4232.307617, 4203.076660, 4198.974121, 4193.333008, 4298.974121, 4199.487305, 4210.769043, 4224.102539, 4252.820313, 4231.794922, 3516.000000, 8121.000000, 8105.000000, 0.000000, 0.000000, 0.000000, 26027.000000, 882.051270, 4.000000, 4.000000, 4.000000, 4.000000, 4.000000, 4.000000, 4.000000, 4.000000, 4.000000, 4.000000, 4.000000, 4.000000, 4.000000, 4.000000, 4.000000, 4.000000
121.000000, 0.000000, 4223.589844, 4256.922852, 4217.436035, 4208.205078, 4229.230469, 4193.333008, 4185.641113, 4195.384277, 4297.948730, 4196.410156, 4212.820313, 4226.153809, 4248.717773, 4231.794922, 3473.000000, 8136.000000, 8139.000000, 0.000000, 0.000000, 0.000000, 26027.000000, 890.256409, 4.000000, 4.000000, 4.000000, 4.000000, 4.000000, 4.000000, 4.000000, 4.000000, 4.000000, 4.000000, 4.000000, 4.000000, 4.000000, 4.000000, 4.000000, 4.000000
122.000000, 0.000000, 4215.897461, 4248.717773, 4216.922852, 4206.153809, 4209.743652, 4181.025391, 4188.717773, 4213.333008, 4294.871582, 4186.666504, 4200.000000, 4219.487305, 4233.333008, 4215.897461, 3254.000000, 8136.000000, 8139.000000, 0.000000, 0.000000, 0.000000, 26027.000000, 897.948669, 4.000000, 4.000000, 4.000000, 4.000000, 4.000000, 4.000000, 4.000000, 4.000000, 4.000000, 4.000000, 4.000000, 4.000000, 4.000000, 4.000000, 4.000000, 4.000000
123.000000, 0.000000, 4221.025391, 4257.436035, 4223.076660, 4210.256348, 4209.230469, 4185.641113, 4206.153809, 4214.358887, 4298.974121, 4187.692383, 4200.512695, 4223.076660, 4235.384277, 4215.384277, 3571.000000, 8172.000000, 8175.000000, 0.000000, 0.000000, 0.000000, 26027.000000, 906.153809, 4.000000, 4.000000, 4.000000, 4.000000, 4.000000, 4.000000, 4.000000, 4.000000, 4.000000, 4.000000, 4.000000, 4.000000, 4.000000, 4.000000, 4.000000, 4.000000
124.000000, 0.000000, 4230.769043, 4268.717773, 4222.563965, 4211.794922, 4221.025391, 4194.358887, 4201.025391, 4188.205078, 4297.436035, 4193.846191, 4209.230469, 4227.692383, 4249.230469, 4226.153809, 3516.000000, 8172.000000, 8175.000000, 0.000000, 0.000000, 0.000000, 26027.000000, 913.846130, 4.000000, 4.000000, 4.000000, 4.000000, 4.000000, 4.000000, 4.000000, 4.000000, 4.000000, 4.000000, 4.000000, 4.000000, 4.000000, 4.000000, 4.000000, 4.000000
125.000000, 0.000000, 4222.563965, 4261.538574, 4210.769043, 4211.281738, 4218.974121, 4190.769043, 4182.563965, 4176.410156, 4293.333008, 4196.410156, 4202.563965, 4216.410156, 4244.615234, 4218.974121, 3473.000000, 8195.000000, 8181.000000, 0.000000, 0.000000, 0.000000, 26027.000000, 922.051270, 4.000000, 4.000000, 4.000000, 4.000000, 4.000000, 4.000000, 4.000000, 4.000000, 4.000000, 4.000000, 4.000000, 4.000000, 4.000000, 4.000000, 4.000000, 4.000000
126.000000, 0.000000, 4213.333008, 4253.333008, 4199.487305, 4202.051270, 4207.692383, 4187.179199, 4183.076660, 4191.794922, 4301.025391, 4202.563965, 4197.948730, 4209.743652, 4231.794922, 4210.769043, 3254.000000, 8195.000000, 8181.000000, 0.000000, 0.000000, 0.000000, 26027.000000, 929.743591, 4.000000, 4.000000, 4.000000, 4.000000, 4.000000, 4.000000, 4.000000, 4.000000, 4.000000, 4.000000, 4.000000, 4.000000, 4.000000, 4.000000, 4.000000, 4.000000
127.000000, 0.000000, 4218.974121, 4261.025391, 4204.102539, 4205.641113, 4202.563965, 4188.717773, 4190.256348, 4194.871582, 4304.615234, 4201.025391, 4202.563965, 4214.358887, 4232.307617, 4213.846191, 52.000000, 8215.000000, 8198.000000, 0.000000, 0.000000, 0.000000, 26027.000000, 937.948669, 4.000000, 4.000000, 4.000000, 4.000000, 4.000000, 4.000000, 4.000000, 4.000000, 4.000000, 4.000000, 4.000000, 4.000000, 4.000000, 4.000000, 4.000000, 4.000000
0.000000, 0.000000, 4219.487305, 4265.641113, 4209.743652, 4214.358887, 4205.127930, 4183.076660, 4184.102539, 4187.179199, 4296.922852, 4188.717773, 4196.410156, 4208.717773, 4235.897461, 4210.769043, 3490.000000, 8215.000000, 8198.000000, 0.000000, 0.000000, 0.000000, 26027.000000, 945.640991, 4.000000, 4.000000, 4.000000, 4.000000, 4.000000, 4.000000, 4.000000, 4.000000, 4.000000, 4.000000, 4.000000, 4.000000, 4.000000, 4.000000, 4.000000, 4.000000
1.000000, 0.000000, 4209.743652, 4252.820313, 4200.000000, 4203.076660, 4206.666504, 4184.615234, 4176.922852, 4187.179199, 4291.281738, 4175.897461, 4186.153809, 4195.384277, 4230.256348, 4196.410156, 2284.000000, 8246.000000, 8213.000000, 0.000000, 0.000000, 0.000000, 26027.000000, 953.846130, 4.000000, 4.000000, 4.000000, 4.000000, 4.000000, 4.000000, 4.000000, 4.000000, 4.000000, 4.000000, 4.000000, 4.000000, 4.000000, 4.000000, 4.000000, 4.000000
2.000000, 0.000000, 4199.487305, 4239.487305, 4191.281738, 4197.948730, 4198.974121, 4200.512695, 4192.820313, 4189.743652, 4287.692383, 4165.127930, 4181.538574, 4190.769043, 4215.384277, 4186.153809, 3114.000000, 8246.000000, 8213.000000, 0.000000, 0.000000, 0.000000, 26027.000000, 962.051270, 4.000000, 4.000000, 4.000000, 4.000000, 4.000000, 4.000000, 4.000000, 4.000000, 4.000000, 4.000000, 4.000000, 4.000000, 4.000000, 4.000000, 4.000000, 4.000000
3.000000, 0.000000, 4198.974121, 4242.051270, 4196.922852, 4201.538574, 4188.717773, 4206.666504, 4210.769043, 4203.589844, 4291.794922, 4173.333008, 4185.127930, 4194.871582, 4211.281738, 4190.256348, 3554.000000, 8251.000000, 8210.000000, 0.000000, 0.000000, 0.000000, 26027.000000, 969.743591, 4.000000, 4.000000, 4.000000, 4.000000, 4.000000, 4.000000, 4.000000, 4.000000, 4.000000, 4.000000, 4.000000, 4.000000, 4.000000, 4.000000, 4.000000, 4.000000
4.000000, 0.000000, 4204.102539, 4242.563965, 4203.076660, 4200.512695, 4188.205078, 4202.051270, 4206.153809, 4220.512695, 4311.794922, 4196.410156, 4195.384277, 4202.563965, 4227.692383, 4200.512695, 3538.000000, 8251.000000, 8210.000000, 0.000000, 0.000000, 0.000000, 26027.000000, 977.948669, 4.000000, 4.000000, 4.000000, 4.000000, 4.000000, 4.000000, 4.000000, 4.000000, 4.000000, 4.000000, 4.000000, 4.000000, 4.000000, 4.000000, 4.000000, 4.000000
5.000000, 0.000000, 4202.563965, 4237.436035, 4201.025391, 4199.487305, 4190.256348, 4197.948730, 4195.897461, 4204.102539, 4309.230469, 4200.512695, 4201.538574, 4205.127930, 4236.922852, 4203.076660, 3575.000000, 8245.000000, 8196.000000, 0.000000, 0.000000, 0.000000, 26027.000000, 985.640991, 4.000000, 4.000000, 4.000000, 4.000000, 4.000000, 4.000000, 4.000000, 4.000000, 4.000000, 4.000000, 4.000000, 4.000000, 4.000000, 4.000000, 4.000000, 4.000000
6.000000, 0.000000, 4199.487305, 4241.538574, 4195.897461, 4196.922852, 4185.641113, 4187.692383, 4185.641113, 4172.307617, 4284.615234, 4184.615234, 4201.538574, 4200.000000, 4233.846191, 4202.051270, 3461.000000, 8245.000000, 8196.000000, 0.000000, 0.000000, 0.000000, 26027.000000, 993.846130, 4.000000, 4.000000, 4.000000, 4.000000, 4.000000, 4.000000, 4.000000, 4.000000, 4.000000, 4.000000, 4.000000, 4.000000, 4.000000, 4.000000, 4.000000, 4.000000
7.000000, 0.000000, 4198.461426, 4240.000000, 4188.205078, 4194.358887, 4182.563965, 4171.281738, 4177.436035, 4170.256348, 4280.000000, 4178.974121, 4195.897461, 4190.769043, 4233.333008, 4200.512695, 3509.000000, 8248.000000, 8182.000000, 0.000000, 0.000000, 0.000000, 26028.000000, 1.538461, 4.000000, 4.000000, 4.000000, 4.000000, 4.000000, 4.000000, 4.000000, 4.000000, 4.000000, 4.000000, 4.000000, 4.000000, 4.000000, 4.000000, 4.000000, 4.000000
8.000000, 0.000000, 4191.281738, 4231.281738, 4180.512695, 4188.717773, 4183.076660, 4164.102539, 4178.974121, 4182.563965, 4291.794922, 4186.153809, 4190.256348, 4188.717773, 4233.846191, 4192.820313, 3305.000000, 8248.000000, 8182.000000, 0.000000, 0.000000, 0.000000, 26028.000000, 9.743589, 4.000000, 4.000000, 4.000000, 4.000000, 4.000000, 4.000000, 4.000000, 4.000000, 4.000000, 4.000000, 4.000000, 4.000000, 4.000000, 4.000000, 4.000000, 4.000000
9.000000, 0.000000, 4186.666504, 4227.179199, 4182.051270, 4191.794922, 4182.563965, 4174.871582, 4187.692383, 4192.820313, 4303.589844, 4188.717773, 4192.820313, 4193.333008, 4230.256348, 4185.127930, 3535.000000, 8240.000000, 8134.000000, 0.000000, 0.000000, 0.000000, 26028.000000, 17.435898, 4.000000, 4.000000, 4.000000, 4.000000, 4.000000, 4.000000, 4.000000, 4.000000, 4.000000, 4.000000, 4.000000, 4.000000, 4.000000, 4.000000, 4.000000, 4.000000
10.000000, 0.000000, 4193.846191, 4232.307617, 4186.666504, 4200.000000, 4185.127930, 4186.153809, 4191.281738, 4201.538574, 4308.205078, 4186.666504, 4196.410156, 4197.436035, 4231.794922, 4188.205078, 3226.000000, 8240.000000, 8134.000000, 0.000000, 0.000000, 0.000000, 26028.000000, 25.641026, 4.000000, 4.000000, 4.000000, 4.000000, 4.000000, 4.000000, 4.000000, 4.000000, 4.000000, 4.000000, 4.000000, 4.000000, 4.000000, 4.000000, 4.000000, 4.000000
11.000000, 0.000000, 4197.948730, 4242.563965, 4185.641113, 4196.922852, 4183.589844, 4180.512695, 4193.846191, 4192.820313, 4302.051270, 4185.127930, 4192.820313, 4194.871582, 4238.974121, 4194.871582, 3563.000000, 8229.000000, 8102.000000, 0.000000, 0.000000, 0.000000, 26028.000000, 33.333332, 4.000000, 4.000000, 4.000000, 4.000000, 4.000000, 4.000000, 4.000000, 4.000000, 4.000000, 4.000000, 4.000000, 4.000000, 4.000000, 4.000000, 4.000000, 4.000000
12.000000, 0.000000, 4196.922852, 4244.615234, 4189.743652, 4202.563965, 4182.563965, 4173.846191, 4187.179199, 4180.000000, 4301.025391, 4193.846191, 4197.436035, 4202.563965, 4251.794922, 4201.538574, 3508.000000, 8229.000000, 8102.000000, 0.000000, 0.000000, 0.000000, 26028.000000, 41.538460, 4.000000, 4.000000, 4.000000, 4.000000, 4.000000, 4.000000, 4.000000, 4.000000, 4.000000, 4.000000, 4.000000, 4.000000, 4.000000, 4.000000, 4.000000, 4.000000
13.000000, 0.000000, 4197.436035, 4236.410156, 4200.512695, 4206.666504, 4187.179199, 4177.948730, 4181.025391, 4193.846191, 4312.820313, 4205.127930, 4207.179199, 4211.281738, 4257.436035, 4204.615234, 3468.000000, 8222.000000, 8073.000000, 0.000000, 0.000000, 0.000000, 26028.000000, 49.230766, 4.000000, 4.000000, 4.000000, 4.000000, 4.000000, 4.000000, 4.000000, 4.000000, 4.000000, 4.000000, 4.000000, 4.000000, 4.000000, 4.000000, 4.000000, 4.000000
14.000000, 0.000000, 4201.025391, 4231.281738, 4203.589844, 4198.974121, 4184.102539, 4187.692383, 4193.333008, 4204.102539, 4314.358887, 4201.538574, 4205.641113, 4208.205078, 4248.717773, 4202.563965, 3226.000000, 8222.000000, 8073.000000, 0.000000, 0.000000, 0.000000, 26028.000000, 57.435898, 4.000000, 4.000000, 4.000000, 4.000000, 4.000000, 4.000000, 4.000000, 4.000000, 4.000000, 4.000000, 4.000000, 4.000000, 4.000000, 4.000000, 4.000000, 4.000000
15.000000, 0.000000, 4204.615234, 4242.051270, 4203.076660, 4201.538574, 4184.615234, 4199.487305, 4196.410156, 4189.743652, 4307.692383, 4196.922852, 4205.127930, 4210.256348, 4247.179199, 4204.102539, 3563.000000, 8177.000000, 8043.000000, 0.000000, 0.000000, 0.000000, 26028.000000, 65.128204, 4.000000, 4.000000, 4.000000, 4.000000, 4.000000, 4.000000, 4.000000, 4.000000, 4.000000, 4.000000, 4.000000, 4.000000, 4.000000, 4.000000, 4.000000, 4.000000
16.000000, 0.000000, 4205.127930, 4250.256348, 4202.051270, 4202.051270, 4192.820313, 4198.461426, 4183.589844, 4190.769043, 4310.769043, 4198.461426, 4206.666504, 4213.846191, 4252.307617, 4206.153809, 0.000000, 8177.000000, 8043.000000, 0.000000, 0.000000, 0.000000, 26028.000000, 73.333328, 4.000000, 4.000000, 4.000000, 4.000000, 4.000000, 4.000000, 4.000000, 4.000000, 4.000000, 4.000000, 4.000000, 4.000000, 4.000000, 4.000000, 4.000000, 4.000000
17.000000, 0.000000, 4201.538574, 4242.563965, 4201.025391, 4202.051270, 4192.820313, 4185.127930, 4178.974121, 4199.487305, 4310.256348, 4192.820313, 4202.563965, 4211.281738, 4251.794922, 4203.076660, 0.000000, 8151.000000, 8032.000000, 0.000000, 0.000000, 0.000000, 26028.000000, 81.025642, 4.000000, 4.000000, 4.000000, 4.000000, 4.000000, 4.000000, 4.000000, 4.000000, 4.000000, 4.000000, 4.000000, 4.000000, 4.000000, 4.000000, 4.000000, 4.000000
18.000000, 0.000000, 4198.974121, 4237.436035, 4205.641113, 4203.076660, 4189.230469, 4188.717773, 4187.179199, 4200.512695, 4309.743652, 4187.692383, 4204.615234, 4213.333008, 4251.281738, 4202.563965, 0.000000, 8151.000000, 8032.000000, 0.000000, 0.000000, 0.000000, 26028.000000, 89.230766, 4.000000, 4.000000, 4.000000, 4.000000, 4.000000, 4.000000, 4.000000, 4.000000, 4.000000, 4.000000, 4.000000, 4.000000, 4.000000, 4.000000, 4.000000, 4.000000
19.000000, 0.000000, 4203.076660, 4235.384277, 4209.230469, 4203.076660, 4190.256348, 4206.153809, 4203.589844, 4207.179199, 4313.333008, 4185.127930, 4204.102539, 4215.897461, 4246.153809, 4203.589844, 0.000000, 8110.000000, 8013.000000, 0.000000, 0.000000, 0.000000, 26028.000000, 96.923073, 4.000000, 4.000000, 4.000000, 4.000000, 4.000000, 4.000000, 4.000000, 4.000000, 4.000000, 4.000000, 4.000000, 4.000000, 4.000000, 4.000000, 4.000000, 4.000000
20.000000, 0.000000, 4200.512695, 4231.794922, 4202.563965, 4202.563965, 4185.127930, 4201.025391, 4203.589844, 4202.563965, 4309.743652, 4182.563965, 4201.025391, 4206.153809, 4238.974121, 4197.436035, 0.000000, 8110.000000, 8013.000000, 0.000000, 0.000000, 0.000000, 26028.000000, 105.128204, 4.000000, 4.000000, 4.000000, 4.000000, 4.000000, 4.000000, 4.000000, 4.000000, 4.000000, 4.000000, 4.000000, 4.000000, 4.000000, 4.000000, 4.000000, 4.000000
21.000000, 0.000000, 4192.820313, 4229.230469, 4193.846191, 4192.820313, 4184.102539, 4184.615234, 4186.666504, 4188.717773, 4307.179199, 4184.102539, 4200.000000, 4195.897461, 4238.461426, 4190.769043, 0.000000, 8089.000000, 7999.000000, 0.000000, 0.000000, 0.000000, 26028.000000, 112.820511, 4.000000, 4.000000, 4.000000, 4.000000, 4.000000, 4.000000, 4.000000, 4.000000, 4.000000, 4.000000, 4.000000, 4.000000, 4.000000, 4.000000, 4.000000, 4.000000
22.000000, 0.000000, 4190.256348, 4227.179199, 4195.384277, 4195.384277, 4193.846191, 4191.794922, 4191.281738, 4197.436035, 4312.820313, 4177.436035, 4190.256348, 4200.000000, 4226.666504, 4182.563965, 0.000000, 8089.000000, 7999.000000, 0.000000, 0.000000, 0.000000, 26028.000000, 121.025635, 4.000000, 4.000000, 4.000000, 4.000000, 4.000000, 4.000000, 4.000000, 4.000000, 4.000000, 4.000000, 4.000000, 4.000000, 4.000000, 4.000000, 4.000000, 4.000000
23.000000, 0.000000, 4182.051270, 4212.820313, 4194.358887, 4198.974121, 4194.871582, 4208.717773, 4213.333008, 4206.153809, 4314.358887, 4166.666504, 4178.974121, 4198.974121, 4207.692383, 4167.179199, 0.000000, 8079.000000, 7983.000000, 0.000000, 0.000000, 0.000000, 26028.000000, 128.717941, 4.000000, 4.000000, 4.000000, 4.000000, 4.000000, 4.000000, 4.000000, 4.000000, 4.000000, 4.000000, 4.000000, 4.000000, 4.000000, 4.000000, 4.000000, 4.000000
24.000000, 0.000000, 4174.358887, 4207.179199, 4187.179199, 4188.205078, 4185.641113, 4198.974121, 4201.538574, 4188.717773, 4310.769043, 4174.871582, 4182.563965, 4187.179199, 4216.410156, 4168.205078, 0.000000, 8079.000000, 7983.000000, 0.000000, 0.000000, 0.000000, 26028.000000, 136.923080, 4.000000, 4.000000, 4.000000, 4.000000, 4.000000, 4.000000, 4.000000, 4.000000, 4.000000, 4.000000, 4.000000, 4.000000, 4.000000, 4.000000, 4.000000, 4.000000
25.000000, 0.000000, 4179.487305, 4214.871582, 4184.102539, 4188.205078, 4178.461426, 4182.563965, 4176.922852, 4182.563965, 4310.256348, 4185.127930, 4191.794922, 4183.589844, 4240.000000, 4182.051270, 0.000000, 8057.000000, 7967.000000, 0.000000, 0.000000, 0.000000, 26028.000000, 144.615387, 4.000000, 4.000000, 4.000000, 4.000000, 4.000000, 4.000000, 4.000000, 4.000000, 4.000000, 4.000000, 4.000000, 4.000000, 4.000000, 4.000000, 4.000000, 4.000000
26.000000, 0.000000, 4187.692383, 4209.230469, 4185.641113, 4193.333008, 4186.666504, 4200.000000, 4184.615234, 4188.717773, 4311.794922, 4185.641113, 4195.897461, 4188.717773, 4248.205078, 4187.179199, 0.000000, 8057.000000, 7967.000000, 0.000000, 0.000000, 0.000000, 26028.000000, 152.820511, 4.000000, 4.000000, 4.000000, 4.000000, 4.000000, 4.000000, 4.000000, 4.000000, 4.000000, 4.000000, 4.000000, 4.000000, 4.000000, 4.000000, 4.000000, 4.000000
27.000000, 0.000000, 4189.743652, 4198.974121, 4185.641113, 4195.384277, 4197.948730, 4217.436035, 4197.436035, 4184.102539, 4313.846191, 4193.846191, 4201.538574, 4191.794922, 4255.384277, 4191.794922, 0.000000, 8049.000000, 7960.000000, 0.000000, 0.000000, 0.000000, 26028.000000, 161.025635, 4.000000, 4.000000, 4.000000, 4.000000, 4.000000, 4.000000, 4.000000, 4.000000, 4.000000, 4.000000, 4.000000, 4.000000, 4.000000, 4.000000, 4.000000, 4.000000
28.000000, 0.000000, 4182.051270, 4196.922852, 4183.076660, 4188.205078, 4193.333008, 4214.358887, 4204.615234, 4188.717773, 4323.076660, 4203.589844, 4207.179199, 4194.358887, 4266.666504, 4201.025391, 0.000000, 8049.000000, 7960.000000, 0.000000, 0.000000, 0.000000, 26028.000000, 168.717941, 4.000000, 4.000000, 4.000000, 4.000000, 4.000000, 4.000000, 4.000000, 4.000000, 4.000000, 4.000000, 4.000000, 4.000000, 4.000000, 4.000000, 4.000000, 4.000000
29.000000, 0.000000, 4176.922852, 4188.717773, 4185.641113, 4187.692383, 4183.076660, 4221.025391, 4222.563965, 4202.563965, 4332.307617, 4203.589844, 4210.256348, 4196.410156, 4268.717773, 4203.589844, 0.000000, 8029.000000, 7950.000000, 0.000000, 0.000000, 0.000000, 26028.000000, 176.410248, 4.000000, 4.000000, 4.000000, 4.000000, 4.000000, 4.000000, 4.000000, 4.000000, 4.000000, 4.000000, 4.000000, 4.000000, 4.000000, 4.000000, 4.000000, 4.000000
30.000000, 0.000000, 4177.436035, 4173.333008, 4189.230469, 4198.461426, 4182.051270, 4226.153809, 4225.641113, 4203.589844, 4333.846191, 4203.076660, 4213.846191, 4197.436035, 4271.281738, 4203.589844, 0.000000, 8029.000000, 7950.000000, 0.000000, 0.000000, 0.000000, 26028.000000, 184.615387, 4.000000, 4.000000, 4.000000, 4.000000, 4.000000, 4.000000, 4.000000, 4.000000, 4.000000, 4.000000, 4.000000, 4.000000, 4.000000, 4.000000, 4.000000, 4.000000
31.000000, 0.000000, 4174.358887, 4175.897461, 4186.666504, 4187.692383, 4188.717773, 4209.743652, 4206.666504, 4208.205078, 4335.897461, 4205.641113, 4214.871582, 4197.436035, 4276.922852, 4205.127930, 0.000000, 8023.000000, 7946.000000, 0.000000, 0.000000, 0.000000, 26028.000000, 192.820511, 4.000000, 4.000000, 4.000000, 4.000000, 4.000000, 4.000000, 4.000000, 4.000000, 4.000000, 4.000000, 4.000000, 4.000000, 4.000000, 4.000000, 4.000000, 4.000000
32.000000, 0.000000, 4170.769043, 4178.974121, 4181.025391, 4174.871582, 4182.563965, 4196.922852, 4197.948730, 4216.922852, 4338.461426, 4200.512695, 4206.666504, 4193.333008, 4270.769043, 4201.538574, 0.000000, 8023.000000, 7946.000000, 0.000000, 0.000000, 0.000000, 26028.000000, 200.512817, 4.000000, 4.000000, 4.000000, 4.000000, 4.000000, 4.000000, 4.000000, 4.000000, 4.000000, 4.000000, 4.000000, 4.000000, 4.000000, 4.000000, 4.000000, 4.000000
33.000000, 0.000000, 4169.230469, 4168.717773, 4177.948730, 4177.948730, 4170.256348, 4201.538574, 4199.487305, 4210.769043, 4330.769043, 4196.410156, 4199.487305, 4190.769043, 4263.589844, 4198.974121, 0.000000, 8019.000000, 7969.000000, 0.000000, 0.000000, 0.000000, 26028.000000, 208.717941, 4.000000, 4.000000, 4.000000, 4.000000, 4.000000, 4.000000, 4.000000, 4.000000, 4.000000, 4.000000, 4.000000, 4.000000, 4.000000, 4.000000, 4.000000, 4.000000
34.000000, 0.000000, 4165.127930, 4171.281738, 4175.384277, 4178.974121, 4175.897461, 4201.538574, 4195.384277, 4194.871582, 4315.384277, 4197.436035, 4202.563965, 4192.307617, 4268.205078, 4194.358887, 0.000000, 8019.000000, 7969.000000, 0.000000, 0.000000, 0.000000, 26028.000000, 216.410248, 4.000000, 4.000000, 4.000000, 4.000000, 4.000000, 4.000000, 4.000000, 4.000000, 4.000000, 4.000000, 4.000000, 4.000000, 4.000000, 4.000000, 4.000000, 4.000000
35.000000, 0.000000, 4158.461426, 4181.025391, 4169.230469, 4178.974121, 4185.641113, 4200.512695, 4201.025391, 4185.127930, 4304.102539, 4192.307617, 4196.922852, 4187.179199, 4266.153809, 4184.615234, 0.000000, 8016.000000, 7980.000000, 0.000000, 0.000000, 0.000000, 26028.000000, 224.615372, 4.000000, 4.000000, 4.000000, 4.000000, 4.000000, 4.000000, 4.000000, 4.000000, 4.000000, 4.000000, 4.000000, 4.000000, 4.000000, 4.000000, 4.000000, 4.000000
36.000000, 0.000000, 4163.076660, 4187.692383, 4168.205078, 4181.538574, 4184.615234, 4195.897461, 4197.436035, 4187.692383, 4311.794922, 4189.230469, 4189.743652, 4179.487305, 4262.051270, 4184.615234, 0.000000, 8016.000000, 7980.000000, 0.000000, 0.000000, 0.000000, 26028.000000, 232.307693, 4.000000, 4.000000, 4.000000, 4.000000, 4.000000, 4.000000, 4.000000, 4.000000, 4.000000, 4.000000, 4.000000, 4.000000, 4.000000, 4.000000, 4.000000, 4.000000
37.000000, 0.000000, 4173.846191, 4189.743652, 4173.333008, 4185.641113, 4185.127930, 4190.256348, 4180.000000, 4204.615234, 4331.281738, 4202.563965, 4200.000000, 4186.666504, 4270.256348, 4192.820313, 0.000000, 8016.000000, 7991.000000, 0.000000, 0.000000, 0.000000, 26028.000000, 240.512817, 4.000000, 4.000000, 4.000000, 4.000000, 4.000000, 4.000000, 4.000000, 4.000000, 4.000000, 4.000000, 4.000000, 4.000000, 4.000000, 4.000000, 4.000000, 4.000000
38.000000, 0.000000, 4168.717773, 4185.127930, 4174.871582, 4183.589844, 4182.563965, 4202.051270, 4186.666504, 4200.512695, 4330.769043, 4206.153809, 4204.102539, 4191.281738, 4272.820313, 4192.307617, 0.000000, 8016.000000, 7991.000000, 0.000000, 0.000000, 0.000000, 26028.000000, 248.205124, 4.000000, 4.000000, 4.000000, 4.000000, 4.000000, 4.000000, 4.000000, 4.000000, 4.000000, 4.000000, 4.000000, 4.000000, 4.000000, 4.000000, 4.000000, 4.000000
39.000000, 0.000000, 4156.922852, 4177.436035, 4172.307617, 4177.436035, 4173.846191, 4220.512695, 4213.846191, 4184.615234, 4321.025391, 4193.333008, 4191.281738, 4186.153809, 4264.102539, 4187.179199, 0.000000, 8032.000000, 7989.000000, 0.000000, 0.000000, 0.000000, 26028.000000, 256.410248, 4.000000, 4.000000, 4.000000, 4.000000, 4.000000, 4.000000, 4.000000, 4.000000, 4.000000, 4.000000, 4.000000, 4.000000, 4.000000, 4.000000, 4.000000, 4.000000
40.000000, 0.000000, 4158.974121, 4178.974121, 4172.820313, 4180.000000, 4175.897461, 4227.692383, 4235.384277, 4214.871582, 4340.000000, 4199.487305, 4189.743652, 4187.692383, 4261.538574, 4186.153809, 0.000000, 8032.000000, 7989.000000, 0.000000, 0.000000, 0.000000, 26028.000000, 264.102570, 4.000000, 4.000000, 4.000000, 4.000000, 4.000000, 4.000000, 4.000000, 4.000000, 4.000000, 4.000000, 4.000000, 4.000000, 4.000000, 4.000000, 4.000000, 4.000000
41.000000, 0.000000, 4164.102539, 4189.743652, 4172.820313, 4180.000000, 4175.897461, 4224.102539, 4231.794922, 4246.666504, 4360.512695, 4217.948730, 4201.025391, 4189.743652, 4266.153809, 4188.717773, 0.000000, 8044.000000, 7995.000000, 0.000000, 0.000000, 0.000000, 26028.000000, 272.307678, 4.000000, 4.000000, 4.000000, 4.000000, 4.000000, 4.000000, 4.000000, 4.000000, 4.000000, 4.000000, 4.000000, 4.000000, 4.000000, 4.000000, 4.000000, 4.000000
42.000000, 0.000000, 4159.487305, 4188.205078, 4169.743652, 4179.487305, 4169.230469, 4218.461426, 4220.000000, 4231.281738, 4348.717773, 4217.948730, 4198.974121, 4185.641113, 4269.230469, 4189.743652, 0.000000, 8044.000000, 7995.000000, 0.000000, 0.000000, 0.000000, 26028.000000, 280.000000, 4.000000, 4.000000, 4.000000, 4.000000, 4.000000, 4.000000, 4.000000, 4.000000, 4.000000, 4.000000, 4.000000, 4.000000, 4.000000, 4.000000, 4.000000, 4.000000
43.000000, 0.000000, 4150.256348, 4173.846191, 4167.179199, 4181.538574, 4177.948730, 4215.897461, 4224.102539, 4200.512695, 4329.230469, 4212.820313, 4186.666504, 4182.563965, 4262.051270, 4180.000000, 0.000000, 8075.000000, 7986.000000, 0.000000, 0.000000, 0.000000, 26028.000000, 288.205109, 4.000000, 4.000000, 4.000000, 4.000000, 4.000000, 4.000000, 4.000000, 4.000000, 4.000000, 4.000000, 4.000000, 4.000000, 4.000000, 4.000000, 4.000000, 4.000000
44.000000, 0.000000, 4147.692383, 4167.179199, 4168.717773, 4175.897461, 4186.666504, 4221.025391, 4235.384277, 4206.666504, 4337.436035, 4218.974121, 4185.641113, 4183.076660, 4250.769043, 4170.256348, 0.000000, 8075.000000, 7986.000000, 0.000000, 0.000000, 0.000000, 26028.000000, 296.410248, 4.000000, 4.000000, 4.000000, 4.000000, 4.000000, 4.000000, 4.000000, 4.000000, 4.000000, 4.000000, 4.000000, 4.000000, 4.000000, 4.000000, 4.000000, 4.000000
45.000000, 0.000000, 4150.256348, 4174.358887, 4170.769043, 4178.461426, 4174.358887, 4223.076660, 4226.153809, 4226.153809, 4348.205078, 4220.512695, 4188.717773, 4180.512695, 4249.743652, 4169.743652, 0.000000, 8098.000000, 7973.000000, 0.000000, 0.000000, 0.000000, 26028.000000, 304.102570, 4.000000, 4.000000, 4.000000, 4.000000, 4.000000, 4.000000, 4.000000, 4.000000, 4.000000, 4.000000, 4.000000, 4.000000, 4.000000, 4.000000, 4.000000, 4.000000
46.000000, 0.000000, 4143.589844, 4171.281738, 4163.589844, 4177.436035, 4168.717773, 4206.666504, 4201.538574, 4203.076660, 4332.307617, 4215.384277, 4176.410156, 4168.717773, 4243.589844, 4163.076660, 0.000000, 8098.000000, 7973.000000, 0.000000, 0.000000, 0.000000, 26028.000000, 312.307678, 4.000000, 4.000000, 4.000000, 4.000000, 4.000000, 4.000000, 4.000000, 4.000000, 4.000000, 4.000000, 4.000000, 4.000000, 4.000000, 4.000000, 4.000000, 4.000000
47.000000, 0.000000, 4136.922852, 4162.563965, 4159.487305, 4173.333008, 4180.000000, 4198.461426, 4196.410156, 4175.897461, 4323.076660, 4218.974121, 4166.666504, 4161.538574, 4231.794922, 4154.871582, 0.000000, 8121.000000, 7958.000000, 0.000000, 0.000000, 0.000000, 26028.000000, 320.000000, 4.000000, 4.000000, 4.000000, 4.000000, 4.000000, 4.000000, 4.000000, 4.000000, 4.000000, 4.000000, 4.000000, 4.000000, 4.000000, 4.000000, 4.000000, 4.000000
48.000000, 0.000000, 4145.127930, 4171.794922, 4168.717773, 4181.025391, 4181.538574, 4210.256348, 4212.820313, 4197.948730, 4342.051270, 4232.307617, 4180.512695, 4176.410156, 4242.051270, 4167.179199, 0.000000, 8121.000000, 7958.000000, 0.000000, 0.000000, 0.000000, 26028.000000, 328.205109, 4.000000, 4.000000, 4.000000, 4.000000, 4.000000, 4.000000, 4.000000, 4.000000, 4.000000, 4.000000, 4.000000, 4.000000, 4.000000, 4.000000, 4.000000, 4.000000
49.000000, 0.000000, 4153.333008, 4183.589844, 4172.820313, 4182.563965, 4171.281738, 4212.820313, 4223.589844, 4219.487305, 4351.794922, 4240.000000, 4191.794922, 4185.641113, 4253.846191, 4175.897461, 0.000000, 8148.000000, 7971.000000, 0.000000, 0.000000, 0.000000, 26028.000000, 335.897430, 4.000000, 4.000000, 4.000000, 4.000000, 4.000000, 4.000000, 4.000000, 4.000000, 4.000000, 4.000000, 4.000000, 4.000000, 4.000000, 4.000000, 4.000000, 4.000000
50.000000, 0.000000, 4150.769043, 4183.589844, 4166.153809, 4179.487305, 4168.717773, 4199.487305, 4211.281738, 4186.666504, 4331.281738, 4232.307617, 4181.025391, 4172.307617, 4246.666504, 4166.666504, 0.000000, 8148.000000, 7971.000000, 0.000000, 0.000000, 0.000000, 26028.000000, 344.102570, 4.000000, 4.000000, 4.000000, 4.000000, 4.000000, 4.000000, 4.000000, 4.000000, 4.000000, 4.000000, 4.000000, 4.000000, 4.000000, 4.000000, 4.000000, 4.000000
51.000000, 0.000000, 4155.384277, 4178.974121, 4170.256348, 4179.487305, 4171.281738, 4196.922852, 4207.692383, 4173.846191, 4321.538574, 4229.230469, 4181.025391, 4173.333008, 4247.692383, 4171.281738, 0.000000, 8151.000000, 7992.000000, 0.000000, 0.000000, 0.000000, 26028.000000, 351.794861, 4.000000, 4.000000, 4.000000, 4.000000, 4.000000, 4.000000, 4.000000, 4.000000, 4.000000, 4.000000, 4.000000, 4.000000, 4.000000, 4.000000, 4.000000, 4.000000
52.000000, 0.000000, 4169.743652, 4182.051270, 4185.127930, 4185.127930, 4170.256348, 4200.000000, 4219.487305, 4200.000000, 4337.948730, 4244.102539, 4199.487305, 4193.333008, 4259.487305, 4191.281738, 0.000000, 8151.000000, 7992.000000, 0.000000, 0.000000, 0.000000, 26028.000000, 360.000000, 4.000000, 4.000000, 4.000000, 4.000000, 4.000000, 4.000000, 4.000000, 4.000000, 4.000000, 4.000000, 4.000000, 4.000000, 4.000000, 4.000000, 4.000000, 4.000000
53.000000, 0.000000, 4178.461426, 4197.948730, 4196.410156, 4196.922852, 4177.948730, 4197.948730, 4217.436035, 4203.076660, 4346.153809, 4254.871582, 4208.717773, 4206.153809, 4260.512695, 4201.025391, 0.000000, 8132.000000, 7990.000000, 0.000000, 0.000000, 0.000000, 26028.000000, 368.205109, 4.000000, 4.000000, 4.000000, 4.000000, 4.000000, 4.000000, 4.000000, 4.000000, 4.000000, 4.000000, 4.000000, 4.000000, 4.000000, 4.000000, 4.000000, 4.000000
54.000000, 0.000000, 4185.641113, 4210.769043, 4195.897461, 4195.897461, 4188.205078, 4205.641113, 4215.897461, 4197.948730, 4341.538574, 4250.256348, 4207.179199, 4206.666504, 4259.487305, 4202.563965, 0.000000, 8132.000000, 7990.000000, 0.000000, 0.000000, 0.000000, 26028.000000, 375.897430, 4.000000, 4.000000, 4.000000, 4.000000, 4.000000, 4.000000, 4.000000, 4.000000, 4.000000, 4.000000, 4.000000, 4.000000, 4.000000, 4.000000, 4.000000, 4.000000
55.000000, 0.000000, 4188.717773, 4205.127930, 4190.769043, 4194.358887, 4184.615234, 4203.589844, 4217.436035, 4198.461426, 4337.948730, 4244.102539, 4207.179199, 4206.153809, 4255.384277, 4203.589844, 0.000000, 8111.000000, 7963.000000, 0.000000, 0.000000, 0.000000, 26028.000000, 384.102570, 4.000000, 4.000000, 4.000000, 4.000000, 4.000000, 4.000000, 4.000000, 4.000000, 4.000000, 4.000000, 4.000000, 4.000000, 4.000000, 4.000000, 4.000000, 4.000000
56.000000, 0.000000, 4184.615234, 4200.000000, 4191.794922, 4196.410156, 4183.076660, 4188.205078, 4205.127930, 4189.230469, 4338.974121, 4246.666504, 4211.794922, 4209.230469, 4247.692383, 4205.127930, 0.000000, 8111.000000, 7963.000000, 0.000000, 0.000000, 0.000000, 26028.000000, 391.794861, 4.000000, 4.000000, 4.000000, 4.000000, 4.000000, 4.000000, 4.000000, 4.000000, 4.000000, 4.000000, 4.000000, 4.000000, 4.000000, 4.000000, 4.000000, 4.000000
57.000000, 0.000000, 4186.153809, 4205.127930, 4193.846191, 4196.922852, 4188.205078, 4192.820313, 4199.487305, 4184.102539, 4343.076660, 4254.358887, 4215.384277, 4210.256348, 4255.897461, 4211.794922, 0.000000, 8099.000000, 7943.000000, 0.000000, 0.000000, 0.000000, 26028.000000, 400.000000, 4.000000, 4.000000, 4.000000, 4.000000, 4.000000, 4.000000, 4.000000, 4.000000, 4.000000, 4.000000, 4.000000, 4.000000, 4.000000, 4.000000, 4.000000, 4.000000
58.000000, 0.000000, 4188.717773, 4202.563965, 4188.205078, 4198.461426, 4188.205078, 4206.666504, 4214.871582, 4193.846191, 4349.743652, 4259.487305, 4215.384277, 4209.230469, 4261.538574, 4212.820313, 0.000000, 8099.000000, 7943.000000, 0.000000, 0.000000, 0.000000, 26028.000000, 407.692291, 4.000000, 4.000000, 4.000000, 4.000000, 4.000000, 4.000000, 4.000000, 4.000000, 4.000000, 4.000000, 4.000000, 4.000000, 4.000000, 4.000000, 4.000000, 4.000000
59.000000, 0.000000, 4187.692383, 4198.461426, 4184.615234, 4197.948730, 4185.127930, 4204.102539, 4222.051270, 4204.615234, 4356.922852, 4264.102539, 4215.384277, 4208.717773, 4253.333008, 4209.230469, 0.000000, 8103.000000, 7941.000000, 0.000000, 0.000000, 0.000000, 26028.000000, 415.897430, 4.000000, 4.000000, 4.000000, 4.000000, 4.000000, 4.000000, 4.000000, 4.000000, 4.000000, 4.000000, 4.000000, 4.000000, 4.000000, 4.000000, 4.000000, 4.000000
60.000000, 0.000000, 4188.717773, 4202.051270, 4187.179199, 4202.051270, 4185.641113, 4202.563965, 4228.205078, 4214.358887, 4361.025391, 4269.743652, 4216.410156, 4208.205078, 4254.871582, 4211.794922, 0.000000, 8103.000000, 7941.000000, 0.000000, 0.000000, 0.000000, 26028.000000, 423.589722, 4.000000, 4.000000, 4.000000, 4.000000, 4.000000, 4.000000, 4.000000, 4.000000, 4.000000, 4.000000, 4.000000, 4.000000, 4.000000, 4.000000, 4.000000, 4.000000
61.000000, 0.000000, 4185.641113, 4200.512695, 4186.666504, 4201.025391, 4184.102539, 4204.102539, 4238.974121, 4220.512695, 4360.512695, 4270.769043, 4215.897461, 4209.230469, 4258.974121, 4215.384277, 0.000000, 8122.000000, 7932.000000, 0.000000, 0.000000, 0.000000, 26028.000000, 431.794861, 4.000000, 4.000000, 4.000000, 4.000000, 4.000000, 4.000000, 4.000000, 4.000000, 4.000000, 4.000000, 4.000000, 4.000000, 4.000000, 4.000000, 4.000000, 4.000000
62.000000, 0.000000, 4186.153809, 4194.358887, 4187.179199, 4197.948730, 4187.692383, 4191.281738, 4216.410156, 4217.436035, 4358.974121, 4275.897461, 4218.974121, 4212.820313, 4256.922852, 4217.436035, 0.000000, 8122.000000, 7932.000000, 0.000000, 0.000000, 0.000000, 26028.000000, 439.487183, 4.000000, 4.000000, 4.000000, 4.000000, 4.000000, 4.000000, 4.000000, 4.000000, 4.000000, 4.000000, 4.000000, 4.000000, 4.000000, 4.000000, 4.000000, 4.000000
63.000000, 0.000000, 4187.692383, 4187.179199, 4188.205078, 4203.076660, 4185.641113, 4182.051270, 4195.897461, 4211.794922, 4357.435547, 4281.025391, 4218.461426, 4213.333008, 4255.384277, 4216.922852, 0.000000, 8176.000000, 7885.000000, 0.000000, 0.000000, 0.000000, 26028.000000, 447.692291, 4.000000, 4.000000, 4.000000, 4.000000, 4.000000, 4.000000, 4.000000, 4.000000, 4.000000, 4.000000, 4.000000, 4.000000, 4.000000, 4.000000, 4.000000, 4.000000
64.000000, 0.000000, 4180.512695, 4183.076660, 4184.615234, 4195.897461, 4171.794922, 4185.127930, 4210.769043, 4202.051270, 4348.205078, 4269.230469, 4205.127930, 4198.974121, 4247.179199, 4207.179199, 3494.000000, 8176.000000, 7885.000000, 0.000000, 0.000000, 0.000000, 26028.000000, 455.897430, 4.000000, 4.000000, 4.000000, 4.000000, 4.000000, 4.000000, 4.000000, 4.000000, 4.000000, 4.000000, 4.000000, 4.000000, 4.000000, 4.000000, 4.000000, 4.000000
65.000000, 0.000000, 4182.051270, 4189.230469, 4184.615234, 4194.358887, 4172.820313, 4182.563965, 4206.666504, 4182.563965, 4336.410156, 4257.948730, 4195.897461, 4189.230469, 4240.000000, 4199.487305, 2284.000000, 8195.000000, 7878.000000, 0.000000, 0.000000, 0.000000, 26028.000000, 463.589722, 4.000000, 4.000000, 4.000000, 4.000000, 4.000000, 4.000000, 4.000000, 4.000000, 4.000000, 4.000000, 4.000000, 4.000000, 4.000000, 4.000000, 4.000000, 4.000000
66.000000, 0.000000, 4183.076660, 4187.692383, 4182.051270, 4199.487305, 4185.641113, 4184.102539, 4191.281738, 4179.487305, 4341.025391, 4270.256348, 4201.025391, 4194.871582, 4245.641113, 4206.153809, 3116.000000, 8195.000000, 7878.000000, 0.000000, 0.000000, 0.000000, 26028.000000, 471.794861, 4.000000, 4.000000, 4.000000, 4.000000, 4.000000, 4.000000, 4.000000, 4.000000, 4.000000, 4.000000, 4.000000, 4.000000, 4.000000, 4.000000, 4.000000, 4.000000
67.000000, 0.000000, 4177.436035, 4177.436035, 4172.820313, 4192.307617, 4185.641113, 4185.641113, 4192.307617, 4194.871582, 4353.333008, 4283.589844, 4204.102539, 4198.461426, 4243.589844, 4208.205078, 3556.000000, 8203.000000, 7891.000000, 0.000000, 0.000000, 0.000000, 26028.000000, 479.487183, 4.000000, 4.000000, 4.000000, 4.000000, 4.000000, 4.000000, 4.000000, 4.000000, 4.000000, 4.000000, 4.000000, 4.000000, 4.000000, 4.000000, 4.000000, 4.000000
68.000000, 0.000000, 4178.461426, 4175.897461, 4170.256348, 4189.230469, 4182.051270, 4182.051270, 4197.948730, 4194.871582, 4351.794922, 4278.974121, 4196.410156, 4191.794922, 4230.256348, 4198.461426, 3532.000000, 8203.000000, 7891.000000, 0.000000, 0.000000, 0.000000, 26028.000000, 487.692291, 4.000000, 4.000000, 4.000000, 4.000000, 4.000000, 4.000000, 4.000000, 4.000000, 4.000000, 4.000000, 4.000000, 4.000000, 4.000000, 4.000000, 4.000000, 4.000000
69.000000, 0.000000, 4181.538574, 4178.461426, 4176.922852, 4191.281738, 4185.127930, 4192.820313, 4204.102539, 4182.051270, 4348.717773, 4278.974121, 4196.410156, 4184.615234, 4230.769043, 4197.436035, 3575.000000, 8194.000000, 7902.000000, 0.000000, 0.000000, 0.000000, 26028.000000, 495.384613, 4.000000, 4.000000, 4.000000, 4.000000, 4.000000, 4.000000, 4.000000, 4.000000, 4.000000, 4.000000, 4.000000, 4.000000, 4.000000, 4.000000, 4.000000, 4.000000
70.000000, 0.000000, 4179.487305, 4175.384277, 4183.076660, 4195.384277, 4187.179199, 4205.127930, 4207.179199, 4180.512695, 4353.846191, 4285.127930, 4203.076660, 4187.179199, 4235.897461, 4202.563965, 3491.000000, 8194.000000, 7902.000000, 0.000000, 0.000000, 0.000000, 26028.000000, 503.589722, 4.000000, 4.000000, 4.000000, 4.000000, 4.000000, 4.000000, 4.000000, 4.000000, 4.000000, 4.000000, 4.000000, 4.000000, 4.000000, 4.000000, 4.000000, 4.000000
