title:neutral13, recorded:17.05.18 21.46.37, timestamp started:2018-05-12T20:28:52.032863+02:00            , sampling:128, subject:Noé, labels:COUNTER INTERPOLATED AF3 F7 F3 FC5 T7 P7 O1 O2 P8 T8 FC6 F4 F8 AF4 RAW_CQ GYROX GYROY MARKER MARKER_HARDWARE SYNC TIME_STAMP_s TIME_STAMP_ms CQ_AF3 CQ_F7 CQ_F3 CQ_FC5 CQ_T7 CQ_P7 CQ_O1 CQ_O2 CQ_P8 CQ_T8 CQ_FC6 CQ_F4 CQ_F8 CQ_AF4 CQ_CMS CQ_DRL, chan:40, samples:2677, units:emotiv
119.000000, 0.000000, 3794.358887, 4190.256348, 4184.615234, 4201.538574, 4172.307617, 4201.025391, 4196.410156, 4183.076660, 4197.436035, 4181.025391, 4187.692383, 4159.487305, 4160.512695, 4195.897461, 1268.000000, 8269.000000, 8300.000000, 0.000000, 0.000000, 0.000000, -22086.000000, 7.692307, 4.000000, 4.000000, 4.000000, 4.000000, 4.000000, 4.000000, 4.000000, 4.000000, 4.000000, 4.000000, 4.000000, 4.000000, 4.000000, 4.000000, 4.000000, 4.000000
120.000000, 0.000000, 3784.615234, 4189.230469, 4187.692383, 4203.076660, 4163.589844, 4192.820313, 4193.846191, 4187.692383, 4203.076660, 4204.615234, 4200.512695, 4173.333008, 4173.333008, 4199.487305, 3689.000000, 8269.000000, 8300.000000, 0.000000, 0.000000, 0.000000, -22086.000000, 15.384615, 4.000000, 4.000000, 4.000000, 4.000000, 4.000000, 4.000000, 4.000000, 4.000000, 4.000000, 4.000000, 4.000000, 4.000000, 4.000000, 4.000000, 4.000000, 4.000000
121.000000, 0.000000, 3781.538330, 4193.846191, 4200.000000, 4210.256348, 4164.615234, 4187.179199, 4187.179199, 4188.717773, 4202.563965, 4214.871582, 4205.127930, 4184.102539, 4179.487305, 4205.127930, 3653.000000, 8303.000000, 8313.000000, 0.000000, 0.000000, 0.000000, -22086.000000, 23.589743, 4.000000, 4.000000, 4.000000, 4.000000, 4.000000, 4.000000, 4.000000, 4.000000, 4.000000, 4.000000, 4.000000, 4.000000, 4.000000, 4.000000, 4.000000, 4.000000
122.000000, 0.000000, 3775.897461, 4196.410156, 4203.589844, 4214.871582, 4176.410156, 4189.230469, 4181.025391, 4187.692383, 4200.512695, 4199.487305, 4203.589844, 4187.179199, 4173.333008, 4197.436035, 3550.000000, 8303.000000, 8313.000000, 0.000000, 0.000000, 0.000000, -22086.000000, 31.282051, 4.000000, 4.000000, 4.000000, 4.000000, 4.000000, 4.000000, 4.000000, 4.000000, 4.000000, 4.000000, 4.000000, 4.000000, 4.000000, 4.000000, 4.000000, 4.000000
123.000000, 0.000000, 3760.000000, 4193.846191, 4195.897461, 4214.358887, 4174.358887, 4188.717773, 4183.589844, 4191.794922, 4202.051270, 4201.538574, 4203.589844, 4189.743652, 4172.820313, 4198.461426, 1268.000000, 8373.000000, 8308.000000, 0.000000, 0.000000, 0.000000, -22086.000000, 38.974358, 4.000000, 4.000000, 4.000000, 4.000000, 4.000000, 4.000000, 4.000000, 4.000000, 4.000000, 4.000000, 4.000000, 4.000000, 4.000000, 4.000000, 4.000000, 4.000000
124.000000, 0.000000, 3743.589600, 4189.743652, 4190.769043, 4213.846191, 4166.153809, 4186.666504, 4190.769043, 4193.846191, 4201.025391, 4217.436035, 4202.563965, 4186.153809, 4176.922852, 4201.538574, 3689.000000, 8373.000000, 8308.000000, 0.000000, 0.000000, 0.000000, -22086.000000, 47.179485, 4.000000, 4.000000, 4.000000, 4.000000, 4.000000, 4.000000, 4.000000, 4.000000, 4.000000, 4.000000, 4.000000, 4.000000, 4.000000, 4.000000, 4.000000, 4.000000
125.000000, 0.000000, 3734.871582, 4188.205078, 4186.153809, 4212.820313, 4166.153809, 4190.256348, 4188.717773, 4195.384277, 4199.487305, 4210.256348, 4200.000000, 4178.461426, 4173.846191, 4197.436035, 3653.000000, 8395.000000, 8288.000000, 0.000000, 0.000000, 0.000000, -22086.000000, 54.871792, 4.000000, 4.000000, 4.000000, 4.000000, 4.000000, 4.000000, 4.000000, 4.000000, 4.000000, 4.000000, 4.000000, 4.000000, 4.000000, 4.000000, 4.000000, 4.000000
126.000000, 0.000000, 3731.794678, 4190.256348, 4186.153809, 4214.358887, 4172.820313, 4191.281738, 4188.205078, 4200.000000, 4205.127930, 4195.897461, 4206.666504, 4178.974121, 4173.846191, 4200.000000, 3550.000000, 8395.000000, 8288.000000, 0.000000, 0.000000, 0.000000, -22086.000000, 62.564102, 4.000000, 4.000000, 4.000000, 4.000000, 4.000000, 4.000000, 4.000000, 4.000000, 4.000000, 4.000000, 4.000000, 4.000000, 4.000000, 4.000000, 4.000000, 4.000000
127.000000, 0.000000, 3729.743408, 4195.897461, 4192.820313, 4217.436035, 4178.974121, 4190.769043, 4197.436035, 4204.615234, 4212.820313, 4209.743652, 4215.384277, 4185.641113, 4185.127930, 4200.000000, 54.000000, 8348.000000, 8197.000000, 0.000000, 0.000000, 0.000000, -22086.000000, 70.256409, 4.000000, 4.000000, 4.000000, 4.000000, 4.000000, 4.000000, 4.000000, 4.000000, 4.000000, 4.000000, 4.000000, 4.000000, 4.000000, 4.000000, 4.000000, 4.000000
0.000000, 0.000000, 3714.358887, 4193.846191, 4192.820313, 4208.717773, 4166.153809, 4188.717773, 4202.051270, 4202.563965, 4212.820313, 4224.102539, 4208.717773, 4184.615234, 4182.051270, 4197.948730, 3339.000000, 8348.000000, 8197.000000, 0.000000, 0.000000, 0.000000, -22086.000000, 78.461540, 4.000000, 4.000000, 4.000000, 4.000000, 4.000000, 4.000000, 4.000000, 4.000000, 4.000000, 4.000000, 4.000000, 4.000000, 4.000000, 4.000000, 4.000000, 4.000000
1.000000, 0.000000, 3691.281982, 4180.000000, 4183.076660, 4195.897461, 4156.410156, 4185.127930, 4194.871582, 4197.948730, 4202.051270, 4210.256348, 4198.461426, 4173.333008, 4167.692383, 4192.307617, 3498.000000, 8291.000000, 8155.000000, 0.000000, 0.000000, 0.000000, -22086.000000, 86.153847, 4.000000, 4.000000, 4.000000, 4.000000, 4.000000, 4.000000, 4.000000, 4.000000, 4.000000, 4.000000, 4.000000, 4.000000, 4.000000, 4.000000, 4.000000, 4.000000
2.000000, 0.000000, 3687.179443, 4181.538574, 4181.538574, 4197.948730, 4177.436035, 4189.230469, 4183.076660, 4198.974121, 4201.538574, 4205.127930, 4208.717773, 4170.769043, 4175.897461, 4192.307617, 2800.000000, 8291.000000, 8155.000000, 0.000000, 0.000000, 0.000000, -22086.000000, 93.846153, 4.000000, 4.000000, 4.000000, 4.000000, 4.000000, 4.000000, 4.000000, 4.000000, 4.000000, 4.000000, 4.000000, 4.000000, 4.000000, 4.000000, 4.000000, 4.000000
3.000000, 0.000000, 3688.205078, 4195.384277, 4184.615234, 4198.974121, 4193.333008, 4192.307617, 4181.025391, 4198.974121, 4207.692383, 4218.461426, 4220.000000, 4177.948730, 4186.666504, 4197.436035, 2012.000000, 8240.000000, 8125.000000, 0.000000, 0.000000, 0.000000, -22086.000000, 102.051277, 4.000000, 4.000000, 4.000000, 4.000000, 4.000000, 4.000000, 4.000000, 4.000000, 4.000000, 4.000000, 4.000000, 4.000000, 4.000000, 4.000000, 4.000000, 4.000000
4.000000, 0.000000, 3676.410156, 4194.358887, 4182.051270, 4188.717773, 4183.589844, 4186.666504, 4184.102539, 4196.410156, 4205.641113, 4220.512695, 4220.512695, 4182.051270, 4188.717773, 4193.333008, 3527.000000, 8240.000000, 8125.000000, 0.000000, 0.000000, 0.000000, -22086.000000, 109.743584, 4.000000, 4.000000, 4.000000, 4.000000, 4.000000, 4.000000, 4.000000, 4.000000, 4.000000, 4.000000, 4.000000, 4.000000, 4.000000, 4.000000, 4.000000, 4.000000
5.000000, 0.000000, 3668.205078, 4188.205078, 4181.025391, 4183.589844, 4182.051270, 4186.153809, 4178.974121, 4195.897461, 4207.692383, 4216.922852, 4229.743652, 4186.153809, 4202.051270, 4196.410156, 3583.000000, 8165.000000, 8091.000000, 0.000000, 0.000000, 0.000000, -22086.000000, 117.948715, 4.000000, 4.000000, 4.000000, 4.000000, 4.000000, 4.000000, 4.000000, 4.000000, 4.000000, 4.000000, 4.000000, 4.000000, 4.000000, 4.000000, 4.000000, 4.000000
6.000000, 0.000000, 3673.333252, 4189.743652, 4185.127930, 4186.666504, 4191.281738, 4186.666504, 4174.358887, 4194.871582, 4211.794922, 4222.051270, 4239.487305, 4190.256348, 4211.794922, 4198.461426, 3052.000000, 8165.000000, 8091.000000, 0.000000, 0.000000, 0.000000, -22086.000000, 125.641022, 4.000000, 4.000000, 4.000000, 4.000000, 4.000000, 4.000000, 4.000000, 4.000000, 4.000000, 4.000000, 4.000000, 4.000000, 4.000000, 4.000000, 4.000000, 4.000000
7.000000, 0.000000, 3674.871826, 4191.794922, 4186.153809, 4190.769043, 4187.692383, 4175.384277, 4180.512695, 4194.871582, 4204.615234, 4221.538574, 4233.846191, 4187.179199, 4209.230469, 4191.794922, 3513.000000, 8141.000000, 8075.000000, 0.000000, 0.000000, 0.000000, -22086.000000, 133.333328, 4.000000, 4.000000, 4.000000, 4.000000, 4.000000, 4.000000, 4.000000, 4.000000, 4.000000, 4.000000, 4.000000, 4.000000, 4.000000, 4.000000, 4.000000, 4.000000
8.000000, 0.000000, 3661.538330, 4182.051270, 4186.666504, 4189.230469, 4178.974121, 4175.384277, 4191.794922, 4199.487305, 4195.384277, 4209.230469, 4219.487305, 4181.538574, 4198.974121, 4194.871582, 3513.000000, 8141.000000, 8075.000000, 0.000000, 0.000000, 0.000000, -22086.000000, 141.538452, 4.000000, 4.000000, 4.000000, 4.000000, 4.000000, 4.000000, 4.000000, 4.000000, 4.000000, 4.000000, 4.000000, 4.000000, 4.000000, 4.000000, 4.000000, 4.000000
9.000000, 0.000000, 3649.743408, 4163.589844, 4189.743652, 4185.127930, 4182.051270, 4185.127930, 4187.179199, 4201.025391, 4204.615234, 4204.102539, 4213.846191, 4182.051270, 4193.846191, 4195.384277, 3533.000000, 8127.000000, 8066.000000, 0.000000, 0.000000, 0.000000, -22086.000000, 149.230759, 4.000000, 4.000000, 4.000000, 4.000000, 4.000000, 4.000000, 4.000000, 4.000000, 4.000000, 4.000000, 4.000000, 4.000000, 4.000000, 4.000000, 4.000000, 4.000000
10.000000, 0.000000, 3656.410156, 4167.692383, 4197.948730, 4192.820313, 4192.820313, 4184.102539, 4175.897461, 4201.538574, 4218.461426, 4210.769043, 4222.563965, 4192.307617, 4207.692383, 4198.461426, 3547.000000, 8127.000000, 8066.000000, 0.000000, 0.000000, 0.000000, -22086.000000, 157.435898, 4.000000, 4.000000, 4.000000, 4.000000, 4.000000, 4.000000, 4.000000, 4.000000, 4.000000, 4.000000, 4.000000, 4.000000, 4.000000, 4.000000, 4.000000, 4.000000
11.000000, 0.000000, 3666.153809, 4184.615234, 4203.589844, 4203.076660, 4184.102539, 4181.025391, 4176.410156, 4204.615234, 4214.871582, 4213.846191, 4224.102539, 4196.410156, 4215.897461, 4203.589844, 1270.000000, 8120.000000, 8071.000000, 0.000000, 0.000000, 0.000000, -22086.000000, 165.128204, 4.000000, 4.000000, 4.000000, 4.000000, 4.000000, 4.000000, 4.000000, 4.000000, 4.000000, 4.000000, 4.000000, 4.000000, 4.000000, 4.000000, 4.000000, 4.000000
12.000000, 0.000000, 3656.923096, 4177.948730, 4196.922852, 4199.487305, 4171.794922, 4183.589844, 4181.538574, 4197.948730, 4203.076660, 4210.256348, 4209.230469, 4186.153809, 4199.487305, 4196.410156, 3518.000000, 8120.000000, 8071.000000, 0.000000, 0.000000, 0.000000, -22086.000000, 172.820511, 4.000000, 4.000000, 4.000000, 4.000000, 4.000000, 4.000000, 4.000000, 4.000000, 4.000000, 4.000000, 4.000000, 4.000000, 4.000000, 4.000000, 4.000000, 4.000000
13.000000, 0.000000, 3644.102539, 4166.153809, 4191.794922, 4194.871582, 4182.051270, 4182.563965, 4178.974121, 4189.743652, 4197.948730, 4211.794922, 4197.948730, 4177.948730, 4190.256348, 4195.384277, 3482.000000, 8119.000000, 8048.000000, 0.000000, 0.000000, 0.000000, -22086.000000, 181.025635, 4.000000, 4.000000, 4.000000, 4.000000, 4.000000, 4.000000, 4.000000, 4.000000, 4.000000, 4.000000, 4.000000, 4.000000, 4.000000, 4.000000, 4.000000, 4.000000
14.000000, 0.000000, 3644.615234, 4172.307617, 4195.384277, 4203.589844, 4192.307617, 4183.076660, 4175.897461, 4197.436035, 4204.615234, 4214.358887, 4201.025391, 4182.051270, 4199.487305, 4194.871582, 3547.000000, 8119.000000, 8048.000000, 0.000000, 0.000000, 0.000000, -22086.000000, 188.717941, 4.000000, 4.000000, 4.000000, 4.000000, 4.000000, 4.000000, 4.000000, 4.000000, 4.000000, 4.000000, 4.000000, 4.000000, 4.000000, 4.000000, 4.000000, 4.000000
15.000000, 0.000000, 3642.051270, 4174.358887, 4193.846191, 4204.615234, 4185.641113, 4185.127930, 4185.127930, 4203.589844, 4212.820313, 4218.461426, 4208.717773, 4187.179199, 4202.563965, 4194.358887, 1270.000000, 8116.000000, 8039.000000, 0.000000, 0.000000, 0.000000, -22086.000000, 196.410248, 4.000000, 4.000000, 4.000000, 4.000000, 4.000000, 4.000000, 4.000000, 4.000000, 4.000000, 4.000000, 4.000000, 4.000000, 4.000000, 4.000000, 4.000000, 4.000000
16.000000, 0.000000, 3632.820313, 4164.615234, 4186.666504, 4194.358887, 4182.051270, 4183.076660, 4188.717773, 4198.974121, 4216.410156, 4225.641113, 4210.769043, 4183.589844, 4197.436035, 4197.436035, 0.000000, 8116.000000, 8039.000000, 0.000000, 0.000000, 0.000000, -22086.000000, 204.615387, 4.000000, 4.000000, 4.000000, 4.000000, 4.000000, 4.000000, 4.000000, 4.000000, 4.000000, 4.000000, 4.000000, 4.000000, 4.000000, 4.000000, 4.000000, 4.000000
17.000000, 0.000000, 3627.179443, 4159.487305, 4184.615234, 4192.307617, 4186.153809, 4183.076660, 4181.025391, 4201.538574, 4218.974121, 4226.153809, 4209.743652, 4184.615234, 4197.948730, 4191.281738, 0.000000, 8114.000000, 8047.000000, 0.000000, 0.000000, 0.000000, -22086.000000, 212.307693, 4.000000, 4.000000, 4.000000, 4.000000, 4.000000, 4.000000, 4.000000, 4.000000, 4.000000, 4.000000, 4.000000, 4.000000, 4.000000, 4.000000, 4.000000, 4.000000
18.000000, 0.000000, 3623.076904, 4162.051270, 4189.743652, 4198.974121, 4186.666504, 4183.589844, 4178.974121, 4206.666504, 4218.974121, 4220.000000, 4207.179199, 4186.666504, 4194.358887, 4191.281738, 0.000000, 8114.000000, 8047.000000, 0.000000, 0.000000, 0.000000, -22086.000000, 220.512817, 4.000000, 4.000000, 4.000000, 4.000000, 4.000000, 4.000000, 4.000000, 4.000000, 4.000000, 4.000000, 4.000000, 4.000000, 4.000000, 4.000000, 4.000000, 4.000000
19.000000, 0.000000, 3618.461426, 4162.563965, 4195.384277, 4199.487305, 4189.743652, 4183.076660, 4182.563965, 4198.974121, 4213.333008, 4214.871582, 4205.127930, 4184.102539, 4189.743652, 4195.897461, 0.000000, 8142.000000, 8068.000000, 0.000000, 0.000000, 0.000000, -22086.000000, 228.205124, 4.000000, 4.000000, 4.000000, 4.000000, 4.000000, 4.000000, 4.000000, 4.000000, 4.000000, 4.000000, 4.000000, 4.000000, 4.000000, 4.000000, 4.000000, 4.000000
20.000000, 0.000000, 3610.769043, 4159.487305, 4195.384277, 4192.307617, 4190.256348, 4187.692383, 4185.641113, 4194.358887, 4205.127930, 4209.230469, 4200.512695, 4185.127930, 4183.076660, 4195.897461, 0.000000, 8142.000000, 8068.000000, 0.000000, 0.000000, 0.000000, -22086.000000, 235.897430, 4.000000, 4.000000, 4.000000, 4.000000, 4.000000, 4.000000, 4.000000, 4.000000, 4.000000, 4.000000, 4.000000, 4.000000, 4.000000, 4.000000, 4.000000, 4.000000
21.000000, 0.000000, 3598.974365, 4150.256348, 4187.179199, 4185.127930, 4187.179199, 4189.230469, 4186.153809, 4196.922852, 4196.922852, 4198.461426, 4185.127930, 4183.589844, 4168.205078, 4194.358887, 0.000000, 8169.000000, 8082.000000, 0.000000, 0.000000, 0.000000, -22086.000000, 244.102554, 4.000000, 4.000000, 4.000000, 4.000000, 4.000000, 4.000000, 4.000000, 4.000000, 4.000000, 4.000000, 4.000000, 4.000000, 4.000000, 4.000000, 4.000000, 4.000000
22.000000, 0.000000, 3592.307617, 4142.563965, 4179.487305, 4183.076660, 4180.000000, 4185.127930, 4185.641113, 4203.076660, 4196.922852, 4195.384277, 4176.922852, 4180.512695, 4162.051270, 4192.307617, 0.000000, 8169.000000, 8082.000000, 0.000000, 0.000000, 0.000000, -22086.000000, 251.794861, 4.000000, 4.000000, 4.000000, 4.000000, 4.000000, 4.000000, 4.000000, 4.000000, 4.000000, 4.000000, 4.000000, 4.000000, 4.000000, 4.000000, 4.000000, 4.000000
23.000000, 0.000000, 3596.410156, 4148.717773, 4188.717773, 4190.769043, 4168.205078, 4184.615234, 4188.205078, 4210.256348, 4204.615234, 4206.153809, 4190.256348, 4192.307617, 4177.436035, 4204.102539, 0.000000, 8231.000000, 8103.000000, 0.000000, 0.000000, 0.000000, -22086.000000, 260.000000, 4.000000, 4.000000, 4.000000, 4.000000, 4.000000, 4.000000, 4.000000, 4.000000, 4.000000, 4.000000, 4.000000, 4.000000, 4.000000, 4.000000, 4.000000, 4.000000
24.000000, 0.000000, 3607.179443, 4158.974121, 4209.743652, 4202.563965, 4172.307617, 4187.179199, 4192.820313, 4211.794922, 4210.769043, 4218.461426, 4204.615234, 4206.666504, 4189.743652, 4213.846191, 0.000000, 8231.000000, 8103.000000, 0.000000, 0.000000, 0.000000, -22086.000000, 267.692291, 4.000000, 4.000000, 4.000000, 4.000000, 4.000000, 4.000000, 4.000000, 4.000000, 4.000000, 4.000000, 4.000000, 4.000000, 4.000000, 4.000000, 4.000000, 4.000000
25.000000, 0.000000, 3609.743408, 4160.512695, 4216.922852, 4205.641113, 4187.179199, 4187.692383, 4192.307617, 4215.897461, 4216.922852, 4224.102539, 4203.589844, 4206.666504, 4187.692383, 4214.358887, 0.000000, 8248.000000, 8106.000000, 0.000000, 0.000000, 0.000000, -22086.000000, 275.897430, 4.000000, 4.000000, 4.000000, 4.000000, 4.000000, 4.000000, 4.000000, 4.000000, 4.000000, 4.000000, 4.000000, 4.000000, 4.000000, 4.000000, 4.000000, 4.000000
26.000000, 0.000000, 3600.512695, 4160.512695, 4208.205078, 4198.974121, 4187.692383, 4186.666504, 4186.153809, 4211.794922, 4217.436035, 4217.948730, 4201.025391, 4201.025391, 4184.102539, 4214.871582, 0.000000, 8248.000000, 8106.000000, 0.000000, 0.000000, 0.000000, -22086.000000, 283.589722, 4.000000, 4.000000, 4.000000, 4.000000, 4.000000, 4.000000, 4.000000, 4.000000, 4.000000, 4.000000, 4.000000, 4.000000, 4.000000, 4.000000, 4.000000, 4.000000
27.000000, 0.000000, 3593.333252, 4155.897461, 4199.487305, 4192.820313, 4181.538574, 4184.615234, 4182.563965, 4192.307617, 4206.153809, 4208.205078, 4202.563965, 4197.948730, 4182.051270, 4207.692383, 0.000000, 8255.000000, 8108.000000, 0.000000, 0.000000, 0.000000, -22086.000000, 291.794861, 4.000000, 4.000000, 4.000000, 4.000000, 4.000000, 4.000000, 4.000000, 4.000000, 4.000000, 4.000000, 4.000000, 4.000000, 4.000000, 4.000000, 4.000000, 4.000000
28.000000, 0.000000, 3585.128174, 4147.692383, 4193.846191, 4184.615234, 4185.127930, 4185.127930, 4187.179199, 4186.153809, 4196.410156, 4207.179199, 4199.487305, 4191.281738, 4171.794922, 4204.615234, 0.000000, 8255.000000, 8108.000000, 0.000000, 0.000000, 0.000000, -22086.000000, 299.487183, 4.000000, 4.000000, 4.000000, 4.000000, 4.000000, 4.000000, 4.000000, 4.000000, 4.000000, 4.000000, 4.000000, 4.000000, 4.000000, 4.000000, 4.000000, 4.000000
29.000000, 0.000000, 3572.820313, 4144.615234, 4185.641113, 4180.000000, 4185.641113, 4192.307617, 4192.307617, 4202.051270, 4198.461426, 4214.358887, 4193.333008, 4183.589844, 4165.127930, 4201.538574, 0.000000, 8253.000000, 8128.000000, 0.000000, 0.000000, 0.000000, -22086.000000, 307.692291, 4.000000, 4.000000, 4.000000, 4.000000, 4.000000, 4.000000, 4.000000, 4.000000, 4.000000, 4.000000, 4.000000, 4.000000, 4.000000, 4.000000, 4.000000, 4.000000
30.000000, 0.000000, 3560.512695, 4143.076660, 4182.563965, 4178.461426, 4180.000000, 4198.974121, 4198.974121, 4206.666504, 4201.025391, 4217.948730, 4192.307617, 4183.076660, 4171.794922, 4196.410156, 0.000000, 8253.000000, 8128.000000, 0.000000, 0.000000, 0.000000, -22086.000000, 315.384613, 4.000000, 4.000000, 4.000000, 4.000000, 4.000000, 4.000000, 4.000000, 4.000000, 4.000000, 4.000000, 4.000000, 4.000000, 4.000000, 4.000000, 4.000000, 4.000000
31.000000, 0.000000, 3551.794678, 4138.461426, 4183.589844, 4173.846191, 4181.025391, 4201.538574, 4212.820313, 4202.563965, 4198.461426, 4203.589844, 4187.692383, 4183.589844, 4162.051270, 4195.384277, 0.000000, 8241.000000, 8151.000000, 0.000000, 0.000000, 0.000000, -22086.000000, 323.076904, 4.000000, 4.000000, 4.000000, 4.000000, 4.000000, 4.000000, 4.000000, 4.000000, 4.000000, 4.000000, 4.000000, 4.000000, 4.000000, 4.000000, 4.000000, 4.000000
32.000000, 0.000000, 3552.820313, 4135.897461, 4182.563965, 4174.358887, 4177.948730, 4200.000000, 4216.922852, 4213.846191, 4204.102539, 4195.897461, 4184.102539, 4177.436035, 4150.769043, 4195.384277, 0.000000, 8241.000000, 8151.000000, 0.000000, 0.000000, 0.000000, -22086.000000, 330.769226, 4.000000, 4.000000, 4.000000, 4.000000, 4.000000, 4.000000, 4.000000, 4.000000, 4.000000, 4.000000, 4.000000, 4.000000, 4.000000, 4.000000, 4.000000, 4.000000
33.000000, 0.000000, 3555.384521, 4137.436035, 4183.589844, 4182.051270, 4161.538574, 4191.794922, 4208.717773, 4214.358887, 4212.307617, 4208.205078, 4193.333008, 4175.897461, 4161.025391, 4204.615234, 0.000000, 8214.000000, 8168.000000, 0.000000, 0.000000, 0.000000, -22086.000000, 338.974365, 4.000000, 4.000000, 4.000000, 4.000000, 4.000000, 4.000000, 4.000000, 4.000000, 4.000000, 4.000000, 4.000000, 4.000000, 4.000000, 4.000000, 4.000000, 4.000000
34.000000, 0.000000, 3546.153809, 4132.820313, 4183.589844, 4185.127930, 4158.461426, 4190.769043, 4203.589844, 4199.487305, 4209.230469, 4210.256348, 4193.846191, 4180.512695, 4156.922852, 4202.563965, 0.000000, 8214.000000, 8168.000000, 0.000000, 0.000000, 0.000000, -22086.000000, 346.666656, 4.000000, 4.000000, 4.000000, 4.000000, 4.000000, 4.000000, 4.000000, 4.000000, 4.000000, 4.000000, 4.000000, 4.000000, 4.000000, 4.000000, 4.000000, 4.000000
35.000000, 0.000000, 3540.512695, 4133.333008, 4182.563965, 4185.641113, 4181.538574, 4202.563965, 4203.076660, 4203.589844, 4209.743652, 4200.000000, 4190.769043, 4186.153809, 4149.230469, 4195.897461, 0.000000, 8197.000000, 8172.000000, 0.000000, 0.000000, 0.000000, -22086.000000, 354.358978, 4.000000, 4.000000, 4.000000, 4.000000, 4.000000, 4.000000, 4.000000, 4.000000, 4.000000, 4.000000, 4.000000, 4.000000, 4.000000, 4.000000, 4.000000, 4.000000
36.000000, 0.000000, 3548.205078, 4140.512695, 4186.666504, 4188.717773, 4193.846191, 4201.025391, 4192.820313, 4219.487305, 4216.922852, 4205.641113, 4204.102539, 4190.256348, 4173.333008, 4205.127930, 0.000000, 8197.000000, 8172.000000, 0.000000, 0.000000, 0.000000, -22086.000000, 362.564087, 4.000000, 4.000000, 4.000000, 4.000000, 4.000000, 4.000000, 4.000000, 4.000000, 4.000000, 4.000000, 4.000000, 4.000000, 4.000000, 4.000000, 4.000000, 4.000000
37.000000, 0.000000, 3550.769043, 4137.948730, 4184.615234, 4188.717773, 4180.512695, 4184.102539, 4174.358887, 4207.692383, 4206.153809, 4211.794922, 4209.230469, 4185.127930, 4190.256348, 4202.051270, 0.000000, 8158.000000, 8167.000000, 0.000000, 0.000000, 0.000000, -22086.000000, 370.769226, 4.000000, 4.000000, 4.000000, 4.000000, 4.000000, 4.000000, 4.000000, 4.000000, 4.000000, 4.000000, 4.000000, 4.000000, 4.000000, 4.000000, 4.000000, 4.000000
38.000000, 0.000000, 3538.974365, 4132.307617, 4176.410156, 4183.076660, 4171.794922, 4180.512695, 4169.230469, 4178.461426, 4184.102539, 4201.025391, 4202.563965, 4175.897461, 4179.487305, 4200.000000, 0.000000, 8158.000000, 8167.000000, 0.000000, 0.000000, 0.000000, -22086.000000, 378.461517, 4.000000, 4.000000, 4.000000, 4.000000, 4.000000, 4.000000, 4.000000, 4.000000, 4.000000, 4.000000, 4.000000, 4.000000, 4.000000, 4.000000, 4.000000, 4.000000
39.000000, 0.000000, 3532.307617, 4130.769043, 4178.974121, 4181.538574, 4171.794922, 4188.205078, 4180.000000, 4175.384277, 4185.641113, 4201.025391, 4211.794922, 4177.948730, 4188.717773, 4204.102539, 0.000000, 8127.000000, 8165.000000, 0.000000, 0.000000, 0.000000, -22086.000000, 386.153839, 4.000000, 4.000000, 4.000000, 4.000000, 4.000000, 4.000000, 4.000000, 4.000000, 4.000000, 4.000000, 4.000000, 4.000000, 4.000000, 4.000000, 4.000000, 4.000000
40.000000, 0.000000, 3536.410156, 4130.769043, 4182.051270, 4182.563965, 4169.230469, 4186.666504, 4188.205078, 4188.717773, 4197.948730, 4207.179199, 4221.025391, 4187.692383, 4204.615234, 4202.051270, 0.000000, 8127.000000, 8165.000000, 0.000000, 0.000000, 0.000000, -22086.000000, 393.846130, 4.000000, 4.000000, 4.000000, 4.000000, 4.000000, 4.000000, 4.000000, 4.000000, 4.000000, 4.000000, 4.000000, 4.000000, 4.000000, 4.000000, 4.000000, 4.000000
41.000000, 0.000000, 3533.845947, 4132.307617, 4176.410156, 4184.615234, 4174.871582, 4182.563965, 4185.641113, 4191.794922, 4198.974121, 4202.563965, 4213.333008, 4185.641113, 4200.000000, 4205.127930, 0.000000, 8104.000000, 8172.000000, 0.000000, 0.000000, 0.000000, -22086.000000, 402.051270, 4.000000, 4.000000, 4.000000, 4.000000, 4.000000, 4.000000, 4.000000, 4.000000, 4.000000, 4.000000, 4.000000, 4.000000, 4.000000, 4.000000, 4.000000, 4.000000
42.000000, 0.000000, 3530.256348, 4134.871582, 4178.974121, 4189.230469, 4184.102539, 4186.153809, 4185.127930, 4197.948730, 4201.025391, 4210.256348, 4214.871582, 4182.563965, 4200.512695, 4205.641113, 0.000000, 8104.000000, 8172.000000, 0.000000, 0.000000, 0.000000, -22086.000000, 409.743591, 4.000000, 4.000000, 4.000000, 4.000000, 4.000000, 4.000000, 4.000000, 4.000000, 4.000000, 4.000000, 4.000000, 4.000000, 4.000000, 4.000000, 4.000000, 4.000000
43.000000, 0.000000, 3529.743408, 4134.871582, 4190.256348, 4189.743652, 4180.000000, 4187.179199, 4188.717773, 4208.717773, 4207.692383, 4224.615234, 4218.461426, 4187.692383, 4201.025391, 4204.102539, 0.000000, 8076.000000, 8220.000000, 0.000000, 0.000000, 0.000000, -22086.000000, 417.435883, 4.000000, 4.000000, 4.000000, 4.000000, 4.000000, 4.000000, 4.000000, 4.000000, 4.000000, 4.000000, 4.000000, 4.000000, 4.000000, 4.000000, 4.000000, 4.000000
44.000000, 0.000000, 3521.025635, 4127.179199, 4186.666504, 4184.102539, 4160.512695, 4182.563965, 4186.153809, 4198.461426, 4198.461426, 4203.589844, 4203.589844, 4184.102539, 4185.641113, 4201.025391, 0.000000, 8076.000000, 8220.000000, 0.000000, 0.000000, 0.000000, -22086.000000, 425.641022, 4.000000, 4.000000, 4.000000, 4.000000, 4.000000, 4.000000, 4.000000, 4.000000, 4.000000, 4.000000, 4.000000, 4.000000, 4.000000, 4.000000, 4.000000, 4.000000
45.000000, 0.000000, 3510.256348, 4119.487305, 4181.538574, 4181.025391, 4154.871582, 4181.025391, 4185.641113, 4187.692383, 4186.153809, 4182.563965, 4195.384277, 4174.871582, 4180.512695, 4202.051270, 0.000000, 8065.000000, 8239.000000, 0.000000, 0.000000, 0.000000, -22086.000000, 433.333313, 4.000000, 4.000000, 4.000000, 4.000000, 4.000000, 4.000000, 4.000000, 4.000000, 4.000000, 4.000000, 4.000000, 4.000000, 4.000000, 4.000000, 4.000000, 4.000000
46.000000, 0.000000, 3508.205078, 4121.538574, 4195.384277, 4185.641113, 4175.897461, 4184.102539, 4186.666504, 4194.871582, 4192.820313, 4203.076660, 4209.230469, 4181.538574, 4192.307617, 4212.820313, 0.000000, 8065.000000, 8239.000000, 0.000000, 0.000000, 0.000000, -22086.000000, 441.025635, 4.000000, 4.000000, 4.000000, 4.000000, 4.000000, 4.000000, 4.000000, 4.000000, 4.000000, 4.000000, 4.000000, 4.000000, 4.000000, 4.000000, 4.000000, 4.000000
47.000000, 0.000000, 3510.769043, 4117.948730, 4201.025391, 4188.205078, 4187.179199, 4188.205078, 4184.615234, 4193.333008, 4202.563965, 4213.846191, 4214.871582, 4188.205078, 4191.794922, 4209.743652, 0.000000, 8050.000000, 8256.000000, 0.000000, 0.000000, 0.000000, -22086.000000, 449.230743, 4.000000, 4.000000, 4.000000, 4.000000, 4.000000, 4.000000, 4.000000, 4.000000, 4.000000, 4.000000, 4.000000, 4.000000, 4.000000, 4.000000, 4.000000, 4.000000
48.000000, 0.000000, 3503.589600, 4107.692383, 4190.256348, 4184.615234, 4171.281738, 4187.692383, 4188.717773, 4186.153809, 4198.461426, 4192.820313, 4200.000000, 4181.538574, 4177.436035, 4202.051270, 0.000000, 8050.000000, 8256.000000, 0.000000, 0.000000, 0.000000, -22086.000000, 456.923065, 4.000000, 4.000000, 4.000000, 4.000000, 4.000000, 4.000000, 4.000000, 4.000000, 4.000000, 4.000000, 4.000000, 4.000000, 4.000000, 4.000000, 4.000000, 4.000000
49.000000, 0.000000, 3488.717773, 4107.692383, 4185.641113, 4183.076660, 4157.436035, 4182.051270, 4189.230469, 4187.692383, 4189.230469, 4189.230469, 4192.307617, 4179.487305, 4173.846191, 4205.127930, 0.000000, 8044.000000, 8265.000000, 0.000000, 0.000000, 0.000000, -22086.000000, 465.128204, 4.000000, 4.000000, 4.000000, 4.000000, 4.000000, 4.000000, 4.000000, 4.000000, 4.000000, 4.000000, 4.000000, 4.000000, 4.000000, 4.000000, 4.000000, 4.000000
50.000000, 0.000000, 3488.717773, 4117.436035, 4191.794922, 4187.692383, 4173.333008, 4181.538574, 4184.102539, 4182.563965, 4184.615234, 4203.076660, 4201.025391, 4187.692383, 4187.179199, 4205.641113, 0.000000, 8044.000000, 8265.000000, 0.000000, 0.000000, 0.000000, -22086.000000, 472.820496, 4.000000, 4.000000, 4.000000, 4.000000, 4.000000, 4.000000, 4.000000, 4.000000, 4.000000, 4.000000, 4.000000, 4.000000, 4.000000, 4.000000, 4.000000, 4.000000
51.000000, 0.000000, 3491.281982, 4118.974121, 4190.256348, 4191.281738, 4188.205078, 4191.281738, 4186.153809, 4175.384277, 4184.102539, 4194.358887, 4205.127930, 4190.256348, 4192.307617, 4204.615234, 0.000000, 8041.000000, 8278.000000, 0.000000, 0.000000, 0.000000, -22086.000000, 481.025635, 4.000000, 4.000000, 4.000000, 4.000000, 4.000000, 4.000000, 4.000000, 4.000000, 4.000000, 4.000000, 4.000000, 4.000000, 4.000000, 4.000000, 4.000000, 4.000000
52.000000, 0.000000, 3476.923096, 4111.794922, 4183.076660, 4187.692383, 4176.410156, 4192.307617, 4189.230469, 4185.127930, 4186.666504, 4178.974121, 4191.794922, 4177.948730, 4170.769043, 4199.487305, 0.000000, 8041.000000, 8278.000000, 0.000000, 0.000000, 0.000000, -22086.000000, 488.717926, 4.000000, 4.000000, 4.000000, 4.000000, 4.000000, 4.000000, 4.000000, 4.000000, 4.000000, 4.000000, 4.000000, 4.000000, 4.000000, 4.000000, 4.000000, 4.000000
53.000000, 0.000000, 3466.666504, 4110.256348, 4183.076660, 4186.153809, 4172.820313, 4188.205078, 4184.102539, 4195.897461, 4190.769043, 4184.102539, 4183.589844, 4168.717773, 4156.410156, 4196.410156, 0.000000, 8029.000000, 8306.000000, 0.000000, 0.000000, 0.000000, -22086.000000, 496.923065, 4.000000, 4.000000, 4.000000, 4.000000, 4.000000, 4.000000, 4.000000, 4.000000, 4.000000, 4.000000, 4.000000, 4.000000, 4.000000, 4.000000, 4.000000, 4.000000
54.000000, 0.000000, 3472.307617, 4111.794922, 4185.641113, 4192.307617, 4189.743652, 4195.897461, 4183.589844, 4192.820313, 4196.410156, 4193.846191, 4196.410156, 4174.871582, 4173.333008, 4198.974121, 0.000000, 8029.000000, 8306.000000, 0.000000, 0.000000, 0.000000, -22086.000000, 504.615387, 4.000000, 4.000000, 4.000000, 4.000000, 4.000000, 4.000000, 4.000000, 4.000000, 4.000000, 4.000000, 4.000000, 4.000000, 4.000000, 4.000000, 4.000000, 4.000000
55.000000, 0.000000, 3479.487061, 4113.333008, 4186.153809, 4198.461426, 4197.436035, 4202.051270, 4186.666504, 4193.333008, 4206.153809, 4204.615234, 4208.717773, 4183.589844, 4187.179199, 4197.436035, 0.000000, 8039.000000, 8319.000000, 0.000000, 0.000000, 0.000000, -22086.000000, 512.307678, 4.000000, 4.000000, 4.000000, 4.000000, 4.000000, 4.000000, 4.000000, 4.000000, 4.000000, 4.000000, 4.000000, 4.000000, 4.000000, 4.000000, 4.000000, 4.000000
56.000000, 0.000000, 3471.281982, 4114.871582, 4185.641113, 4199.487305, 4191.281738, 4192.820313, 4187.179199, 4192.307617, 4208.205078, 4211.281738, 4204.615234, 4188.205078, 4182.563965, 4201.538574, 0.000000, 8039.000000, 8319.000000, 0.000000, 0.000000, 0.000000, -22086.000000, 520.512817, 4.000000, 4.000000, 4.000000, 4.000000, 4.000000, 4.000000, 4.000000, 4.000000, 4.000000, 4.000000, 4.000000, 4.000000, 4.000000, 4.000000, 4.000000, 4.000000
57.000000, 0.000000, 3464.615234, 4114.871582, 4184.102539, 4201.025391, 4191.794922, 4185.127930, 4186.153809, 4176.410156, 4198.461426, 4203.589844, 4204.102539, 4183.589844, 4184.102539, 4200.512695, 0.000000, 8068.000000, 8332.000000, 0.000000, 0.000000, 0.000000, -22086.000000, 528.205139, 4.000000, 4.000000, 4.000000, 4.000000, 4.000000, 4.000000, 4.000000, 4.000000, 4.000000, 4.000000, 4.000000, 4.000000, 4.000000, 4.000000, 4.000000, 4.000000
58.000000, 0.000000, 3454.871826, 4104.615234, 4183.076660, 4200.000000, 4193.333008, 4193.333008, 4189.743652, 4166.666504, 4185.641113, 4190.256348, 4201.025391, 4172.820313, 4171.794922, 4194.871582, 0.000000, 8068.000000, 8332.000000, 0.000000, 0.000000, 0.000000, -22086.000000, 535.897400, 4.000000, 4.000000, 4.000000, 4.000000, 4.000000, 4.000000, 4.000000, 4.000000, 4.000000, 4.000000, 4.000000, 4.000000, 4.000000, 4.000000, 4.000000, 4.000000
59.000000, 0.000000, 3433.333252, 4092.307617, 4184.102539, 4193.333008, 4186.666504, 4198.974121, 4193.846191, 4172.307617, 4184.615234, 4189.230469, 4188.205078, 4172.820313, 4149.230469, 4195.897461, 0.000000, 8086.000000, 8334.000000, 0.000000, 0.000000, 0.000000, -22086.000000, 543.589722, 4.000000, 4.000000, 4.000000, 4.000000, 4.000000, 4.000000, 4.000000, 4.000000, 4.000000, 4.000000, 4.000000, 4.000000, 4.000000, 4.000000, 4.000000, 4.000000
60.000000, 0.000000, 3426.666504, 4100.512695, 4185.641113, 4194.871582, 4187.692383, 4193.846191, 4189.230469, 4176.410156, 4190.256348, 4198.974121, 4195.897461, 4182.051270, 4168.205078, 4201.025391, 0.000000, 8086.000000, 8334.000000, 0.000000, 0.000000, 0.000000, -22086.000000, 551.794861, 4.000000, 4.000000, 4.000000, 4.000000, 4.000000, 4.000000, 4.000000, 4.000000, 4.000000, 4.000000, 4.000000, 4.000000, 4.000000, 4.000000, 4.000000, 4.000000
61.000000, 0.000000, 3425.128174, 4117.948730, 4183.589844, 4200.512695, 4191.281738, 4188.717773, 4188.717773, 4171.281738, 4181.025391, 4191.794922, 4208.717773, 4177.436035, 4188.205078, 4207.692383, 0.000000, 8110.000000, 8347.000000, 0.000000, 0.000000, 0.000000, -22086.000000, 559.487183, 4.000000, 4.000000, 4.000000, 4.000000, 4.000000, 4.000000, 4.000000, 4.000000, 4.000000, 4.000000, 4.000000, 4.000000, 4.000000, 4.000000, 4.000000, 4.000000
62.000000, 0.000000, 3417.948730, 4117.948730, 4185.127930, 4207.179199, 4190.256348, 4186.666504, 4187.692383, 4164.615234, 4168.717773, 4179.487305, 4197.436035, 4167.692383, 4168.717773, 4202.051270, 0.000000, 8110.000000, 8347.000000, 0.000000, 0.000000, 0.000000, -22086.000000, 567.179443, 4.000000, 4.000000, 4.000000, 4.000000, 4.000000, 4.000000, 4.000000, 4.000000, 4.000000, 4.000000, 4.000000, 4.000000, 4.000000, 4.000000, 4.000000, 4.000000
63.000000, 0.000000, 3413.333252, 4118.461426, 4187.179199, 4214.358887, 4192.820313, 4184.102539, 4178.461426, 4163.076660, 4171.281738, 4186.666504, 4187.179199, 4168.717773, 4163.076660, 4195.897461, 0.000000, 8164.000000, 8363.000000, 0.000000, 0.000000, 0.000000, -22086.000000, 575.384583, 4.000000, 4.000000, 4.000000, 4.000000, 4.000000, 4.000000, 4.000000, 4.000000, 4.000000, 4.000000, 4.000000, 4.000000, 4.000000, 4.000000, 4.000000, 4.000000
64.000000, 0.000000, 3405.640869, 4124.615234, 4179.487305, 4212.307617, 4196.410156, 4182.051270, 4178.974121, 4164.615234, 4172.307617, 4190.256348, 4189.743652, 4168.205078, 4170.769043, 4199.487305, 3340.000000, 8164.000000, 8363.000000, 0.000000, 0.000000, 0.000000, -22086.000000, 583.076904, 4.000000, 4.000000, 4.000000, 4.000000, 4.000000, 4.000000, 4.000000, 4.000000, 4.000000, 4.000000, 4.000000, 4.000000, 4.000000, 4.000000, 4.000000, 4.000000
65.000000, 0.000000, 3401.025635, 4116.410156, 4173.846191, 4202.051270, 4183.589844, 4182.563965, 4182.051270, 4166.666504, 4167.692383, 4183.076660, 4185.127930, 4163.076660, 4157.436035, 4201.538574, 3498.000000, 8187.000000, 8351.000000, 0.000000, 0.000000, 0.000000, -22086.000000, 591.282043, 4.000000, 4.000000, 4.000000, 4.000000, 4.000000, 4.000000, 4.000000, 4.000000, 4.000000, 4.000000, 4.000000, 4.000000, 4.000000, 4.000000, 4.000000, 4.000000
66.000000, 0.000000, 3404.102539, 4112.820313, 4181.538574, 4201.025391, 4174.358887, 4182.563965, 4174.871582, 4170.769043, 4174.871582, 4182.563965, 4184.102539, 4168.717773, 4153.846191, 4208.205078, 2849.000000, 8187.000000, 8351.000000, 0.000000, 0.000000, 0.000000, -22086.000000, 598.974365, 4.000000, 4.000000, 4.000000, 4.000000, 4.000000, 4.000000, 4.000000, 4.000000, 4.000000, 4.000000, 4.000000, 4.000000, 4.000000, 4.000000, 4.000000, 4.000000
67.000000, 0.000000, 3405.640869, 4119.487305, 4187.692383, 4209.743652, 4195.384277, 4184.615234, 4176.410156, 4181.538574, 4189.743652, 4188.717773, 4198.974121, 4177.948730, 4170.769043, 4204.615234, 2012.000000, 8226.000000, 8319.000000, 0.000000, 0.000000, 0.000000, -22086.000000, 607.179443, 4.000000, 4.000000, 4.000000, 4.000000, 4.000000, 4.000000, 4.000000, 4.000000, 4.000000, 4.000000, 4.000000, 4.000000, 4.000000, 4.000000, 4.000000, 4.000000
68.000000, 0.000000, 3400.512695, 4116.410156, 4182.563965, 4207.692383, 4205.127930, 4186.153809, 4190.256348, 4190.769043, 4192.307617, 4189.230469, 4202.563965, 4176.410156, 4171.281738, 4196.410156, 3529.000000, 8226.000000, 8319.000000, 0.000000, 0.000000, 0.000000, -22086.000000, 614.871765, 4.000000, 4.000000, 4.000000, 4.000000, 4.000000, 4.000000, 4.000000, 4.000000, 4.000000, 4.000000, 4.000000, 4.000000, 4.000000, 4.000000, 4.000000, 4.000000
69.000000, 0.000000, 3392.307617, 4110.256348, 4179.487305, 4199.487305, 4186.666504, 4184.102539, 4190.256348, 4184.102539, 4180.000000, 4183.589844, 4188.205078, 4171.794922, 4152.820313, 4198.461426, 3550.000000, 8242.000000, 8301.000000, 0.000000, 0.000000, 0.000000, -22086.000000, 623.076904, 4.000000, 4.000000, 4.000000, 4.000000, 4.000000, 4.000000, 4.000000, 4.000000, 4.000000, 4.000000, 4.000000, 4.000000, 4.000000, 4.000000, 4.000000, 4.000000
70.000000, 0.000000, 3386.153809, 4112.307617, 4183.076660, 4200.000000, 4182.563965, 4183.076660, 4182.563965, 4174.871582, 4169.743652, 4172.820313, 4178.974121, 4169.743652, 4141.025391, 4191.281738, 3055.000000, 8242.000000, 8301.000000, 0.000000, 0.000000, 0.000000, -22086.000000, 630.769226, 4.000000, 4.000000, 4.000000, 4.000000, 4.000000, 4.000000, 4.000000, 4.000000, 4.000000, 4.000000, 4.000000, 4.000000, 4.000000, 4.000000, 4.000000, 4.000000
71.000000, 0.000000, 3388.205078, 4114.871582, 4184.615234, 4206.666504, 4190.256348, 4183.589844, 4184.615234, 4172.307617, 4166.153809, 4164.102539, 4175.384277, 4163.076660, 4140.000000, 4186.666504, 3517.000000, 8240.000000, 8267.000000, 0.000000, 0.000000, 0.000000, -22086.000000, 638.461548, 4.000000, 4.000000, 4.000000, 4.000000, 4.000000, 4.000000, 4.000000, 4.000000, 4.000000, 4.000000, 4.000000, 4.000000, 4.000000, 4.000000, 4.000000, 4.000000
72.000000, 0.000000, 3392.820313, 4108.205078, 4181.538574, 4197.436035, 4188.205078, 4183.589844, 4184.615234, 4166.153809, 4162.051270, 4165.641113, 4167.179199, 4150.769043, 4132.820313, 4190.256348, 3514.000000, 8240.000000, 8267.000000, 0.000000, 0.000000, 0.000000, -22086.000000, 646.666626, 4.000000, 4.000000, 4.000000, 4.000000, 4.000000, 4.000000, 4.000000, 4.000000, 4.000000, 4.000000, 4.000000, 4.000000, 4.000000, 4.000000, 4.000000, 4.000000
73.000000, 0.000000, 3390.256348, 4106.153809, 4177.948730, 4186.666504, 4195.384277, 4185.127930, 4177.948730, 4160.512695, 4161.538574, 4170.256348, 4165.641113, 4149.230469, 4123.589844, 4190.769043, 3538.000000, 8228.000000, 8248.000000, 0.000000, 0.000000, 0.000000, -22086.000000, 654.358948, 4.000000, 4.000000, 4.000000, 4.000000, 4.000000, 4.000000, 4.000000, 4.000000, 4.000000, 4.000000, 4.000000, 4.000000, 4.000000, 4.000000, 4.000000, 4.000000
74.000000, 0.000000, 3385.640869, 4114.358887, 4178.974121, 4192.307617, 4203.589844, 4185.127930, 4175.897461, 4163.076660, 4167.179199, 4170.769043, 4170.769043, 4157.436035, 4125.641113, 4195.384277, 3555.000000, 8228.000000, 8248.000000, 0.000000, 0.000000, 0.000000, -22086.000000, 662.051270, 4.000000, 4.000000, 4.000000, 4.000000, 4.000000, 4.000000, 4.000000, 4.000000, 4.000000, 4.000000, 4.000000, 4.000000, 4.000000, 4.000000, 4.000000, 4.000000
75.000000, 0.000000, 3388.205078, 4113.333008, 4182.563965, 4196.922852, 4184.615234, 4185.127930, 4177.436035, 4169.230469, 4167.692383, 4167.179199, 4169.230469, 4155.384277, 4123.589844, 4193.333008, 1274.000000, 8205.000000, 8231.000000, 0.000000, 0.000000, 0.000000, -22086.000000, 670.256409, 4.000000, 4.000000, 4.000000, 4.000000, 4.000000, 4.000000, 4.000000, 4.000000, 4.000000, 4.000000, 4.000000, 4.000000, 4.000000, 4.000000, 4.000000, 4.000000
76.000000, 0.000000, 3389.230713, 4110.256348, 4183.589844, 4195.384277, 4170.769043, 4185.127930, 4183.589844, 4175.384277, 4168.717773, 4169.743652, 4168.205078, 4153.846191, 4112.307617, 4191.794922, 3490.000000, 8205.000000, 8231.000000, 0.000000, 0.000000, 0.000000, -22086.000000, 677.948730, 4.000000, 4.000000, 4.000000, 4.000000, 4.000000, 4.000000, 4.000000, 4.000000, 4.000000, 4.000000, 4.000000, 4.000000, 4.000000, 4.000000, 4.000000, 4.000000
77.000000, 0.000000, 3385.128174, 4113.846191, 4183.076660, 4196.922852, 4182.051270, 4186.153809, 4194.358887, 4183.589844, 4175.384277, 4176.922852, 4170.769043, 4161.538574, 4112.307617, 4192.307617, 3454.000000, 8196.000000, 8219.000000, 0.000000, 0.000000, 0.000000, -22086.000000, 686.153809, 4.000000, 4.000000, 4.000000, 4.000000, 4.000000, 4.000000, 4.000000, 4.000000, 4.000000, 4.000000, 4.000000, 4.000000, 4.000000, 4.000000, 4.000000, 4.000000
78.000000, 0.000000, 3386.153809, 4114.871582, 4185.641113, 4200.000000, 4191.794922, 4193.333008, 4197.436035, 4188.205078, 4176.922852, 4177.948730, 4174.358887, 4165.641113, 4126.153809, 4188.717773, 3555.000000, 8196.000000, 8219.000000, 0.000000, 0.000000, 0.000000, -22086.000000, 693.846130, 4.000000, 4.000000, 4.000000, 4.000000, 4.000000, 4.000000, 4.000000, 4.000000, 4.000000, 4.000000, 4.000000, 4.000000, 4.000000, 4.000000, 4.000000, 4.000000
79.000000, 0.000000, 3390.256348, 4113.846191, 4185.641113, 4194.871582, 4190.769043, 4203.589844, 4198.974121, 4187.179199, 4174.871582, 4172.820313, 4175.384277, 4162.563965, 4125.127930, 4194.358887, 1274.000000, 8200.000000, 8215.000000, 0.000000, 0.000000, 0.000000, -22086.000000, 701.538452, 4.000000, 4.000000, 4.000000, 4.000000, 4.000000, 4.000000, 4.000000, 4.000000, 4.000000, 4.000000, 4.000000, 4.000000, 4.000000, 4.000000, 4.000000, 4.000000
80.000000, 0.000000, 3387.179443, 4115.384277, 4173.333008, 4189.743652, 4187.692383, 4198.974121, 4198.461426, 4174.871582, 4167.692383, 4166.153809, 4163.076660, 4152.307617, 4100.000000, 4193.333008, 3490.000000, 8200.000000, 8215.000000, 0.000000, 0.000000, 0.000000, -22086.000000, 709.743591, 4.000000, 4.000000, 4.000000, 4.000000, 4.000000, 4.000000, 4.000000, 4.000000, 4.000000, 4.000000, 4.000000, 4.000000, 4.000000, 4.000000, 4.000000, 4.000000
81.000000, 0.000000, 3376.923096, 4118.974121, 4164.102539, 4187.692383, 4184.102539, 4184.615234, 4185.127930, 4155.897461, 4153.846191, 4153.846191, 4148.717773, 4144.615234, 4082.051270, 4191.281738, 3454.000000, 8217.000000, 8209.000000, 0.000000, 0.000000, 0.000000, -22086.000000, 717.435852, 4.000000, 4.000000, 4.000000, 4.000000, 4.000000, 4.000000, 4.000000, 4.000000, 4.000000, 4.000000, 4.000000, 4.000000, 4.000000, 4.000000, 4.000000, 4.000000
82.000000, 0.000000, 3369.743408, 4115.897461, 4169.230469, 4183.589844, 4184.615234, 4184.102539, 4175.897461, 4157.436035, 4157.436035, 4147.179199, 4146.666504, 4148.205078, 4087.692139, 4196.410156, 3555.000000, 8217.000000, 8209.000000, 0.000000, 0.000000, 0.000000, -22086.000000, 725.128174, 4.000000, 4.000000, 4.000000, 4.000000, 4.000000, 4.000000, 4.000000, 4.000000, 4.000000, 4.000000, 4.000000, 4.000000, 4.000000, 4.000000, 4.000000, 4.000000
83.000000, 0.000000, 3377.435791, 4115.897461, 4173.333008, 4188.717773, 4187.179199, 4188.717773, 4183.076660, 4171.794922, 4169.230469, 4161.025391, 4160.000000, 4155.384277, 4112.307617, 4192.820313, 1274.000000, 8229.000000, 8204.000000, 0.000000, 0.000000, 0.000000, -22086.000000, 732.820496, 4.000000, 4.000000, 4.000000, 4.000000, 4.000000, 4.000000, 4.000000, 4.000000, 4.000000, 4.000000, 4.000000, 4.000000, 4.000000, 4.000000, 4.000000, 4.000000
84.000000, 0.000000, 3386.153809, 4128.205078, 4169.743652, 4198.974121, 4180.000000, 4184.615234, 4187.179199, 4171.281738, 4170.769043, 4178.974121, 4175.384277, 4157.948730, 4130.256348, 4196.410156, 3490.000000, 8229.000000, 8204.000000, 0.000000, 0.000000, 0.000000, -22086.000000, 741.025635, 4.000000, 4.000000, 4.000000, 4.000000, 4.000000, 4.000000, 4.000000, 4.000000, 4.000000, 4.000000, 4.000000, 4.000000, 4.000000, 4.000000, 4.000000, 4.000000
85.000000, 0.000000, 3389.743408, 4132.820313, 4174.358887, 4200.000000, 4187.692383, 4187.179199, 4187.692383, 4175.384277, 4179.487305, 4184.102539, 4180.512695, 4162.051270, 4134.358887, 4200.000000, 3454.000000, 8257.000000, 8206.000000, 0.000000, 0.000000, 0.000000, -22086.000000, 749.230774, 4.000000, 4.000000, 4.000000, 4.000000, 4.000000, 4.000000, 4.000000, 4.000000, 4.000000, 4.000000, 4.000000, 4.000000, 4.000000, 4.000000, 4.000000, 4.000000
86.000000, 0.000000, 3387.179443, 4127.179199, 4178.461426, 4184.615234, 4189.743652, 4192.820313, 4190.256348, 4185.127930, 4191.281738, 4184.615234, 4178.974121, 4165.127930, 4137.436035, 4197.948730, 3555.000000, 8257.000000, 8206.000000, 0.000000, 0.000000, 0.000000, -22086.000000, 756.923035, 4.000000, 4.000000, 4.000000, 4.000000, 4.000000, 4.000000, 4.000000, 4.000000, 4.000000, 4.000000, 4.000000, 4.000000, 4.000000, 4.000000, 4.000000, 4.000000
87.000000, 0.000000, 3383.076904, 4128.205078, 4169.743652, 4181.538574, 4162.563965, 4184.102539, 4187.179199, 4175.384277, 4182.051270, 4181.538574, 4171.281738, 4154.871582, 4135.897461, 4196.922852, 1274.000000, 8283.000000, 8201.000000, 0.000000, 0.000000, 0.000000, -22086.000000, 764.615356, 4.000000, 4.000000, 4.000000, 4.000000, 4.000000, 4.000000, 4.000000, 4.000000, 4.000000, 4.000000, 4.000000, 4.000000, 4.000000, 4.000000, 4.000000, 4.000000
88.000000, 0.000000, 3387.692139, 4135.897461, 4172.307617, 4196.922852, 4169.743652, 4187.692383, 4190.769043, 4174.871582, 4180.512695, 4181.538574, 4167.692383, 4149.230469, 4142.051270, 4192.820313, 3490.000000, 8283.000000, 8201.000000, 0.000000, 0.000000, 0.000000, -22086.000000, 772.307678, 4.000000, 4.000000, 4.000000, 4.000000, 4.000000, 4.000000, 4.000000, 4.000000, 4.000000, 4.000000, 4.000000, 4.000000, 4.000000, 4.000000, 4.000000, 4.000000
89.000000, 0.000000, 3398.461426, 4143.589844, 4188.205078, 4199.487305, 4210.769043, 4212.307617, 4207.692383, 4201.025391, 4201.538574, 4194.871582, 4178.974121, 4163.076660, 4160.512695, 4195.384277, 3454.000000, 8288.000000, 8179.000000, 0.000000, 0.000000, 0.000000, -22086.000000, 780.512817, 4.000000, 4.000000, 4.000000, 4.000000, 4.000000, 4.000000, 4.000000, 4.000000, 4.000000, 4.000000, 4.000000, 4.000000, 4.000000, 4.000000, 4.000000, 4.000000
90.000000, 0.000000, 3404.102539, 4153.846191, 4188.205078, 4200.000000, 4217.948730, 4216.922852, 4210.256348, 4211.794922, 4209.743652, 4209.230469, 4189.230469, 4167.179199, 4166.153809, 4194.358887, 3555.000000, 8288.000000, 8179.000000, 0.000000, 0.000000, 0.000000, -22086.000000, 788.205139, 4.000000, 4.000000, 4.000000, 4.000000, 4.000000, 4.000000, 4.000000, 4.000000, 4.000000, 4.000000, 4.000000, 4.000000, 4.000000, 4.000000, 4.000000, 4.000000
91.000000, 0.000000, 3395.384521, 4156.922852, 4169.743652, 4197.948730, 4192.307617, 4200.512695, 4197.436035, 4193.846191, 4202.051270, 4200.000000, 4181.538574, 4152.820313, 4155.384277, 4189.230469, 1274.000000, 8284.000000, 8132.000000, 0.000000, 0.000000, 0.000000, -22086.000000, 795.897400, 4.000000, 4.000000, 4.000000, 4.000000, 4.000000, 4.000000, 4.000000, 4.000000, 4.000000, 4.000000, 4.000000, 4.000000, 4.000000, 4.000000, 4.000000, 4.000000
92.000000, 0.000000, 3390.256348, 4158.461426, 4165.127930, 4187.179199, 4184.102539, 4198.461426, 4191.794922, 4181.025391, 4199.487305, 4186.666504, 4178.461426, 4148.205078, 4164.102539, 4191.281738, 3490.000000, 8284.000000, 8132.000000, 0.000000, 0.000000, 0.000000, -22086.000000, 804.102539, 4.000000, 4.000000, 4.000000, 4.000000, 4.000000, 4.000000, 4.000000, 4.000000, 4.000000, 4.000000, 4.000000, 4.000000, 4.000000, 4.000000, 4.000000, 4.000000
93.000000, 0.000000, 3404.102539, 4173.846191, 4181.538574, 4193.333008, 4195.897461, 4204.102539, 4191.794922, 4187.179199, 4201.025391, 4198.461426, 4190.769043, 4160.512695, 4184.102539, 4190.769043, 3454.000000, 8276.000000, 8118.000000, 0.000000, 0.000000, 0.000000, -22086.000000, 811.794861, 4.000000, 4.000000, 4.000000, 4.000000, 4.000000, 4.000000, 4.000000, 4.000000, 4.000000, 4.000000, 4.000000, 4.000000, 4.000000, 4.000000, 4.000000, 4.000000
94.000000, 0.000000, 3409.743408, 4184.102539, 4183.076660, 4200.000000, 4194.358887, 4191.794922, 4185.641113, 4186.666504, 4194.871582, 4204.102539, 4181.538574, 4162.563965, 4176.922852, 4193.846191, 3555.000000, 8276.000000, 8118.000000, 0.000000, 0.000000, 0.000000, -22086.000000, 820.000000, 4.000000, 4.000000, 4.000000, 4.000000, 4.000000, 4.000000, 4.000000, 4.000000, 4.000000, 4.000000, 4.000000, 4.000000, 4.000000, 4.000000, 4.000000, 4.000000
95.000000, 0.000000, 3400.000000, 4178.461426, 4169.230469, 4177.948730, 4175.384277, 4182.051270, 4181.025391, 4168.205078, 4180.000000, 4182.563965, 4158.461426, 4148.717773, 4164.615234, 4197.436035, 1274.000000, 8245.000000, 8091.000000, 0.000000, 0.000000, 0.000000, -22086.000000, 827.692261, 4.000000, 4.000000, 4.000000, 4.000000, 4.000000, 4.000000, 4.000000, 4.000000, 4.000000, 4.000000, 4.000000, 4.000000, 4.000000, 4.000000, 4.000000, 4.000000
96.000000, 0.000000, 3398.974365, 4185.641113, 4172.307617, 4167.692383, 4172.307617, 4192.820313, 4191.281738, 4161.025391, 4173.333008, 4174.358887, 4160.000000, 4147.692383, 4173.846191, 4203.076660, 3490.000000, 8245.000000, 8091.000000, 0.000000, 0.000000, 0.000000, -22086.000000, 835.384583, 4.000000, 4.000000, 4.000000, 4.000000, 4.000000, 4.000000, 4.000000, 4.000000, 4.000000, 4.000000, 4.000000, 4.000000, 4.000000, 4.000000, 4.000000, 4.000000
97.000000, 0.000000, 3411.281982, 4214.871582, 4187.692383, 4188.205078, 4197.948730, 4200.000000, 4201.025391, 4176.922852, 4174.358887, 4182.563965, 4168.717773, 4163.589844, 4187.179199, 4207.692383, 3454.000000, 8238.000000, 8086.000000, 0.000000, 0.000000, 0.000000, -22086.000000, 843.589722, 4.000000, 4.000000, 4.000000, 4.000000, 4.000000, 4.000000, 4.000000, 4.000000, 4.000000, 4.000000, 4.000000, 4.000000, 4.000000, 4.000000, 4.000000, 4.000000
98.000000, 0.000000, 3414.358887, 4226.666504, 4188.205078, 4190.769043, 4195.384277, 4195.384277, 4198.974121, 4189.230469, 4176.922852, 4181.025391, 4161.538574, 4170.256348, 4193.333008, 4199.487305, 3555.000000, 8238.000000, 8086.000000, 0.000000, 0.000000, 0.000000, -22086.000000, 851.282043, 4.000000, 4.000000, 4.000000, 4.000000, 4.000000, 4.000000, 4.000000, 4.000000, 4.000000, 4.000000, 4.000000, 4.000000, 4.000000, 4.000000, 4.000000, 4.000000
99.000000, 0.000000, 3405.128174, 4221.025391, 4181.538574, 4182.051270, 4165.641113, 4192.307617, 4202.051270, 4187.179199, 4181.025391, 4178.461426, 4158.974121, 4163.589844, 4198.974121, 4197.436035, 1274.000000, 8228.000000, 8083.000000, 0.000000, 0.000000, 0.000000, -22086.000000, 858.974365, 4.000000, 4.000000, 4.000000, 4.000000, 4.000000, 4.000000, 4.000000, 4.000000, 4.000000, 4.000000, 4.000000, 4.000000, 4.000000, 4.000000, 4.000000, 4.000000
100.000000, 0.000000, 3408.205078, 4228.205078, 4182.051270, 4180.000000, 4173.846191, 4193.333008, 4203.589844, 4186.666504, 4185.127930, 4185.127930, 4168.205078, 4161.538574, 4209.230469, 4197.948730, 3490.000000, 8228.000000, 8083.000000, 0.000000, 0.000000, 0.000000, -22086.000000, 867.179443, 4.000000, 4.000000, 4.000000, 4.000000, 4.000000, 4.000000, 4.000000, 4.000000, 4.000000, 4.000000, 4.000000, 4.000000, 4.000000, 4.000000, 4.000000, 4.000000
101.000000, 0.000000, 3418.461426, 4240.512695, 4185.127930, 4173.846191, 4201.025391, 4192.820313, 4195.897461, 4188.205078, 4190.769043, 4189.230469, 4173.846191, 4170.769043, 4224.102539, 4194.358887, 3454.000000, 8212.000000, 8066.000000, 0.000000, 0.000000, 0.000000, -22086.000000, 874.871765, 4.000000, 4.000000, 4.000000, 4.000000, 4.000000, 4.000000, 4.000000, 4.000000, 4.000000, 4.000000, 4.000000, 4.000000, 4.000000, 4.000000, 4.000000, 4.000000
102.000000, 0.000000, 3414.871826, 4244.615234, 4182.563965, 4172.820313, 4194.358887, 4190.256348, 4192.307617, 4177.948730, 4188.205078, 4186.153809, 4165.127930, 4169.230469, 4233.846191, 4191.794922, 3555.000000, 8212.000000, 8066.000000, 0.000000, 0.000000, 0.000000, -22086.000000, 882.564087, 4.000000, 4.000000, 4.000000, 4.000000, 4.000000, 4.000000, 4.000000, 4.000000, 4.000000, 4.000000, 4.000000, 4.000000, 4.000000, 4.000000, 4.000000, 4.000000
103.000000, 0.000000, 3408.205078, 4250.769043, 4170.769043, 4171.794922, 4176.922852, 4183.589844, 4195.897461, 4162.563965, 4172.820313, 4180.512695, 4148.717773, 4152.307617, 4226.153809, 4183.076660, 1274.000000, 8195.000000, 8051.000000, 0.000000, 0.000000, 0.000000, -22086.000000, 890.256409, 4.000000, 4.000000, 4.000000, 4.000000, 4.000000, 4.000000, 4.000000, 4.000000, 4.000000, 4.000000, 4.000000, 4.000000, 4.000000, 4.000000, 4.000000, 4.000000
104.000000, 0.000000, 3419.487061, 4267.179199, 4174.358887, 4168.717773, 4182.563965, 4181.538574, 4201.538574, 4164.615234, 4172.820313, 4187.179199, 4154.871582, 4158.974121, 4235.897461, 4191.281738, 3490.000000, 8195.000000, 8051.000000, 0.000000, 0.000000, 0.000000, -22086.000000, 898.461487, 4.000000, 4.000000, 4.000000, 4.000000, 4.000000, 4.000000, 4.000000, 4.000000, 4.000000, 4.000000, 4.000000, 4.000000, 4.000000, 4.000000, 4.000000, 4.000000
105.000000, 0.000000, 3438.974365, 4278.974121, 4197.948730, 4180.512695, 4191.794922, 4194.871582, 4207.692383, 4180.512695, 4190.769043, 4203.076660, 4178.974121, 4184.102539, 4265.641113, 4204.102539, 3454.000000, 8181.000000, 8005.000000, 0.000000, 0.000000, 0.000000, -22086.000000, 906.153809, 4.000000, 4.000000, 4.000000, 4.000000, 4.000000, 4.000000, 4.000000, 4.000000, 4.000000, 4.000000, 4.000000, 4.000000, 4.000000, 4.000000, 4.000000, 4.000000
106.000000, 0.000000, 3444.102539, 4281.025391, 4203.589844, 4189.230469, 4192.307617, 4202.563965, 4202.051270, 4184.615234, 4197.948730, 4205.127930, 4181.538574, 4190.769043, 4270.769043, 4198.974121, 3555.000000, 8181.000000, 8005.000000, 0.000000, 0.000000, 0.000000, -22086.000000, 913.846130, 4.000000, 4.000000, 4.000000, 4.000000, 4.000000, 4.000000, 4.000000, 4.000000, 4.000000, 4.000000, 4.000000, 4.000000, 4.000000, 4.000000, 4.000000, 4.000000
107.000000, 0.000000, 3442.051270, 4286.666504, 4189.743652, 4179.487305, 4194.871582, 4192.820313, 4186.666504, 4181.538574, 4195.384277, 4205.127930, 4168.205078, 4185.127930, 4262.051270, 4195.897461, 1274.000000, 8184.000000, 7992.000000, 0.000000, 0.000000, 0.000000, -22086.000000, 921.538452, 4.000000, 4.000000, 4.000000, 4.000000, 4.000000, 4.000000, 4.000000, 4.000000, 4.000000, 4.000000, 4.000000, 4.000000, 4.000000, 4.000000, 4.000000, 4.000000
108.000000, 0.000000, 3451.794678, 4302.563965, 4187.692383, 4182.563965, 4198.974121, 4186.666504, 4180.512695, 4186.666504, 4201.538574, 4211.281738, 4171.794922, 4185.641113, 4268.717773, 4194.358887, 3490.000000, 8184.000000, 7992.000000, 0.000000, 0.000000, 0.000000, -22086.000000, 929.743591, 4.000000, 4.000000, 4.000000, 4.000000, 4.000000, 4.000000, 4.000000, 4.000000, 4.000000, 4.000000, 4.000000, 4.000000, 4.000000, 4.000000, 4.000000, 4.000000
109.000000, 0.000000, 3455.384521, 4310.769043, 4188.717773, 4188.717773, 4185.641113, 4188.717773, 4185.641113, 4189.230469, 4205.127930, 4208.717773, 4178.461426, 4182.563965, 4271.794922, 4191.281738, 3454.000000, 8199.000000, 7991.000000, 0.000000, 0.000000, 0.000000, -22086.000000, 937.435852, 4.000000, 4.000000, 4.000000, 4.000000, 4.000000, 4.000000, 4.000000, 4.000000, 4.000000, 4.000000, 4.000000, 4.000000, 4.000000, 4.000000, 4.000000, 4.000000
110.000000, 0.000000, 3435.384521, 4293.846191, 4176.410156, 4166.666504, 4172.820313, 4188.717773, 4187.692383, 4185.641113, 4200.000000, 4198.461426, 4165.127930, 4169.743652, 4254.871582, 4186.153809, 3555.000000, 8199.000000, 7991.000000, 0.000000, 0.000000, 0.000000, -22086.000000, 945.640991, 4.000000, 4.000000, 4.000000, 4.000000, 4.000000, 4.000000, 4.000000, 4.000000, 4.000000, 4.000000, 4.000000, 4.000000, 4.000000, 4.000000, 4.000000, 4.000000
111.000000, 0.000000, 3423.589600, 4285.641113, 4166.153809, 4150.769043, 4180.512695, 4187.179199, 4182.563965, 4185.641113, 4191.794922, 4196.922852, 4149.743652, 4160.512695, 4245.127930, 4183.076660, 1274.000000, 8233.000000, 8011.000000, 0.000000, 0.000000, 0.000000, -22086.000000, 953.333313, 4.000000, 4.000000, 4.000000, 4.000000, 4.000000, 4.000000, 4.000000, 4.000000, 4.000000, 4.000000, 4.000000, 4.000000, 4.000000, 4.000000, 4.000000, 4.000000
112.000000, 0.000000, 3442.563965, 4311.794922, 4164.102539, 4160.512695, 4184.102539, 4189.230469, 4186.153809, 4185.641113, 4185.127930, 4193.846191, 4142.051270, 4152.307617, 4242.051270, 4189.230469, 3490.000000, 8233.000000, 8011.000000, 0.000000, 0.000000, 0.000000, -22086.000000, 961.025635, 4.000000, 4.000000, 4.000000, 4.000000, 4.000000, 4.000000, 4.000000, 4.000000, 4.000000, 4.000000, 4.000000, 4.000000, 4.000000, 4.000000, 4.000000, 4.000000
113.000000, 0.000000, 3466.666504, 4333.846191, 4166.153809, 4178.461426, 4185.641113, 4188.717773, 4197.948730, 4186.153809, 4187.179199, 4187.179199, 4141.025391, 4148.717773, 4240.000000, 4192.307617, 3454.000000, 8247.000000, 8019.000000, 0.000000, 0.000000, 0.000000, -22086.000000, 969.230774, 4.000000, 4.000000, 4.000000, 4.000000, 4.000000, 4.000000, 4.000000, 4.000000, 4.000000, 4.000000, 4.000000, 4.000000, 4.000000, 4.000000, 4.000000, 4.000000
114.000000, 0.000000, 3475.384521, 4340.000000, 4172.307617, 4189.743652, 4196.410156, 4187.179199, 4191.794922, 4188.205078, 4188.717773, 4191.281738, 4149.230469, 4153.846191, 4250.769043, 4193.846191, 3555.000000, 8247.000000, 8019.000000, 0.000000, 0.000000, 0.000000, -22086.000000, 976.923035, 4.000000, 4.000000, 4.000000, 4.000000, 4.000000, 4.000000, 4.000000, 4.000000, 4.000000, 4.000000, 4.000000, 4.000000, 4.000000, 4.000000, 4.000000, 4.000000
115.000000, 0.000000, 3481.538330, 4352.307617, 4177.436035, 4188.717773, 4196.922852, 4183.589844, 4172.307617, 4181.025391, 4188.205078, 4191.794922, 4152.820313, 4156.922852, 4245.127930, 4194.358887, 1274.000000, 8269.000000, 8045.000000, 0.000000, 0.000000, 0.000000, -22086.000000, 984.615356, 4.000000, 4.000000, 4.000000, 4.000000, 4.000000, 4.000000, 4.000000, 4.000000, 4.000000, 4.000000, 4.000000, 4.000000, 4.000000, 4.000000, 4.000000, 4.000000
116.000000, 0.000000, 3491.281982, 4363.589844, 4172.820313, 4184.102539, 4184.102539, 4175.384277, 4165.127930, 4170.256348, 4182.563965, 4178.461426, 4140.512695, 4148.717773, 4227.179199, 4187.692383, 3490.000000, 8269.000000, 8045.000000, 0.000000, 0.000000, 0.000000, -22086.000000, 992.307678, 4.000000, 4.000000, 4.000000, 4.000000, 4.000000, 4.000000, 4.000000, 4.000000, 4.000000, 4.000000, 4.000000, 4.000000, 4.000000, 4.000000, 4.000000, 4.000000
117.000000, 0.000000, 3496.410156, 4373.846191, 4168.717773, 4189.230469, 4183.589844, 4174.358887, 4174.358887, 4166.666504, 4171.794922, 4164.615234, 4129.743652, 4143.076660, 4260.000000, 4191.794922, 3454.000000, 8280.000000, 8052.000000, 0.000000, 0.000000, 0.000000, -22085.000000, 0.512820, 4.000000, 4.000000, 4.000000, 4.000000, 4.000000, 4.000000, 4.000000, 4.000000, 4.000000, 4.000000, 4.000000, 4.000000, 4.000000, 4.000000, 4.000000, 4.000000
118.000000, 0.000000, 3503.076904, 4382.563965, 4174.871582, 4196.410156, 4191.794922, 4182.051270, 4175.897461, 4167.179199, 4173.846191, 4166.153809, 4133.333008, 4149.230469, 4327.179199, 4195.384277, 3555.000000, 8280.000000, 8052.000000, 0.000000, 0.000000, 0.000000, -22085.000000, 8.205128, 4.000000, 4.000000, 4.000000, 4.000000, 4.000000, 4.000000, 4.000000, 4.000000, 4.000000, 4.000000, 4.000000, 4.000000, 4.000000, 4.000000, 4.000000, 4.000000
119.000000, 0.000000, 3508.205078, 4382.051270, 4174.871582, 4190.256348, 4193.846191, 4187.179199, 4171.794922, 4174.871582, 4187.179199, 4180.512695, 4142.563965, 4158.974121, 4352.307617, 4192.820313, 1274.000000, 8282.000000, 8121.000000, 0.000000, 0.000000, 0.000000, -22085.000000, 15.897435, 4.000000, 4.000000, 4.000000, 4.000000, 4.000000, 4.000000, 4.000000, 4.000000, 4.000000, 4.000000, 4.000000, 4.000000, 4.000000, 4.000000, 4.000000, 4.000000
120.000000, 0.000000, 3507.692139, 4381.538574, 4171.794922, 4189.743652, 4187.692383, 4183.076660, 4174.871582, 4180.000000, 4186.153809, 4183.076660, 4144.615234, 4160.512695, 4344.102539, 4194.871582, 3490.000000, 8282.000000, 8121.000000, 0.000000, 0.000000, 0.000000, -22085.000000, 24.102564, 4.000000, 4.000000, 4.000000, 4.000000, 4.000000, 4.000000, 4.000000, 4.000000, 4.000000, 4.000000, 4.000000, 4.000000, 4.000000, 4.000000, 4.000000, 4.000000
121.000000, 0.000000, 3507.692139, 4383.589844, 4178.974121, 4201.538574, 4180.512695, 4179.487305, 4181.025391, 4180.512695, 4178.461426, 4172.307617, 4139.487305, 4158.461426, 4345.641113, 4194.871582, 3454.000000, 8276.000000, 8084.000000, 0.000000, 0.000000, 0.000000, -22085.000000, 31.794870, 4.000000, 4.000000, 4.000000, 4.000000, 4.000000, 4.000000, 4.000000, 4.000000, 4.000000, 4.000000, 4.000000, 4.000000, 4.000000, 4.000000, 4.000000, 4.000000
122.000000, 0.000000, 3506.666504, 4381.538574, 4185.641113, 4201.538574, 4189.743652, 4193.846191, 4191.281738, 4193.333008, 4194.871582, 4176.922852, 4148.205078, 4169.230469, 4353.846191, 4197.436035, 3555.000000, 8276.000000, 8084.000000, 0.000000, 0.000000, 0.000000, -22085.000000, 40.000000, 4.000000, 4.000000, 4.000000, 4.000000, 4.000000, 4.000000, 4.000000, 4.000000, 4.000000, 4.000000, 4.000000, 4.000000, 4.000000, 4.000000, 4.000000, 4.000000
123.000000, 0.000000, 3502.563965, 4373.333008, 4177.436035, 4181.025391, 4192.307617, 4204.615234, 4197.436035, 4200.512695, 4200.512695, 4190.256348, 4157.948730, 4174.871582, 4354.871582, 4195.384277, 1274.000000, 8269.000000, 8101.000000, 0.000000, 0.000000, 0.000000, -22085.000000, 47.692307, 4.000000, 4.000000, 4.000000, 4.000000, 4.000000, 4.000000, 4.000000, 4.000000, 4.000000, 4.000000, 4.000000, 4.000000, 4.000000, 4.000000, 4.000000, 4.000000
124.000000, 0.000000, 3498.461426, 4370.256348, 4167.179199, 4170.256348, 4178.461426, 4191.281738, 4192.820313, 4185.641113, 4180.000000, 4185.127930, 4147.179199, 4160.512695, 4345.127930, 4188.205078, 3490.000000, 8269.000000, 8101.000000, 0.000000, 0.000000, 0.000000, -22085.000000, 55.384613, 4.000000, 4.000000, 4.000000, 4.000000, 4.000000, 4.000000, 4.000000, 4.000000, 4.000000, 4.000000, 4.000000, 4.000000, 4.000000, 4.000000, 4.000000, 4.000000
125.000000, 0.000000, 3504.102539, 4374.358887, 4169.743652, 4183.589844, 4182.051270, 4181.538574, 4187.692383, 4181.025391, 4174.871582, 4173.333008, 4142.051270, 4155.897461, 4334.871582, 4187.179199, 3454.000000, 8273.000000, 8121.000000, 0.000000, 0.000000, 0.000000, -22085.000000, 63.589741, 4.000000, 4.000000, 4.000000, 4.000000, 4.000000, 4.000000, 4.000000, 4.000000, 4.000000, 4.000000, 4.000000, 4.000000, 4.000000, 4.000000, 4.000000, 4.000000
126.000000, 0.000000, 3514.871826, 4380.512695, 4180.000000, 4191.794922, 4194.871582, 4189.230469, 4188.717773, 4200.000000, 4189.743652, 4175.384277, 4151.281738, 4168.717773, 4338.974121, 4191.281738, 3555.000000, 8273.000000, 8121.000000, 0.000000, 0.000000, 0.000000, -22085.000000, 71.282051, 4.000000, 4.000000, 4.000000, 4.000000, 4.000000, 4.000000, 4.000000, 4.000000, 4.000000, 4.000000, 4.000000, 4.000000, 4.000000, 4.000000, 4.000000, 4.000000
127.000000, 0.000000, 3510.769043, 4383.589844, 4181.025391, 4183.589844, 4189.230469, 4188.717773, 4190.256348, 4204.615234, 4192.820313, 4183.076660, 4151.794922, 4174.358887, 4345.127930, 4198.461426, 54.000000, 8273.000000, 8131.000000, 0.000000, 0.000000, 0.000000, -22085.000000, 78.974358, 4.000000, 4.000000, 4.000000, 4.000000, 4.000000, 4.000000, 4.000000, 4.000000, 4.000000, 4.000000, 4.000000, 4.000000, 4.000000, 4.000000, 4.000000, 4.000000
0.000000, 0.000000, 3506.666504, 4381.025391, 4176.410156, 4182.051270, 4179.487305, 4181.538574, 4185.641113, 4195.897461, 4191.281738, 4180.000000, 4148.205078, 4168.717773, 4343.589844, 4193.846191, 3333.000000, 8273.000000, 8131.000000, 0.000000, 0.000000, 0.000000, -22085.000000, 87.179482, 4.000000, 4.000000, 4.000000, 4.000000, 4.000000, 4.000000, 4.000000, 4.000000, 4.000000, 4.000000, 4.000000, 4.000000, 4.000000, 4.000000, 4.000000, 4.000000
1.000000, 0.000000, 3511.794678, 4382.051270, 4179.487305, 4187.692383, 4187.692383, 4183.589844, 4183.589844, 4206.153809, 4203.589844, 4178.461426, 4153.846191, 4169.230469, 4344.102539, 4189.743652, 3481.000000, 8279.000000, 8146.000000, 0.000000, 0.000000, 0.000000, -22085.000000, 94.871796, 4.000000, 4.000000, 4.000000, 4.000000, 4.000000, 4.000000, 4.000000, 4.000000, 4.000000, 4.000000, 4.000000, 4.000000, 4.000000, 4.000000, 4.000000, 4.000000
2.000000, 0.000000, 3510.769043, 4384.102539, 4181.538574, 4180.512695, 4191.281738, 4186.153809, 4186.153809, 4215.897461, 4206.153809, 4184.615234, 4156.410156, 4171.281738, 4347.692383, 4193.333008, 2833.000000, 8279.000000, 8146.000000, 0.000000, 0.000000, 0.000000, -22085.000000, 103.076920, 4.000000, 4.000000, 4.000000, 4.000000, 4.000000, 4.000000, 4.000000, 4.000000, 4.000000, 4.000000, 4.000000, 4.000000, 4.000000, 4.000000, 4.000000, 4.000000
3.000000, 0.000000, 3506.153809, 4378.974121, 4171.794922, 4167.692383, 4168.717773, 4183.589844, 4186.666504, 4199.487305, 4192.307617, 4185.127930, 4152.307617, 4164.102539, 4346.153809, 4187.179199, 1986.000000, 8275.000000, 8154.000000, 0.000000, 0.000000, 0.000000, -22085.000000, 110.769226, 4.000000, 4.000000, 4.000000, 4.000000, 4.000000, 4.000000, 4.000000, 4.000000, 4.000000, 4.000000, 4.000000, 4.000000, 4.000000, 4.000000, 4.000000, 4.000000
4.000000, 0.000000, 3505.640869, 4375.384277, 4164.615234, 4166.666504, 4154.358887, 4182.563965, 4186.666504, 4182.051270, 4183.076660, 4176.410156, 4149.230469, 4154.871582, 4337.436035, 4186.153809, 3518.000000, 8275.000000, 8154.000000, 0.000000, 0.000000, 0.000000, -22085.000000, 118.461533, 4.000000, 4.000000, 4.000000, 4.000000, 4.000000, 4.000000, 4.000000, 4.000000, 4.000000, 4.000000, 4.000000, 4.000000, 4.000000, 4.000000, 4.000000, 4.000000
5.000000, 0.000000, 3506.666504, 4376.922852, 4167.179199, 4170.769043, 4175.384277, 4184.102539, 4186.666504, 4185.641113, 4185.641113, 4176.922852, 4150.256348, 4151.794922, 4336.922852, 4188.717773, 3540.000000, 8271.000000, 8161.000000, 0.000000, 0.000000, 0.000000, -22085.000000, 126.666664, 4.000000, 4.000000, 4.000000, 4.000000, 4.000000, 4.000000, 4.000000, 4.000000, 4.000000, 4.000000, 4.000000, 4.000000, 4.000000, 4.000000, 4.000000, 4.000000
6.000000, 0.000000, 3508.717773, 4377.435547, 4168.205078, 4174.358887, 4194.358887, 4183.589844, 4181.025391, 4191.281738, 4190.769043, 4187.692383, 4159.487305, 4155.384277, 4347.179199, 4186.153809, 3045.000000, 8271.000000, 8161.000000, 0.000000, 0.000000, 0.000000, -22085.000000, 134.358978, 4.000000, 4.000000, 4.000000, 4.000000, 4.000000, 4.000000, 4.000000, 4.000000, 4.000000, 4.000000, 4.000000, 4.000000, 4.000000, 4.000000, 4.000000, 4.000000
7.000000, 0.000000, 3507.692139, 4374.358887, 4167.692383, 4181.025391, 4189.230469, 4181.538574, 4178.974121, 4181.025391, 4182.563965, 4184.102539, 4166.666504, 4154.358887, 4347.179199, 4187.179199, 3505.000000, 8268.000000, 8163.000000, 0.000000, 0.000000, 0.000000, -22085.000000, 142.051285, 4.000000, 4.000000, 4.000000, 4.000000, 4.000000, 4.000000, 4.000000, 4.000000, 4.000000, 4.000000, 4.000000, 4.000000, 4.000000, 4.000000, 4.000000, 4.000000
8.000000, 0.000000, 3512.820313, 4372.307617, 4167.692383, 4186.153809, 4184.102539, 4183.589844, 4181.538574, 4172.307617, 4172.307617, 4173.846191, 4167.692383, 4151.794922, 4343.076660, 4188.205078, 3503.000000, 8268.000000, 8163.000000, 0.000000, 0.000000, 0.000000, -22085.000000, 150.256409, 4.000000, 4.000000, 4.000000, 4.000000, 4.000000, 4.000000, 4.000000, 4.000000, 4.000000, 4.000000, 4.000000, 4.000000, 4.000000, 4.000000, 4.000000, 4.000000
9.000000, 0.000000, 3521.025635, 4372.820313, 4168.205078, 4186.153809, 4183.589844, 4187.179199, 4177.948730, 4170.256348, 4175.897461, 4175.897461, 4168.205078, 4158.974121, 4345.641113, 4191.281738, 3526.000000, 8264.000000, 8166.000000, 0.000000, 0.000000, 0.000000, -22085.000000, 157.948715, 4.000000, 4.000000, 4.000000, 4.000000, 4.000000, 4.000000, 4.000000, 4.000000, 4.000000, 4.000000, 4.000000, 4.000000, 4.000000, 4.000000, 4.000000, 4.000000
10.000000, 0.000000, 3513.845947, 4364.102539, 4168.717773, 4181.025391, 4181.538574, 4184.102539, 4173.333008, 4169.743652, 4183.076660, 4179.487305, 4167.692383, 4161.538574, 4343.076660, 4189.230469, 3531.000000, 8264.000000, 8166.000000, 0.000000, 0.000000, 0.000000, -22085.000000, 166.153839, 4.000000, 4.000000, 4.000000, 4.000000, 4.000000, 4.000000, 4.000000, 4.000000, 4.000000, 4.000000, 4.000000, 4.000000, 4.000000, 4.000000, 4.000000, 4.000000
11.000000, 0.000000, 3508.717773, 4352.307617, 4168.717773, 4178.974121, 4181.538574, 4177.436035, 4171.281738, 4169.743652, 4184.615234, 4176.922852, 4170.256348, 4156.410156, 4338.974121, 4185.641113, 1265.000000, 8265.000000, 8187.000000, 0.000000, 0.000000, 0.000000, -22085.000000, 173.846146, 4.000000, 4.000000, 4.000000, 4.000000, 4.000000, 4.000000, 4.000000, 4.000000, 4.000000, 4.000000, 4.000000, 4.000000, 4.000000, 4.000000, 4.000000, 4.000000
12.000000, 0.000000, 3520.000000, 4353.333008, 4171.794922, 4185.641113, 4169.743652, 4173.846191, 4168.717773, 4170.256348, 4185.641113, 4180.000000, 4171.281738, 4162.051270, 4343.589844, 4192.307617, 3471.000000, 8265.000000, 8187.000000, 0.000000, 0.000000, 0.000000, -22085.000000, 181.538452, 4.000000, 4.000000, 4.000000, 4.000000, 4.000000, 4.000000, 4.000000, 4.000000, 4.000000, 4.000000, 4.000000, 4.000000, 4.000000, 4.000000, 4.000000, 4.000000
13.000000, 0.000000, 3531.794678, 4352.820313, 4175.384277, 4191.794922, 4166.153809, 4170.769043, 4167.179199, 4164.102539, 4180.512695, 4180.000000, 4171.794922, 4165.127930, 4345.641113, 4189.743652, 3436.000000, 8264.000000, 8185.000000, 0.000000, 0.000000, 0.000000, -22085.000000, 189.743591, 4.000000, 4.000000, 4.000000, 4.000000, 4.000000, 4.000000, 4.000000, 4.000000, 4.000000, 4.000000, 4.000000, 4.000000, 4.000000, 4.000000, 4.000000, 4.000000
14.000000, 0.000000, 3531.281982, 4344.615234, 4181.538574, 4195.384277, 4184.615234, 4170.769043, 4171.281738, 4158.974121, 4174.871582, 4177.948730, 4180.000000, 4162.563965, 4344.102539, 4187.692383, 3531.000000, 8264.000000, 8185.000000, 0.000000, 0.000000, 0.000000, -22085.000000, 197.435898, 4.000000, 4.000000, 4.000000, 4.000000, 4.000000, 4.000000, 4.000000, 4.000000, 4.000000, 4.000000, 4.000000, 4.000000, 4.000000, 4.000000, 4.000000, 4.000000
15.000000, 0.000000, 3525.128174, 4336.922852, 4185.127930, 4197.948730, 4186.153809, 4173.846191, 4174.871582, 4169.230469, 4188.717773, 4188.205078, 4187.179199, 4170.256348, 4346.666504, 4193.846191, 1265.000000, 8267.000000, 8193.000000, 0.000000, 0.000000, 0.000000, -22085.000000, 205.128204, 4.000000, 4.000000, 4.000000, 4.000000, 4.000000, 4.000000, 4.000000, 4.000000, 4.000000, 4.000000, 4.000000, 4.000000, 4.000000, 4.000000, 4.000000, 4.000000
16.000000, 0.000000, 3522.051270, 4326.666504, 4185.127930, 4193.333008, 4173.333008, 4174.358887, 4174.358887, 4173.333008, 4194.871582, 4197.436035, 4186.153809, 4180.000000, 4346.666504, 4194.358887, 0.000000, 8267.000000, 8193.000000, 0.000000, 0.000000, 0.000000, -22085.000000, 213.333328, 4.000000, 4.000000, 4.000000, 4.000000, 4.000000, 4.000000, 4.000000, 4.000000, 4.000000, 4.000000, 4.000000, 4.000000, 4.000000, 4.000000, 4.000000, 4.000000
17.000000, 0.000000, 3522.051270, 4318.974121, 4185.127930, 4188.717773, 4174.871582, 4175.384277, 4177.948730, 4173.333008, 4186.153809, 4192.307617, 4190.769043, 4182.563965, 4344.615234, 4195.897461, 0.000000, 8293.000000, 8221.000000, 0.000000, 0.000000, 0.000000, -22085.000000, 221.025635, 4.000000, 4.000000, 4.000000, 4.000000, 4.000000, 4.000000, 4.000000, 4.000000, 4.000000, 4.000000, 4.000000, 4.000000, 4.000000, 4.000000, 4.000000, 4.000000
18.000000, 0.000000, 3524.615234, 4314.358887, 4186.153809, 4189.230469, 4178.461426, 4183.589844, 4186.153809, 4181.538574, 4190.256348, 4187.179199, 4197.436035, 4184.102539, 4342.563965, 4193.846191, 0.000000, 8293.000000, 8221.000000, 0.000000, 0.000000, 0.000000, -22085.000000, 228.717941, 4.000000, 4.000000, 4.000000, 4.000000, 4.000000, 4.000000, 4.000000, 4.000000, 4.000000, 4.000000, 4.000000, 4.000000, 4.000000, 4.000000, 4.000000, 4.000000
19.000000, 0.000000, 3523.589600, 4307.692383, 4184.102539, 4187.179199, 4171.794922, 4184.615234, 4190.256348, 4180.000000, 4193.333008, 4190.769043, 4193.846191, 4187.692383, 4335.384277, 4192.820313, 0.000000, 8304.000000, 8230.000000, 0.000000, 0.000000, 0.000000, -22085.000000, 236.923065, 4.000000, 4.000000, 4.000000, 4.000000, 4.000000, 4.000000, 4.000000, 4.000000, 4.000000, 4.000000, 4.000000, 4.000000, 4.000000, 4.000000, 4.000000, 4.000000
20.000000, 0.000000, 3521.025635, 4301.538574, 4182.563965, 4191.281738, 4174.871582, 4176.410156, 4179.487305, 4169.743652, 4184.615234, 4198.974121, 4194.358887, 4187.692383, 4330.769043, 4192.820313, 0.000000, 8304.000000, 8230.000000, 0.000000, 0.000000, 0.000000, -22085.000000, 244.615372, 4.000000, 4.000000, 4.000000, 4.000000, 4.000000, 4.000000, 4.000000, 4.000000, 4.000000, 4.000000, 4.000000, 4.000000, 4.000000, 4.000000, 4.000000, 4.000000
21.000000, 0.000000, 3525.128174, 4303.589844, 4188.205078, 4203.076660, 4183.076660, 4178.974121, 4165.127930, 4173.333008, 4186.153809, 4209.230469, 4205.127930, 4188.205078, 4333.846191, 4191.794922, 0.000000, 8326.000000, 8233.000000, 0.000000, 0.000000, 0.000000, -22085.000000, 252.820511, 4.000000, 4.000000, 4.000000, 4.000000, 4.000000, 4.000000, 4.000000, 4.000000, 4.000000, 4.000000, 4.000000, 4.000000, 4.000000, 4.000000, 4.000000, 4.000000
22.000000, 0.000000, 3524.102539, 4302.051270, 4190.256348, 4203.589844, 4177.948730, 4183.589844, 4170.256348, 4175.897461, 4191.794922, 4205.641113, 4204.615234, 4188.717773, 4327.692383, 4196.410156, 0.000000, 8326.000000, 8233.000000, 0.000000, 0.000000, 0.000000, -22085.000000, 260.512817, 4.000000, 4.000000, 4.000000, 4.000000, 4.000000, 4.000000, 4.000000, 4.000000, 4.000000, 4.000000, 4.000000, 4.000000, 4.000000, 4.000000, 4.000000, 4.000000
23.000000, 0.000000, 3518.461426, 4289.230469, 4183.076660, 4195.384277, 4176.922852, 4175.384277, 4178.461426, 4168.717773, 4186.153809, 4197.436035, 4198.461426, 4184.102539, 4316.410156, 4192.307617, 0.000000, 8327.000000, 8236.000000, 0.000000, 0.000000, 0.000000, -22085.000000, 268.205109, 4.000000, 4.000000, 4.000000, 4.000000, 4.000000, 4.000000, 4.000000, 4.000000, 4.000000, 4.000000, 4.000000, 4.000000, 4.000000, 4.000000, 4.000000, 4.000000
24.000000, 0.000000, 3514.871826, 4281.538574, 4180.512695, 4195.384277, 4177.948730, 4169.230469, 4174.358887, 4167.692383, 4182.563965, 4202.563965, 4202.563965, 4178.461426, 4313.333008, 4189.743652, 0.000000, 8327.000000, 8236.000000, 0.000000, 0.000000, 0.000000, -22085.000000, 276.410248, 4.000000, 4.000000, 4.000000, 4.000000, 4.000000, 4.000000, 4.000000, 4.000000, 4.000000, 4.000000, 4.000000, 4.000000, 4.000000, 4.000000, 4.000000, 4.000000
25.000000, 0.000000, 3508.717773, 4280.512695, 4181.538574, 4197.436035, 4164.102539, 4171.281738, 4171.794922, 4168.205078, 4184.102539, 4200.512695, 4201.025391, 4171.281738, 4304.102539, 4190.256348, 0.000000, 8310.000000, 8239.000000, 0.000000, 0.000000, 0.000000, -22085.000000, 284.102570, 4.000000, 4.000000, 4.000000, 4.000000, 4.000000, 4.000000, 4.000000, 4.000000, 4.000000, 4.000000, 4.000000, 4.000000, 4.000000, 4.000000, 4.000000, 4.000000
26.000000, 0.000000, 3502.051270, 4272.820313, 4178.974121, 4195.384277, 4160.000000, 4176.410156, 4177.948730, 4175.384277, 4185.641113, 4195.384277, 4194.358887, 4166.666504, 4290.256348, 4184.615234, 0.000000, 8310.000000, 8239.000000, 0.000000, 0.000000, 0.000000, -22085.000000, 291.794861, 4.000000, 4.000000, 4.000000, 4.000000, 4.000000, 4.000000, 4.000000, 4.000000, 4.000000, 4.000000, 4.000000, 4.000000, 4.000000, 4.000000, 4.000000, 4.000000
27.000000, 0.000000, 3501.538330, 4268.717773, 4181.538574, 4196.410156, 4181.025391, 4183.589844, 4184.615234, 4188.205078, 4187.179199, 4205.641113, 4204.102539, 4172.820313, 4291.794922, 4190.769043, 0.000000, 8299.000000, 8229.000000, 0.000000, 0.000000, 0.000000, -22085.000000, 300.000000, 4.000000, 4.000000, 4.000000, 4.000000, 4.000000, 4.000000, 4.000000, 4.000000, 4.000000, 4.000000, 4.000000, 4.000000, 4.000000, 4.000000, 4.000000, 4.000000
28.000000, 0.000000, 3509.743408, 4272.307617, 4187.179199, 4205.127930, 4194.871582, 4188.205078, 4184.615234, 4180.000000, 4186.666504, 4215.897461, 4220.512695, 4183.589844, 4306.153809, 4193.846191, 0.000000, 8299.000000, 8229.000000, 0.000000, 0.000000, 0.000000, -22085.000000, 308.205109, 4.000000, 4.000000, 4.000000, 4.000000, 4.000000, 4.000000, 4.000000, 4.000000, 4.000000, 4.000000, 4.000000, 4.000000, 4.000000, 4.000000, 4.000000, 4.000000
29.000000, 0.000000, 3510.769043, 4270.769043, 4185.641113, 4207.692383, 4184.102539, 4184.102539, 4182.051270, 4166.153809, 4185.641113, 4205.127930, 4221.538574, 4184.615234, 4304.615234, 4188.205078, 0.000000, 8279.000000, 8213.000000, 0.000000, 0.000000, 0.000000, -22085.000000, 315.897430, 4.000000, 4.000000, 4.000000, 4.000000, 4.000000, 4.000000, 4.000000, 4.000000, 4.000000, 4.000000, 4.000000, 4.000000, 4.000000, 4.000000, 4.000000, 4.000000
30.000000, 0.000000, 3498.974365, 4257.948730, 4178.461426, 4202.563965, 4181.538574, 4180.512695, 4175.897461, 4165.127930, 4178.974121, 4195.897461, 4214.871582, 4174.358887, 4285.641113, 4186.666504, 0.000000, 8279.000000, 8213.000000, 0.000000, 0.000000, 0.000000, -22085.000000, 323.589722, 4.000000, 4.000000, 4.000000, 4.000000, 4.000000, 4.000000, 4.000000, 4.000000, 4.000000, 4.000000, 4.000000, 4.000000, 4.000000, 4.000000, 4.000000, 4.000000
31.000000, 0.000000, 3495.384521, 4251.281738, 4177.948730, 4200.512695, 4194.358887, 4183.076660, 4166.666504, 4167.692383, 4172.307617, 4203.589844, 4214.358887, 4169.743652, 4274.358887, 4185.641113, 0.000000, 8262.000000, 8182.000000, 0.000000, 0.000000, 0.000000, -22085.000000, 331.282043, 4.000000, 4.000000, 4.000000, 4.000000, 4.000000, 4.000000, 4.000000, 4.000000, 4.000000, 4.000000, 4.000000, 4.000000, 4.000000, 4.000000, 4.000000, 4.000000
32.000000, 0.000000, 3499.487061, 4252.307617, 4182.563965, 4200.000000, 4191.794922, 4182.051270, 4172.820313, 4167.692383, 4179.487305, 4207.692383, 4216.410156, 4173.333008, 4275.897461, 4191.281738, 0.000000, 8262.000000, 8182.000000, 0.000000, 0.000000, 0.000000, -22085.000000, 339.487183, 4.000000, 4.000000, 4.000000, 4.000000, 4.000000, 4.000000, 4.000000, 4.000000, 4.000000, 4.000000, 4.000000, 4.000000, 4.000000, 4.000000, 4.000000, 4.000000
33.000000, 0.000000, 3504.102539, 4247.179199, 4185.127930, 4198.461426, 4183.589844, 4173.846191, 4178.974121, 4168.717773, 4185.127930, 4197.948730, 4216.922852, 4173.846191, 4278.974121, 4192.307617, 0.000000, 8257.000000, 8166.000000, 0.000000, 0.000000, 0.000000, -22085.000000, 347.692291, 4.000000, 4.000000, 4.000000, 4.000000, 4.000000, 4.000000, 4.000000, 4.000000, 4.000000, 4.000000, 4.000000, 4.000000, 4.000000, 4.000000, 4.000000, 4.000000
34.000000, 0.000000, 3509.230713, 4247.692383, 4184.102539, 4201.538574, 4190.256348, 4170.256348, 4172.307617, 4166.153809, 4183.589844, 4187.692383, 4218.461426, 4174.358887, 4275.384277, 4190.769043, 0.000000, 8257.000000, 8166.000000, 0.000000, 0.000000, 0.000000, -22085.000000, 355.384613, 4.000000, 4.000000, 4.000000, 4.000000, 4.000000, 4.000000, 4.000000, 4.000000, 4.000000, 4.000000, 4.000000, 4.000000, 4.000000, 4.000000, 4.000000, 4.000000
35.000000, 0.000000, 3508.717773, 4250.256348, 4185.127930, 4206.666504, 4200.512695, 4182.563965, 4175.384277, 4167.179199, 4185.641113, 4191.281738, 4215.384277, 4176.410156, 4264.615234, 4194.358887, 0.000000, 8252.000000, 8142.000000, 0.000000, 0.000000, 0.000000, -22085.000000, 363.076904, 4.000000, 4.000000, 4.000000, 4.000000, 4.000000, 4.000000, 4.000000, 4.000000, 4.000000, 4.000000, 4.000000, 4.000000, 4.000000, 4.000000, 4.000000, 4.000000
36.000000, 0.000000, 3502.051270, 4236.410156, 4188.205078, 4205.127930, 4193.333008, 4197.948730, 4190.769043, 4176.922852, 4183.589844, 4200.000000, 4203.589844, 4171.281738, 4247.179199, 4188.717773, 0.000000, 8252.000000, 8142.000000, 0.000000, 0.000000, 0.000000, -22085.000000, 370.769226, 4.000000, 4.000000, 4.000000, 4.000000, 4.000000, 4.000000, 4.000000, 4.000000, 4.000000, 4.000000, 4.000000, 4.000000, 4.000000, 4.000000, 4.000000, 4.000000
37.000000, 0.000000, 3496.923096, 4223.589844, 4187.692383, 4200.512695, 4180.512695, 4197.948730, 4194.358887, 4185.641113, 4182.051270, 4198.974121, 4196.922852, 4171.794922, 4239.487305, 4186.666504, 0.000000, 8248.000000, 8134.000000, 0.000000, 0.000000, 0.000000, -22085.000000, 378.974335, 4.000000, 4.000000, 4.000000, 4.000000, 4.000000, 4.000000, 4.000000, 4.000000, 4.000000, 4.000000, 4.000000, 4.000000, 4.000000, 4.000000, 4.000000, 4.000000
38.000000, 0.000000, 3500.000000, 4221.538574, 4187.692383, 4200.512695, 4184.102539, 4189.230469, 4194.358887, 4200.000000, 4198.974121, 4200.512695, 4207.692383, 4184.102539, 4246.153809, 4188.717773, 0.000000, 8248.000000, 8134.000000, 0.000000, 0.000000, 0.000000, -22085.000000, 386.666656, 4.000000, 4.000000, 4.000000, 4.000000, 4.000000, 4.000000, 4.000000, 4.000000, 4.000000, 4.000000, 4.000000, 4.000000, 4.000000, 4.000000, 4.000000, 4.000000
39.000000, 0.000000, 3504.615234, 4219.487305, 4187.179199, 4199.487305, 4188.205078, 4186.666504, 4196.922852, 4209.743652, 4212.820313, 4205.127930, 4217.436035, 4186.153809, 4250.256348, 4191.281738, 0.000000, 8249.000000, 8134.000000, 0.000000, 0.000000, 0.000000, -22085.000000, 394.358978, 4.000000, 4.000000, 4.000000, 4.000000, 4.000000, 4.000000, 4.000000, 4.000000, 4.000000, 4.000000, 4.000000, 4.000000, 4.000000, 4.000000, 4.000000, 4.000000
40.000000, 0.000000, 3505.128174, 4216.410156, 4185.641113, 4200.000000, 4183.076660, 4186.666504, 4187.692383, 4193.846191, 4198.974121, 4201.538574, 4214.358887, 4177.948730, 4247.692383, 4196.410156, 0.000000, 8249.000000, 8134.000000, 0.000000, 0.000000, 0.000000, -22085.000000, 402.564087, 4.000000, 4.000000, 4.000000, 4.000000, 4.000000, 4.000000, 4.000000, 4.000000, 4.000000, 4.000000, 4.000000, 4.000000, 4.000000, 4.000000, 4.000000, 4.000000
41.000000, 0.000000, 3506.666504, 4214.358887, 4186.666504, 4200.000000, 4182.563965, 4186.153809, 4181.538574, 4181.025391, 4184.615234, 4201.025391, 4209.743652, 4177.436035, 4247.179199, 4193.333008, 0.000000, 8247.000000, 8127.000000, 0.000000, 0.000000, 0.000000, -22085.000000, 410.256409, 4.000000, 4.000000, 4.000000, 4.000000, 4.000000, 4.000000, 4.000000, 4.000000, 4.000000, 4.000000, 4.000000, 4.000000, 4.000000, 4.000000, 4.000000, 4.000000
42.000000, 0.000000, 3502.051270, 4205.641113, 4182.563965, 4189.743652, 4181.025391, 4186.153809, 4187.179199, 4184.102539, 4186.666504, 4204.615234, 4206.153809, 4177.436035, 4239.487305, 4188.717773, 0.000000, 8247.000000, 8127.000000, 0.000000, 0.000000, 0.000000, -22085.000000, 417.948700, 4.000000, 4.000000, 4.000000, 4.000000, 4.000000, 4.000000, 4.000000, 4.000000, 4.000000, 4.000000, 4.000000, 4.000000, 4.000000, 4.000000, 4.000000, 4.000000
43.000000, 0.000000, 3497.435791, 4196.922852, 4177.436035, 4181.538574, 4174.871582, 4182.051270, 4185.127930, 4176.922852, 4186.153809, 4197.948730, 4203.076660, 4172.307617, 4227.692383, 4186.666504, 0.000000, 8235.000000, 8128.000000, 0.000000, 0.000000, 0.000000, -22085.000000, 425.641022, 4.000000, 4.000000, 4.000000, 4.000000, 4.000000, 4.000000, 4.000000, 4.000000, 4.000000, 4.000000, 4.000000, 4.000000, 4.000000, 4.000000, 4.000000, 4.000000
44.000000, 0.000000, 3503.589600, 4201.025391, 4180.000000, 4186.666504, 4178.974121, 4183.076660, 4183.589844, 4172.820313, 4185.641113, 4201.538574, 4208.205078, 4177.948730, 4227.692383, 4188.717773, 0.000000, 8235.000000, 8128.000000, 0.000000, 0.000000, 0.000000, -22085.000000, 433.846130, 4.000000, 4.000000, 4.000000, 4.000000, 4.000000, 4.000000, 4.000000, 4.000000, 4.000000, 4.000000, 4.000000, 4.000000, 4.000000, 4.000000, 4.000000, 4.000000
45.000000, 0.000000, 3507.179443, 4204.102539, 4188.717773, 4194.871582, 4188.717773, 4195.384277, 4188.205078, 4187.692383, 4193.846191, 4211.281738, 4215.897461, 4186.153809, 4231.794922, 4196.922852, 0.000000, 8230.000000, 8117.000000, 0.000000, 0.000000, 0.000000, -22085.000000, 442.051270, 4.000000, 4.000000, 4.000000, 4.000000, 4.000000, 4.000000, 4.000000, 4.000000, 4.000000, 4.000000, 4.000000, 4.000000, 4.000000, 4.000000, 4.000000, 4.000000
46.000000, 0.000000, 3509.743408, 4201.538574, 4193.846191, 4198.974121, 4186.666504, 4195.384277, 4185.127930, 4186.666504, 4193.333008, 4204.615234, 4216.922852, 4185.127930, 4228.717773, 4194.871582, 0.000000, 8230.000000, 8117.000000, 0.000000, 0.000000, 0.000000, -22085.000000, 449.743591, 4.000000, 4.000000, 4.000000, 4.000000, 4.000000, 4.000000, 4.000000, 4.000000, 4.000000, 4.000000, 4.000000, 4.000000, 4.000000, 4.000000, 4.000000, 4.000000
47.000000, 0.000000, 3512.820313, 4200.512695, 4191.281738, 4201.538574, 4182.051270, 4187.692383, 4185.127930, 4177.436035, 4187.179199, 4200.000000, 4215.897461, 4184.615234, 4222.051270, 4191.794922, 0.000000, 8224.000000, 8104.000000, 0.000000, 0.000000, 0.000000, -22085.000000, 457.435883, 4.000000, 4.000000, 4.000000, 4.000000, 4.000000, 4.000000, 4.000000, 4.000000, 4.000000, 4.000000, 4.000000, 4.000000, 4.000000, 4.000000, 4.000000, 4.000000
48.000000, 0.000000, 3510.769043, 4200.512695, 4187.692383, 4201.538574, 4190.256348, 4194.358887, 4194.358887, 4182.051270, 4190.769043, 4208.717773, 4211.794922, 4183.589844, 4214.871582, 4192.820313, 0.000000, 8224.000000, 8104.000000, 0.000000, 0.000000, 0.000000, -22085.000000, 465.641022, 4.000000, 4.000000, 4.000000, 4.000000, 4.000000, 4.000000, 4.000000, 4.000000, 4.000000, 4.000000, 4.000000, 4.000000, 4.000000, 4.000000, 4.000000, 4.000000
49.000000, 0.000000, 3507.692139, 4198.461426, 4187.692383, 4200.000000, 4185.641113, 4195.897461, 4194.358887, 4177.436035, 4189.743652, 4205.641113, 4208.717773, 4176.410156, 4208.205078, 4191.281738, 0.000000, 8224.000000, 8093.000000, 0.000000, 0.000000, 0.000000, -22085.000000, 473.333313, 4.000000, 4.000000, 4.000000, 4.000000, 4.000000, 4.000000, 4.000000, 4.000000, 4.000000, 4.000000, 4.000000, 4.000000, 4.000000, 4.000000, 4.000000, 4.000000
50.000000, 0.000000, 3502.563965, 4189.743652, 4188.205078, 4198.974121, 4165.127930, 4183.076660, 4183.076660, 4166.666504, 4181.025391, 4193.333008, 4209.230469, 4174.871582, 4201.538574, 4191.281738, 0.000000, 8224.000000, 8093.000000, 0.000000, 0.000000, 0.000000, -22085.000000, 481.025635, 4.000000, 4.000000, 4.000000, 4.000000, 4.000000, 4.000000, 4.000000, 4.000000, 4.000000, 4.000000, 4.000000, 4.000000, 4.000000, 4.000000, 4.000000, 4.000000
51.000000, 0.000000, 3503.076904, 4182.563965, 4184.615234, 4198.974121, 4169.743652, 4181.538574, 4181.025391, 4168.717773, 4182.563965, 4194.871582, 4205.127930, 4174.358887, 4197.948730, 4190.256348, 0.000000, 8208.000000, 8087.000000, 0.000000, 0.000000, 0.000000, -22085.000000, 489.230743, 4.000000, 4.000000, 4.000000, 4.000000, 4.000000, 4.000000, 4.000000, 4.000000, 4.000000, 4.000000, 4.000000, 4.000000, 4.000000, 4.000000, 4.000000, 4.000000
52.000000, 0.000000, 3510.256348, 4186.666504, 4184.102539, 4202.563965, 4192.820313, 4188.717773, 4187.179199, 4173.846191, 4191.281738, 4204.615234, 4208.205078, 4174.358887, 4202.051270, 4191.794922, 0.000000, 8208.000000, 8087.000000, 0.000000, 0.000000, 0.000000, -22085.000000, 496.923065, 4.000000, 4.000000, 4.000000, 4.000000, 4.000000, 4.000000, 4.000000, 4.000000, 4.000000, 4.000000, 4.000000, 4.000000, 4.000000, 4.000000, 4.000000, 4.000000
53.000000, 0.000000, 3512.820313, 4191.281738, 4186.153809, 4204.102539, 4193.333008, 4187.692383, 4186.153809, 4176.922852, 4189.230469, 4203.076660, 4211.794922, 4176.410156, 4194.871582, 4190.256348, 0.000000, 8205.000000, 8083.000000, 0.000000, 0.000000, 0.000000, -22085.000000, 505.128204, 4.000000, 4.000000, 4.000000, 4.000000, 4.000000, 4.000000, 4.000000, 4.000000, 4.000000, 4.000000, 4.000000, 4.000000, 4.000000, 4.000000, 4.000000, 4.000000
54.000000, 0.000000, 3512.820313, 4182.563965, 4183.589844, 4200.000000, 4182.051270, 4183.589844, 4183.076660, 4184.615234, 4187.692383, 4200.512695, 4208.717773, 4174.871582, 4181.538574, 4184.615234, 0.000000, 8205.000000, 8083.000000, 0.000000, 0.000000, 0.000000, -22085.000000, 512.820496, 4.000000, 4.000000, 4.000000, 4.000000, 4.000000, 4.000000, 4.000000, 4.000000, 4.000000, 4.000000, 4.000000, 4.000000, 4.000000, 4.000000, 4.000000, 4.000000
55.000000, 0.000000, 3514.871826, 4177.436035, 4182.051270, 4198.974121, 4184.102539, 4185.641113, 4190.769043, 4188.205078, 4192.820313, 4202.051270, 4210.256348, 4178.974121, 4180.512695, 4191.794922, 0.000000, 8213.000000, 8085.000000, 0.000000, 0.000000, 0.000000, -22085.000000, 520.512817, 4.000000, 4.000000, 4.000000, 4.000000, 4.000000, 4.000000, 4.000000, 4.000000, 4.000000, 4.000000, 4.000000, 4.000000, 4.000000, 4.000000, 4.000000, 4.000000
56.000000, 0.000000, 3518.461426, 4181.538574, 4182.051270, 4198.974121, 4185.127930, 4184.615234, 4192.307617, 4184.102539, 4189.743652, 4191.281738, 4206.666504, 4180.512695, 4171.281738, 4192.307617, 0.000000, 8213.000000, 8085.000000, 0.000000, 0.000000, 0.000000, -22085.000000, 528.717957, 4.000000, 4.000000, 4.000000, 4.000000, 4.000000, 4.000000, 4.000000, 4.000000, 4.000000, 4.000000, 4.000000, 4.000000, 4.000000, 4.000000, 4.000000, 4.000000
57.000000, 0.000000, 3523.076904, 4182.051270, 4187.179199, 4204.102539, 4181.538574, 4177.436035, 4185.127930, 4184.102539, 4183.076660, 4183.589844, 4200.512695, 4172.820313, 4156.922852, 4188.717773, 0.000000, 8220.000000, 8083.000000, 0.000000, 0.000000, 0.000000, -22085.000000, 536.410217, 4.000000, 4.000000, 4.000000, 4.000000, 4.000000, 4.000000, 4.000000, 4.000000, 4.000000, 4.000000, 4.000000, 4.000000, 4.000000, 4.000000, 4.000000, 4.000000
58.000000, 0.000000, 3531.794678, 4180.000000, 4199.487305, 4212.307617, 4184.615234, 4178.974121, 4190.256348, 4192.820313, 4188.717773, 4196.922852, 4212.820313, 4180.000000, 4162.563965, 4197.948730, 0.000000, 8220.000000, 8083.000000, 0.000000, 0.000000, 0.000000, -22085.000000, 544.102539, 4.000000, 4.000000, 4.000000, 4.000000, 4.000000, 4.000000, 4.000000, 4.000000, 4.000000, 4.000000, 4.000000, 4.000000, 4.000000, 4.000000, 4.000000, 4.000000
59.000000, 0.000000, 3538.461426, 4177.436035, 4205.641113, 4211.281738, 4187.692383, 4183.076660, 4195.897461, 4204.102539, 4201.538574, 4209.230469, 4229.743652, 4197.436035, 4173.846191, 4199.487305, 0.000000, 8240.000000, 8096.000000, 0.000000, 0.000000, 0.000000, -22085.000000, 552.307678, 4.000000, 4.000000, 4.000000, 4.000000, 4.000000, 4.000000, 4.000000, 4.000000, 4.000000, 4.000000, 4.000000, 4.000000, 4.000000, 4.000000, 4.000000, 4.000000
60.000000, 0.000000, 3536.410156, 4174.358887, 4197.948730, 4203.589844, 4186.153809, 4177.436035, 4188.205078, 4206.666504, 4203.076660, 4204.102539, 4223.076660, 4195.384277, 4169.743652, 4195.384277, 0.000000, 8240.000000, 8096.000000, 0.000000, 0.000000, 0.000000, -22085.000000, 560.512817, 4.000000, 4.000000, 4.000000, 4.000000, 4.000000, 4.000000, 4.000000, 4.000000, 4.000000, 4.000000, 4.000000, 4.000000, 4.000000, 4.000000, 4.000000, 4.000000
61.000000, 0.000000, 3538.974365, 4172.820313, 4192.307617, 4204.615234, 4185.641113, 4176.922852, 4187.692383, 4196.410156, 4196.922852, 4201.025391, 4215.384277, 4186.666504, 4162.563965, 4193.333008, 0.000000, 8247.000000, 8100.000000, 0.000000, 0.000000, 0.000000, -22085.000000, 568.205139, 4.000000, 4.000000, 4.000000, 4.000000, 4.000000, 4.000000, 4.000000, 4.000000, 4.000000, 4.000000, 4.000000, 4.000000, 4.000000, 4.000000, 4.000000, 4.000000
62.000000, 0.000000, 3541.025635, 4173.333008, 4197.948730, 4207.692383, 4185.641113, 4184.102539, 4191.281738, 4190.256348, 4194.358887, 4201.538574, 4220.512695, 4193.333008, 4160.512695, 4193.333008, 0.000000, 8247.000000, 8100.000000, 0.000000, 0.000000, 0.000000, -22085.000000, 575.897400, 4.000000, 4.000000, 4.000000, 4.000000, 4.000000, 4.000000, 4.000000, 4.000000, 4.000000, 4.000000, 4.000000, 4.000000, 4.000000, 4.000000, 4.000000, 4.000000
63.000000, 0.000000, 3536.923096, 4167.692383, 4202.051270, 4202.051270, 4173.333008, 4183.589844, 4185.641113, 4192.820313, 4191.281738, 4197.436035, 4219.487305, 4191.794922, 4153.333008, 4193.846191, 0.000000, 8244.000000, 8104.000000, 0.000000, 0.000000, 0.000000, -22085.000000, 583.589722, 4.000000, 4.000000, 4.000000, 4.000000, 4.000000, 4.000000, 4.000000, 4.000000, 4.000000, 4.000000, 4.000000, 4.000000, 4.000000, 4.000000, 4.000000, 4.000000
64.000000, 0.000000, 3537.435791, 4156.922852, 4200.512695, 4202.563965, 4162.563965, 4180.000000, 4188.205078, 4189.743652, 4187.692383, 4198.974121, 4212.820313, 4184.615234, 4143.076660, 4190.256348, 3336.000000, 8244.000000, 8104.000000, 0.000000, 0.000000, 0.000000, -22085.000000, 591.794861, 4.000000, 4.000000, 4.000000, 4.000000, 4.000000, 4.000000, 4.000000, 4.000000, 4.000000, 4.000000, 4.000000, 4.000000, 4.000000, 4.000000, 4.000000, 4.000000
65.000000, 0.000000, 3537.435791, 4156.922852, 4200.512695, 4207.179199, 4178.461426, 4184.615234, 4203.076660, 4183.589844, 4186.153809, 4199.487305, 4211.281738, 4187.692383, 4136.922852, 4192.820313, 3494.000000, 8238.000000, 8103.000000, 0.000000, 0.000000, 0.000000, -22085.000000, 599.487183, 4.000000, 4.000000, 4.000000, 4.000000, 4.000000, 4.000000, 4.000000, 4.000000, 4.000000, 4.000000, 4.000000, 4.000000, 4.000000, 4.000000, 4.000000, 4.000000
66.000000, 0.000000, 3536.410156, 4161.025391, 4197.948730, 4203.076660, 4201.025391, 4185.641113, 4200.000000, 4193.333008, 4191.794922, 4197.948730, 4213.333008, 4187.692383, 4133.333008, 4192.820313, 2838.000000, 8238.000000, 8103.000000, 0.000000, 0.000000, 0.000000, -22085.000000, 607.179443, 4.000000, 4.000000, 4.000000, 4.000000, 4.000000, 4.000000, 4.000000, 4.000000, 4.000000, 4.000000, 4.000000, 4.000000, 4.000000, 4.000000, 4.000000, 4.000000
67.000000, 0.000000, 3537.435791, 4155.384277, 4191.794922, 4197.948730, 4206.153809, 4188.205078, 4185.127930, 4203.076660, 4203.076660, 4201.538574, 4213.846191, 4179.487305, 4133.333008, 4191.281738, 2011.000000, 8227.000000, 8098.000000, 0.000000, 0.000000, 0.000000, -22085.000000, 614.871765, 4.000000, 4.000000, 4.000000, 4.000000, 4.000000, 4.000000, 4.000000, 4.000000, 4.000000, 4.000000, 4.000000, 4.000000, 4.000000, 4.000000, 4.000000, 4.000000
68.000000, 0.000000, 3532.307617, 4151.794922, 4185.641113, 4197.948730, 4200.000000, 4192.307617, 4185.127930, 4191.794922, 4200.512695, 4201.538574, 4203.076660, 4170.769043, 4125.641113, 4191.794922, 3518.000000, 8227.000000, 8098.000000, 0.000000, 0.000000, 0.000000, -22085.000000, 623.076904, 4.000000, 4.000000, 4.000000, 4.000000, 4.000000, 4.000000, 4.000000, 4.000000, 4.000000, 4.000000, 4.000000, 4.000000, 4.000000, 4.000000, 4.000000, 4.000000
69.000000, 0.000000, 3522.563965, 4148.205078, 4174.871582, 4192.307617, 4192.307617, 4192.820313, 4191.794922, 4180.512695, 4187.692383, 4188.205078, 4188.205078, 4161.538574, 4108.717773, 4183.076660, 3540.000000, 8216.000000, 8098.000000, 0.000000, 0.000000, 0.000000, -22085.000000, 631.282043, 4.000000, 4.000000, 4.000000, 4.000000, 4.000000, 4.000000, 4.000000, 4.000000, 4.000000, 4.000000, 4.000000, 4.000000, 4.000000, 4.000000, 4.000000, 4.000000
70.000000, 0.000000, 3521.538330, 4143.076660, 4168.717773, 4184.102539, 4189.230469, 4195.897461, 4195.897461, 4188.717773, 4188.717773, 4181.025391, 4190.256348, 4156.410156, 4105.641113, 4183.589844, 3057.000000, 8216.000000, 8098.000000, 0.000000, 0.000000, 0.000000, -22085.000000, 638.974365, 4.000000, 4.000000, 4.000000, 4.000000, 4.000000, 4.000000, 4.000000, 4.000000, 4.000000, 4.000000, 4.000000, 4.000000, 4.000000, 4.000000, 4.000000, 4.000000
71.000000, 0.000000, 3526.153809, 4144.102539, 4170.769043, 4193.333008, 4193.846191, 4201.025391, 4194.871582, 4194.871582, 4200.512695, 4192.820313, 4198.461426, 4156.410156, 4115.897461, 4188.717773, 3511.000000, 8215.000000, 8103.000000, 0.000000, 0.000000, 0.000000, -22085.000000, 646.666626, 4.000000, 4.000000, 4.000000, 4.000000, 4.000000, 4.000000, 4.000000, 4.000000, 4.000000, 4.000000, 4.000000, 4.000000, 4.000000, 4.000000, 4.000000, 4.000000
72.000000, 0.000000, 3521.025635, 4147.179199, 4169.230469, 4198.974121, 4201.025391, 4202.563965, 4193.846191, 4193.333008, 4201.025391, 4204.102539, 4194.358887, 4152.820313, 4112.820313, 4184.102539, 3506.000000, 8215.000000, 8103.000000, 0.000000, 0.000000, 0.000000, -22085.000000, 654.871765, 4.000000, 4.000000, 4.000000, 4.000000, 4.000000, 4.000000, 4.000000, 4.000000, 4.000000, 4.000000, 4.000000, 4.000000, 4.000000, 4.000000, 4.000000, 4.000000
73.000000, 0.000000, 3513.333252, 4141.025391, 4164.102539, 4188.717773, 4197.948730, 4202.051270, 4196.410156, 4193.333008, 4194.358887, 4201.538574, 4187.692383, 4147.179199, 4101.538574, 4186.153809, 3535.000000, 8209.000000, 8104.000000, 0.000000, 0.000000, 0.000000, -22085.000000, 662.564087, 4.000000, 4.000000, 4.000000, 4.000000, 4.000000, 4.000000, 4.000000, 4.000000, 4.000000, 4.000000, 4.000000, 4.000000, 4.000000, 4.000000, 4.000000, 4.000000
74.000000, 0.000000, 3516.410156, 4136.922852, 4164.615234, 4191.281738, 4183.076660, 4202.051270, 4197.948730, 4197.436035, 4197.948730, 4198.974121, 4189.743652, 4148.717773, 4105.641113, 4191.281738, 3545.000000, 8209.000000, 8104.000000, 0.000000, 0.000000, 0.000000, -22085.000000, 670.256409, 4.000000, 4.000000, 4.000000, 4.000000, 4.000000, 4.000000, 4.000000, 4.000000, 4.000000, 4.000000, 4.000000, 4.000000, 4.000000, 4.000000, 4.000000, 4.000000
75.000000, 0.000000, 3517.948730, 4141.025391, 4169.230469, 4201.025391, 4177.948730, 4199.487305, 4201.538574, 4204.615234, 4205.641113, 4201.538574, 4190.769043, 4153.333008, 4111.794922, 4190.256348, 1271.000000, 8213.000000, 8089.000000, 0.000000, 0.000000, 0.000000, -22085.000000, 678.461548, 4.000000, 4.000000, 4.000000, 4.000000, 4.000000, 4.000000, 4.000000, 4.000000, 4.000000, 4.000000, 4.000000, 4.000000, 4.000000, 4.000000, 4.000000, 4.000000
76.000000, 0.000000, 3520.000000, 4138.974121, 4169.743652, 4193.846191, 4194.358887, 4200.000000, 4199.487305, 4198.974121, 4203.589844, 4202.051270, 4187.179199, 4151.281738, 4109.743652, 4187.692383, 3474.000000, 8213.000000, 8089.000000, 0.000000, 0.000000, 0.000000, -22085.000000, 686.153809, 4.000000, 4.000000, 4.000000, 4.000000, 4.000000, 4.000000, 4.000000, 4.000000, 4.000000, 4.000000, 4.000000, 4.000000, 4.000000, 4.000000, 4.000000, 4.000000
77.000000, 0.000000, 3523.589600, 4135.897461, 4167.692383, 4187.692383, 4204.102539, 4200.000000, 4187.179199, 4184.102539, 4193.333008, 4198.974121, 4188.717773, 4151.794922, 4110.769043, 4187.692383, 3440.000000, 8216.000000, 8082.000000, 0.000000, 0.000000, 0.000000, -22085.000000, 694.358948, 4.000000, 4.000000, 4.000000, 4.000000, 4.000000, 4.000000, 4.000000, 4.000000, 4.000000, 4.000000, 4.000000, 4.000000, 4.000000, 4.000000, 4.000000, 4.000000
78.000000, 0.000000, 3525.128174, 4139.487305, 4176.410156, 4197.948730, 4198.461426, 4193.333008, 4186.153809, 4187.692383, 4190.256348, 4198.974121, 4192.307617, 4163.589844, 4111.794922, 4192.820313, 3545.000000, 8216.000000, 8082.000000, 0.000000, 0.000000, 0.000000, -22085.000000, 702.051270, 4.000000, 4.000000, 4.000000, 4.000000, 4.000000, 4.000000, 4.000000, 4.000000, 4.000000, 4.000000, 4.000000, 4.000000, 4.000000, 4.000000, 4.000000, 4.000000
79.000000, 0.000000, 3535.384521, 4140.000000, 4186.666504, 4202.051270, 4199.487305, 4191.794922, 4198.974121, 4200.000000, 4197.436035, 4205.127930, 4195.897461, 4168.717773, 4112.307617, 4192.307617, 1271.000000, 8222.000000, 8075.000000, 0.000000, 0.000000, 0.000000, -22085.000000, 709.743591, 4.000000, 4.000000, 4.000000, 4.000000, 4.000000, 4.000000, 4.000000, 4.000000, 4.000000, 4.000000, 4.000000, 4.000000, 4.000000, 4.000000, 4.000000, 4.000000
80.000000, 0.000000, 3534.871826, 4133.333008, 4177.948730, 4191.794922, 4194.871582, 4192.307617, 4197.436035, 4193.846191, 4196.410156, 4204.615234, 4187.179199, 4157.948730, 4106.666504, 4190.769043, 3474.000000, 8222.000000, 8075.000000, 0.000000, 0.000000, 0.000000, -22085.000000, 717.948730, 4.000000, 4.000000, 4.000000, 4.000000, 4.000000, 4.000000, 4.000000, 4.000000, 4.000000, 4.000000, 4.000000, 4.000000, 4.000000, 4.000000, 4.000000, 4.000000
81.000000, 0.000000, 3517.435791, 4122.563965, 4165.127930, 4181.025391, 4179.487305, 4184.615234, 4182.051270, 4183.076660, 4182.563965, 4188.205078, 4167.179199, 4146.153809, 4088.205078, 4189.743652, 3440.000000, 8223.000000, 8073.000000, 0.000000, 0.000000, 0.000000, -22085.000000, 726.153809, 4.000000, 4.000000, 4.000000, 4.000000, 4.000000, 4.000000, 4.000000, 4.000000, 4.000000, 4.000000, 4.000000, 4.000000, 4.000000, 4.000000, 4.000000, 4.000000
82.000000, 0.000000, 3518.461426, 4119.487305, 4167.692383, 4182.051270, 4180.000000, 4182.051270, 4178.974121, 4188.205078, 4183.076660, 4187.179199, 4166.666504, 4151.281738, 4085.640869, 4190.256348, 3545.000000, 8223.000000, 8073.000000, 0.000000, 0.000000, 0.000000, -22085.000000, 733.846130, 4.000000, 4.000000, 4.000000, 4.000000, 4.000000, 4.000000, 4.000000, 4.000000, 4.000000, 4.000000, 4.000000, 4.000000, 4.000000, 4.000000, 4.000000, 4.000000
83.000000, 0.000000, 3535.384521, 4126.153809, 4173.333008, 4188.717773, 4192.820313, 4185.641113, 4184.102539, 4189.743652, 4195.897461, 4203.589844, 4180.512695, 4159.487305, 4101.025391, 4195.897461, 1271.000000, 8235.000000, 8071.000000, 0.000000, 0.000000, 0.000000, -22085.000000, 741.538452, 4.000000, 4.000000, 4.000000, 4.000000, 4.000000, 4.000000, 4.000000, 4.000000, 4.000000, 4.000000, 4.000000, 4.000000, 4.000000, 4.000000, 4.000000, 4.000000
84.000000, 0.000000, 3529.743408, 4120.000000, 4171.794922, 4183.589844, 4182.563965, 4180.512695, 4183.589844, 4185.641113, 4191.794922, 4194.358887, 4171.794922, 4153.333008, 4082.051270, 4190.769043, 3474.000000, 8235.000000, 8071.000000, 0.000000, 0.000000, 0.000000, -22085.000000, 749.743591, 4.000000, 4.000000, 4.000000, 4.000000, 4.000000, 4.000000, 4.000000, 4.000000, 4.000000, 4.000000, 4.000000, 4.000000, 4.000000, 4.000000, 4.000000, 4.000000
85.000000, 0.000000, 3519.487061, 4107.692383, 4167.692383, 4176.922852, 4168.205078, 4176.922852, 4181.538574, 4184.615234, 4184.615234, 4178.974121, 4160.512695, 4149.230469, 4066.153809, 4188.205078, 3440.000000, 8238.000000, 8075.000000, 0.000000, 0.000000, 0.000000, -22085.000000, 757.435852, 4.000000, 4.000000, 4.000000, 4.000000, 4.000000, 4.000000, 4.000000, 4.000000, 4.000000, 4.000000, 4.000000, 4.000000, 4.000000, 4.000000, 4.000000, 4.000000
86.000000, 0.000000, 3532.820313, 4114.871582, 4170.769043, 4184.615234, 4181.025391, 4182.051270, 4180.000000, 4177.948730, 4190.256348, 4194.871582, 4176.410156, 4158.974121, 4100.512695, 4196.410156, 3545.000000, 8238.000000, 8075.000000, 0.000000, 0.000000, 0.000000, -22085.000000, 765.128174, 4.000000, 4.000000, 4.000000, 4.000000, 4.000000, 4.000000, 4.000000, 4.000000, 4.000000, 4.000000, 4.000000, 4.000000, 4.000000, 4.000000, 4.000000, 4.000000
87.000000, 0.000000, 3546.153809, 4121.025391, 4178.461426, 4188.717773, 4194.871582, 4184.102539, 4181.538574, 4174.871582, 4194.358887, 4204.102539, 4193.333008, 4165.127930, 4127.692383, 4195.897461, 1271.000000, 8236.000000, 8076.000000, 0.000000, 0.000000, 0.000000, -22085.000000, 772.820496, 4.000000, 4.000000, 4.000000, 4.000000, 4.000000, 4.000000, 4.000000, 4.000000, 4.000000, 4.000000, 4.000000, 4.000000, 4.000000, 4.000000, 4.000000, 4.000000
88.000000, 0.000000, 3544.102539, 4114.871582, 4174.871582, 4182.563965, 4187.692383, 4183.589844, 4186.153809, 4182.563965, 4193.846191, 4194.358887, 4191.794922, 4163.589844, 4124.102539, 4194.358887, 3474.000000, 8236.000000, 8076.000000, 0.000000, 0.000000, 0.000000, -22085.000000, 781.025635, 4.000000, 4.000000, 4.000000, 4.000000, 4.000000, 4.000000, 4.000000, 4.000000, 4.000000, 4.000000, 4.000000, 4.000000, 4.000000, 4.000000, 4.000000, 4.000000
89.000000, 0.000000, 3547.692139, 4110.769043, 4168.205078, 4181.538574, 4182.563965, 4182.051270, 4185.641113, 4182.563965, 4192.820313, 4195.897461, 4189.230469, 4159.487305, 4128.205078, 4193.846191, 3440.000000, 8228.000000, 8080.000000, 0.000000, 0.000000, 0.000000, -22085.000000, 788.717957, 4.000000, 4.000000, 4.000000, 4.000000, 4.000000, 4.000000, 4.000000, 4.000000, 4.000000, 4.000000, 4.000000, 4.000000, 4.000000, 4.000000, 4.000000, 4.000000
90.000000, 0.000000, 3549.230713, 4106.153809, 4172.820313, 4180.512695, 4187.692383, 4177.436035, 4181.025391, 4173.333008, 4188.717773, 4200.000000, 4189.743652, 4160.512695, 4133.846191, 4192.307617, 3545.000000, 8228.000000, 8080.000000, 0.000000, 0.000000, 0.000000, -22085.000000, 796.410217, 4.000000, 4.000000, 4.000000, 4.000000, 4.000000, 4.000000, 4.000000, 4.000000, 4.000000, 4.000000, 4.000000, 4.000000, 4.000000, 4.000000, 4.000000, 4.000000
91.000000, 0.000000, 3544.615234, 4099.487305, 4176.922852, 4173.846191, 4183.076660, 4172.307617, 4180.000000, 4170.769043, 4177.436035, 4187.692383, 4183.589844, 4161.538574, 4120.000000, 4191.794922, 1271.000000, 8225.000000, 8087.000000, 0.000000, 0.000000, 0.000000, -22085.000000, 804.102539, 4.000000, 4.000000, 4.000000, 4.000000, 4.000000, 4.000000, 4.000000, 4.000000, 4.000000, 4.000000, 4.000000, 4.000000, 4.000000, 4.000000, 4.000000, 4.000000
92.000000, 0.000000, 3549.230713, 4100.512695, 4174.871582, 4178.461426, 4179.487305, 4170.769043, 4175.897461, 4170.769043, 4167.179199, 4178.974121, 4181.025391, 4158.461426, 4118.461426, 4189.743652, 3474.000000, 8225.000000, 8087.000000, 0.000000, 0.000000, 0.000000, -22085.000000, 812.307678, 4.000000, 4.000000, 4.000000, 4.000000, 4.000000, 4.000000, 4.000000, 4.000000, 4.000000, 4.000000, 4.000000, 4.000000, 4.000000, 4.000000, 4.000000, 4.000000
93.000000, 0.000000, 3556.410156, 4105.127930, 4174.358887, 4186.666504, 4182.563965, 4169.743652, 4173.846191, 4166.153809, 4171.281738, 4188.205078, 4185.127930, 4158.974121, 4128.205078, 4193.333008, 3440.000000, 8213.000000, 8088.000000, 0.000000, 0.000000, 0.000000, -22085.000000, 820.000000, 4.000000, 4.000000, 4.000000, 4.000000, 4.000000, 4.000000, 4.000000, 4.000000, 4.000000, 4.000000, 4.000000, 4.000000, 4.000000, 4.000000, 4.000000, 4.000000
94.000000, 0.000000, 3561.025635, 4103.589844, 4171.794922, 4184.615234, 4187.179199, 4173.846191, 4175.384277, 4165.641113, 4177.948730, 4190.769043, 4186.666504, 4158.461426, 4125.127930, 4192.307617, 3545.000000, 8213.000000, 8088.000000, 0.000000, 0.000000, 0.000000, -22085.000000, 827.692261, 4.000000, 4.000000, 4.000000, 4.000000, 4.000000, 4.000000, 4.000000, 4.000000, 4.000000, 4.000000, 4.000000, 4.000000, 4.000000, 4.000000, 4.000000, 4.000000
95.000000, 0.000000, 3562.051270, 4103.076660, 4166.666504, 4182.051270, 4189.230469, 4181.538574, 4173.846191, 4167.179199, 4178.974121, 4185.127930, 4185.641113, 4152.307617, 4123.076660, 4188.205078, 1271.000000, 8207.000000, 8091.000000, 0.000000, 0.000000, 0.000000, -22085.000000, 835.384583, 4.000000, 4.000000, 4.000000, 4.000000, 4.000000, 4.000000, 4.000000, 4.000000, 4.000000, 4.000000, 4.000000, 4.000000, 4.000000, 4.000000, 4.000000, 4.000000
96.000000, 0.000000, 3562.051270, 4105.127930, 4166.666504, 4184.102539, 4176.410156, 4178.461426, 4175.384277, 4171.794922, 4175.897461, 4182.563965, 4184.615234, 4147.692383, 4125.127930, 4189.743652, 3474.000000, 8207.000000, 8091.000000, 0.000000, 0.000000, 0.000000, -22085.000000, 843.589722, 4.000000, 4.000000, 4.000000, 4.000000, 4.000000, 4.000000, 4.000000, 4.000000, 4.000000, 4.000000, 4.000000, 4.000000, 4.000000, 4.000000, 4.000000, 4.000000
97.000000, 0.000000, 3568.717773, 4101.538574, 4169.230469, 4183.076660, 4167.692383, 4176.922852, 4187.179199, 4180.000000, 4172.820313, 4181.538574, 4183.589844, 4149.743652, 4123.589844, 4188.717773, 3440.000000, 8208.000000, 8094.000000, 0.000000, 0.000000, 0.000000, -22085.000000, 851.794861, 4.000000, 4.000000, 4.000000, 4.000000, 4.000000, 4.000000, 4.000000, 4.000000, 4.000000, 4.000000, 4.000000, 4.000000, 4.000000, 4.000000, 4.000000, 4.000000
98.000000, 0.000000, 3568.205078, 4097.948730, 4171.281738, 4181.538574, 4178.461426, 4185.127930, 4193.846191, 4184.615234, 4174.871582, 4178.461426, 4183.076660, 4153.846191, 4118.461426, 4191.281738, 3545.000000, 8208.000000, 8094.000000, 0.000000, 0.000000, 0.000000, -22085.000000, 859.487183, 4.000000, 4.000000, 4.000000, 4.000000, 4.000000, 4.000000, 4.000000, 4.000000, 4.000000, 4.000000, 4.000000, 4.000000, 4.000000, 4.000000, 4.000000, 4.000000
99.000000, 0.000000, 3566.666504, 4100.512695, 4172.307617, 4183.589844, 4184.102539, 4183.589844, 4185.127930, 4183.589844, 4186.153809, 4180.000000, 4184.615234, 4152.820313, 4120.000000, 4192.307617, 1271.000000, 8206.000000, 8098.000000, 0.000000, 0.000000, 0.000000, -22085.000000, 867.692261, 4.000000, 4.000000, 4.000000, 4.000000, 4.000000, 4.000000, 4.000000, 4.000000, 4.000000, 4.000000, 4.000000, 4.000000, 4.000000, 4.000000, 4.000000, 4.000000
100.000000, 0.000000, 3577.435791, 4104.102539, 4170.256348, 4185.127930, 4180.512695, 4176.410156, 4177.948730, 4186.153809, 4191.794922, 4187.692383, 4186.666504, 4153.846191, 4124.102539, 4190.256348, 3474.000000, 8206.000000, 8098.000000, 0.000000, 0.000000, 0.000000, -22085.000000, 875.384583, 4.000000, 4.000000, 4.000000, 4.000000, 4.000000, 4.000000, 4.000000, 4.000000, 4.000000, 4.000000, 4.000000, 4.000000, 4.000000, 4.000000, 4.000000, 4.000000
101.000000, 0.000000, 3586.666504, 4104.102539, 4170.256348, 4187.179199, 4182.051270, 4180.512695, 4181.538574, 4191.794922, 4189.230469, 4186.153809, 4189.743652, 4160.512695, 4123.076660, 4195.384277, 3440.000000, 8202.000000, 8097.000000, 0.000000, 0.000000, 0.000000, -22085.000000, 883.589722, 4.000000, 4.000000, 4.000000, 4.000000, 4.000000, 4.000000, 4.000000, 4.000000, 4.000000, 4.000000, 4.000000, 4.000000, 4.000000, 4.000000, 4.000000, 4.000000
102.000000, 0.000000, 3585.128174, 4100.000000, 4171.794922, 4190.256348, 4185.127930, 4185.641113, 4183.076660, 4198.461426, 4197.948730, 4183.076660, 4196.410156, 4166.666504, 4127.179199, 4193.846191, 3545.000000, 8202.000000, 8097.000000, 0.000000, 0.000000, 0.000000, -22085.000000, 891.282043, 4.000000, 4.000000, 4.000000, 4.000000, 4.000000, 4.000000, 4.000000, 4.000000, 4.000000, 4.000000, 4.000000, 4.000000, 4.000000, 4.000000, 4.000000, 4.000000
103.000000, 0.000000, 3585.128174, 4096.922852, 4175.384277, 4189.230469, 4185.641113, 4183.076660, 4185.127930, 4204.615234, 4206.153809, 4195.384277, 4200.512695, 4171.794922, 4136.922852, 4191.281738, 1271.000000, 8193.000000, 8113.000000, 0.000000, 0.000000, 0.000000, -22085.000000, 898.974365, 4.000000, 4.000000, 4.000000, 4.000000, 4.000000, 4.000000, 4.000000, 4.000000, 4.000000, 4.000000, 4.000000, 4.000000, 4.000000, 4.000000, 4.000000, 4.000000
104.000000, 0.000000, 3592.820313, 4096.922852, 4183.589844, 4192.307617, 4180.000000, 4184.102539, 4189.743652, 4204.102539, 4198.974121, 4201.538574, 4201.538574, 4175.897461, 4137.436035, 4194.358887, 3474.000000, 8193.000000, 8113.000000, 0.000000, 0.000000, 0.000000, -22085.000000, 907.179443, 4.000000, 4.000000, 4.000000, 4.000000, 4.000000, 4.000000, 4.000000, 4.000000, 4.000000, 4.000000, 4.000000, 4.000000, 4.000000, 4.000000, 4.000000, 4.000000
105.000000, 0.000000, 3596.410156, 4095.384521, 4186.666504, 4198.974121, 4168.205078, 4186.153809, 4187.179199, 4193.333008, 4189.743652, 4192.820313, 4201.025391, 4177.436035, 4136.410156, 4195.897461, 3440.000000, 8192.000000, 8120.000000, 0.000000, 0.000000, 0.000000, -22085.000000, 914.871765, 4.000000, 4.000000, 4.000000, 4.000000, 4.000000, 4.000000, 4.000000, 4.000000, 4.000000, 4.000000, 4.000000, 4.000000, 4.000000, 4.000000, 4.000000, 4.000000
106.000000, 0.000000, 3595.897461, 4091.281982, 4187.179199, 4198.974121, 4174.358887, 4187.179199, 4185.127930, 4183.589844, 4184.102539, 4191.794922, 4202.563965, 4181.025391, 4146.666504, 4197.436035, 3545.000000, 8192.000000, 8120.000000, 0.000000, 0.000000, 0.000000, -22085.000000, 922.564087, 4.000000, 4.000000, 4.000000, 4.000000, 4.000000, 4.000000, 4.000000, 4.000000, 4.000000, 4.000000, 4.000000, 4.000000, 4.000000, 4.000000, 4.000000, 4.000000
107.000000, 0.000000, 3603.589600, 4089.230713, 4192.307617, 4198.974121, 4191.794922, 4188.205078, 4190.256348, 4183.076660, 4187.179199, 4195.897461, 4204.615234, 4184.102539, 4151.281738, 4194.358887, 1271.000000, 8177.000000, 8135.000000, 0.000000, 0.000000, 0.000000, -22085.000000, 930.256409, 4.000000, 4.000000, 4.000000, 4.000000, 4.000000, 4.000000, 4.000000, 4.000000, 4.000000, 4.000000, 4.000000, 4.000000, 4.000000, 4.000000, 4.000000, 4.000000
108.000000, 0.000000, 3607.179443, 4088.205078, 4193.846191, 4200.000000, 4191.794922, 4185.127930, 4190.769043, 4187.692383, 4192.820313, 4190.256348, 4201.025391, 4178.974121, 4141.538574, 4191.794922, 3474.000000, 8177.000000, 8135.000000, 0.000000, 0.000000, 0.000000, -22085.000000, 938.461487, 4.000000, 4.000000, 4.000000, 4.000000, 4.000000, 4.000000, 4.000000, 4.000000, 4.000000, 4.000000, 4.000000, 4.000000, 4.000000, 4.000000, 4.000000, 4.000000
109.000000, 0.000000, 3598.974365, 4081.025635, 4190.256348, 4194.358887, 4181.538574, 4184.102539, 4184.102539, 4188.717773, 4191.794922, 4181.538574, 4187.692383, 4170.256348, 4128.717773, 4188.205078, 3440.000000, 8175.000000, 8128.000000, 0.000000, 0.000000, 0.000000, -22085.000000, 946.153809, 4.000000, 4.000000, 4.000000, 4.000000, 4.000000, 4.000000, 4.000000, 4.000000, 4.000000, 4.000000, 4.000000, 4.000000, 4.000000, 4.000000, 4.000000, 4.000000
110.000000, 0.000000, 3594.871826, 4075.384521, 4190.256348, 4186.666504, 4173.846191, 4182.563965, 4181.025391, 4182.563965, 4182.051270, 4178.974121, 4178.974121, 4167.179199, 4124.615234, 4185.641113, 3545.000000, 8175.000000, 8128.000000, 0.000000, 0.000000, 0.000000, -22085.000000, 953.846130, 4.000000, 4.000000, 4.000000, 4.000000, 4.000000, 4.000000, 4.000000, 4.000000, 4.000000, 4.000000, 4.000000, 4.000000, 4.000000, 4.000000, 4.000000, 4.000000
111.000000, 0.000000, 3596.923096, 4076.923096, 4186.666504, 4184.102539, 4170.769043, 4174.358887, 4174.358887, 4168.717773, 4167.179199, 4176.410156, 4174.358887, 4160.512695, 4122.051270, 4190.256348, 1271.000000, 8173.000000, 8123.000000, 0.000000, 0.000000, 0.000000, -22085.000000, 962.051270, 4.000000, 4.000000, 4.000000, 4.000000, 4.000000, 4.000000, 4.000000, 4.000000, 4.000000, 4.000000, 4.000000, 4.000000, 4.000000, 4.000000, 4.000000, 4.000000
112.000000, 0.000000, 3596.923096, 4076.410156, 4181.538574, 4184.615234, 4177.948730, 4171.281738, 4166.153809, 4162.051270, 4162.563965, 4169.230469, 4169.230469, 4152.820313, 4114.871582, 4188.717773, 3474.000000, 8173.000000, 8123.000000, 0.000000, 0.000000, 0.000000, -22085.000000, 969.743591, 4.000000, 4.000000, 4.000000, 4.000000, 4.000000, 4.000000, 4.000000, 4.000000, 4.000000, 4.000000, 4.000000, 4.000000, 4.000000, 4.000000, 4.000000, 4.000000
113.000000, 0.000000, 3596.923096, 4077.948730, 4184.615234, 4187.179199, 4183.076660, 4177.948730, 4170.769043, 4173.846191, 4173.846191, 4161.538574, 4169.230469, 4153.846191, 4114.358887, 4189.230469, 3440.000000, 8173.000000, 8173.000000, 0.000000, 0.000000, 0.000000, -22085.000000, 977.435852, 4.000000, 4.000000, 4.000000, 4.000000, 4.000000, 4.000000, 4.000000, 4.000000, 4.000000, 4.000000, 4.000000, 4.000000, 4.000000, 4.000000, 4.000000, 4.000000
114.000000, 0.000000, 3603.589600, 4084.102539, 4188.717773, 4189.230469, 4185.127930, 4182.051270, 4178.974121, 4178.461426, 4180.000000, 4163.589844, 4169.230469, 4153.333008, 4117.948730, 4192.820313, 3545.000000, 8173.000000, 8173.000000, 0.000000, 0.000000, 0.000000, -22085.000000, 985.640991, 4.000000, 4.000000, 4.000000, 4.000000, 4.000000, 4.000000, 4.000000, 4.000000, 4.000000, 4.000000, 4.000000, 4.000000, 4.000000, 4.000000, 4.000000, 4.000000
115.000000, 0.000000, 3604.615234, 4084.102539, 4185.641113, 4185.641113, 4185.641113, 4182.051270, 4179.487305, 4174.871582, 4178.461426, 4175.384277, 4167.179199, 4150.769043, 4117.436035, 4189.230469, 1271.000000, 8174.000000, 8198.000000, 0.000000, 0.000000, 0.000000, -22085.000000, 993.333313, 4.000000, 4.000000, 4.000000, 4.000000, 4.000000, 4.000000, 4.000000, 4.000000, 4.000000, 4.000000, 4.000000, 4.000000, 4.000000, 4.000000, 4.000000, 4.000000
116.000000, 0.000000, 3594.871826, 4082.051270, 4180.000000, 4182.563965, 4173.846191, 4182.563965, 4182.563965, 4177.948730, 4180.512695, 4171.281738, 4165.641113, 4148.717773, 4112.820313, 4190.769043, 3474.000000, 8174.000000, 8198.000000, 0.000000, 0.000000, 0.000000, -22084.000000, 1.025641, 4.000000, 4.000000, 4.000000, 4.000000, 4.000000, 4.000000, 4.000000, 4.000000, 4.000000, 4.000000, 4.000000, 4.000000, 4.000000, 4.000000, 4.000000, 4.000000
117.000000, 0.000000, 3601.025635, 4087.179443, 4180.000000, 4185.127930, 4172.307617, 4182.563965, 4184.615234, 4181.538574, 4182.051270, 4168.717773, 4166.666504, 4149.230469, 4116.410156, 4192.820313, 3440.000000, 8180.000000, 8218.000000, 0.000000, 0.000000, 0.000000, -22084.000000, 9.230769, 4.000000, 4.000000, 4.000000, 4.000000, 4.000000, 4.000000, 4.000000, 4.000000, 4.000000, 4.000000, 4.000000, 4.000000, 4.000000, 4.000000, 4.000000, 4.000000
118.000000, 0.000000, 3618.974365, 4090.769043, 4191.794922, 4186.153809, 4187.692383, 4186.153809, 4188.717773, 4190.256348, 4184.615234, 4185.127930, 4174.358887, 4161.538574, 4125.641113, 4192.307617, 3545.000000, 8180.000000, 8218.000000, 0.000000, 0.000000, 0.000000, -22084.000000, 16.923077, 4.000000, 4.000000, 4.000000, 4.000000, 4.000000, 4.000000, 4.000000, 4.000000, 4.000000, 4.000000, 4.000000, 4.000000, 4.000000, 4.000000, 4.000000, 4.000000
119.000000, 0.000000, 3623.589600, 4088.205078, 4201.538574, 4189.743652, 4192.307617, 4191.281738, 4198.461426, 4200.512695, 4195.384277, 4191.794922, 4182.563965, 4172.307617, 4129.743652, 4195.897461, 1271.000000, 8180.000000, 8233.000000, 0.000000, 0.000000, 0.000000, -22084.000000, 24.615383, 4.000000, 4.000000, 4.000000, 4.000000, 4.000000, 4.000000, 4.000000, 4.000000, 4.000000, 4.000000, 4.000000, 4.000000, 4.000000, 4.000000, 4.000000, 4.000000
120.000000, 0.000000, 3622.051270, 4088.205078, 4201.538574, 4199.487305, 4184.102539, 4191.794922, 4201.025391, 4202.563965, 4202.563965, 4185.641113, 4185.641113, 4169.743652, 4131.281738, 4196.922852, 3474.000000, 8180.000000, 8233.000000, 0.000000, 0.000000, 0.000000, -22084.000000, 32.307690, 4.000000, 4.000000, 4.000000, 4.000000, 4.000000, 4.000000, 4.000000, 4.000000, 4.000000, 4.000000, 4.000000, 4.000000, 4.000000, 4.000000, 4.000000, 4.000000
121.000000, 0.000000, 3625.640869, 4092.820313, 4199.487305, 4200.512695, 4189.230469, 4194.871582, 4203.076660, 4202.051270, 4202.563965, 4186.666504, 4187.179199, 4174.871582, 4130.256348, 4195.897461, 3440.000000, 8176.000000, 8244.000000, 0.000000, 0.000000, 0.000000, -22084.000000, 40.512821, 4.000000, 4.000000, 4.000000, 4.000000, 4.000000, 4.000000, 4.000000, 4.000000, 4.000000, 4.000000, 4.000000, 4.000000, 4.000000, 4.000000, 4.000000, 4.000000
122.000000, 0.000000, 3627.179443, 4089.230713, 4200.512695, 4189.743652, 4193.333008, 4195.384277, 4208.205078, 4203.589844, 4201.025391, 4188.717773, 4185.127930, 4185.127930, 4127.179199, 4193.333008, 3545.000000, 8176.000000, 8244.000000, 0.000000, 0.000000, 0.000000, -22084.000000, 48.205128, 4.000000, 4.000000, 4.000000, 4.000000, 4.000000, 4.000000, 4.000000, 4.000000, 4.000000, 4.000000, 4.000000, 4.000000, 4.000000, 4.000000, 4.000000, 4.000000
123.000000, 0.000000, 3623.076904, 4082.051270, 4199.487305, 4184.102539, 4175.897461, 4186.153809, 4203.076660, 4194.358887, 4190.256348, 4183.076660, 4177.948730, 4177.948730, 4121.538574, 4194.358887, 1271.000000, 8171.000000, 8256.000000, 0.000000, 0.000000, 0.000000, -22084.000000, 55.897434, 4.000000, 4.000000, 4.000000, 4.000000, 4.000000, 4.000000, 4.000000, 4.000000, 4.000000, 4.000000, 4.000000, 4.000000, 4.000000, 4.000000, 4.000000, 4.000000
