title:neutral-10, recorded:15.05.18 09.39.23, timestamp started:2018-05-12T20:28:52.032863+02:00            , sampling:128, subject:Noé, labels:COUNTER INTERPOLATED AF3 F7 F3 FC5 T7 P7 O1 O2 P8 T8 FC6 F4 F8 AF4 RAW_CQ GYROX GYROY MARKER MARKER_HARDWARE SYNC TIME_STAMP_s TIME_STAMP_ms CQ_AF3 CQ_F7 CQ_F3 CQ_FC5 CQ_T7 CQ_P7 CQ_O1 CQ_O2 CQ_P8 CQ_T8 CQ_FC6 CQ_F4 CQ_F8 CQ_AF4 CQ_CMS CQ_DRL, chan:40, samples:7620, units:emotiv
117.000000, 0.000000, 4208.205078, 4195.897461, 4200.512695, 4194.358887, 4197.948730, 4200.512695, 4198.461426, 4202.563965, 4187.179199, 4216.922852, 4184.102539, 4172.820313, 4218.461426, 4202.051270, 3528.000000, 8008.000000, 8181.000000, 0.000000, 0.000000, 0.000000, 23623.000000, 556.923035, 4.000000, 4.000000, 4.000000, 4.000000, 4.000000, 4.000000, 4.000000, 4.000000, 4.000000, 4.000000, 4.000000, 4.000000, 4.000000, 4.000000, 4.000000, 4.000000
118.000000, 0.000000, 4207.179199, 4196.410156, 4202.563965, 4199.487305, 4195.897461, 4203.076660, 4201.025391, 4205.641113, 4187.692383, 4219.487305, 4182.563965, 4172.820313, 4214.871582, 4200.000000, 2502.000000, 8008.000000, 8181.000000, 0.000000, 0.000000, 0.000000, 23623.000000, 564.615356, 4.000000, 4.000000, 4.000000, 4.000000, 4.000000, 4.000000, 4.000000, 4.000000, 4.000000, 4.000000, 4.000000, 4.000000, 4.000000, 4.000000, 4.000000, 4.000000
119.000000, 0.000000, 4202.563965, 4191.281738, 4210.256348, 4198.461426, 4195.897461, 4201.025391, 4198.461426, 4202.563965, 4189.230469, 4225.127930, 4181.538574, 4184.102539, 4212.820313, 4200.512695, 3000.000000, 8009.000000, 8171.000000, 0.000000, 0.000000, 0.000000, 23623.000000, 572.820496, 4.000000, 4.000000, 4.000000, 4.000000, 4.000000, 4.000000, 4.000000, 4.000000, 4.000000, 4.000000, 4.000000, 4.000000, 4.000000, 4.000000, 4.000000, 4.000000
120.000000, 0.000000, 4207.692383, 4201.025391, 4216.922852, 4197.436035, 4201.538574, 4201.025391, 4192.820313, 4201.538574, 4193.333008, 4225.641113, 4189.743652, 4186.666504, 4217.948730, 4204.102539, 3496.000000, 8009.000000, 8171.000000, 0.000000, 0.000000, 0.000000, 23623.000000, 581.025635, 4.000000, 4.000000, 4.000000, 4.000000, 4.000000, 4.000000, 4.000000, 4.000000, 4.000000, 4.000000, 4.000000, 4.000000, 4.000000, 4.000000, 4.000000, 4.000000
121.000000, 0.000000, 4210.769043, 4204.615234, 4214.871582, 4201.025391, 4202.563965, 4207.179199, 4198.461426, 4202.563965, 4201.025391, 4227.692383, 4198.974121, 4187.179199, 4220.512695, 4205.641113, 3528.000000, 8005.000000, 8157.000000, 0.000000, 0.000000, 0.000000, 23623.000000, 588.717957, 4.000000, 4.000000, 4.000000, 4.000000, 4.000000, 4.000000, 4.000000, 4.000000, 4.000000, 4.000000, 4.000000, 4.000000, 4.000000, 4.000000, 4.000000, 4.000000
122.000000, 0.000000, 4203.076660, 4198.461426, 4206.666504, 4198.974121, 4195.384277, 4207.179199, 4200.512695, 4201.025391, 4203.076660, 4232.820313, 4196.922852, 4190.256348, 4216.922852, 4202.563965, 2502.000000, 8005.000000, 8157.000000, 0.000000, 0.000000, 0.000000, 23623.000000, 596.923035, 4.000000, 4.000000, 4.000000, 4.000000, 4.000000, 4.000000, 4.000000, 4.000000, 4.000000, 4.000000, 4.000000, 4.000000, 4.000000, 4.000000, 4.000000, 4.000000
123.000000, 0.000000, 4201.538574, 4197.948730, 4202.051270, 4191.281738, 4193.846191, 4201.538574, 4193.333008, 4204.102539, 4199.487305, 4232.307617, 4192.307617, 4188.717773, 4214.871582, 4201.025391, 3000.000000, 8014.000000, 8153.000000, 0.000000, 0.000000, 0.000000, 23623.000000, 604.615356, 4.000000, 4.000000, 4.000000, 4.000000, 4.000000, 4.000000, 4.000000, 4.000000, 4.000000, 4.000000, 4.000000, 4.000000, 4.000000, 4.000000, 4.000000, 4.000000
124.000000, 0.000000, 4204.102539, 4199.487305, 4202.051270, 4190.769043, 4199.487305, 4202.563965, 4193.333008, 4209.743652, 4198.974121, 4233.333008, 4198.974121, 4188.205078, 4215.384277, 4201.025391, 3496.000000, 8014.000000, 8153.000000, 0.000000, 0.000000, 0.000000, 23623.000000, 612.820496, 4.000000, 4.000000, 4.000000, 4.000000, 4.000000, 4.000000, 4.000000, 4.000000, 4.000000, 4.000000, 4.000000, 4.000000, 4.000000, 4.000000, 4.000000, 4.000000
125.000000, 0.000000, 4206.666504, 4200.512695, 4208.205078, 4199.487305, 4201.538574, 4205.641113, 4201.025391, 4206.153809, 4201.025391, 4241.025391, 4204.102539, 4190.256348, 4214.871582, 4201.025391, 3528.000000, 8023.000000, 8141.000000, 0.000000, 0.000000, 0.000000, 23623.000000, 620.512817, 4.000000, 4.000000, 4.000000, 4.000000, 4.000000, 4.000000, 4.000000, 4.000000, 4.000000, 4.000000, 4.000000, 4.000000, 4.000000, 4.000000, 4.000000, 4.000000
126.000000, 0.000000, 4205.127930, 4200.000000, 4214.358887, 4201.025391, 4199.487305, 4205.127930, 4205.641113, 4200.512695, 4204.102539, 4241.538574, 4201.538574, 4190.769043, 4215.384277, 4202.563965, 2502.000000, 8023.000000, 8141.000000, 0.000000, 0.000000, 0.000000, 23623.000000, 628.717957, 4.000000, 4.000000, 4.000000, 4.000000, 4.000000, 4.000000, 4.000000, 4.000000, 4.000000, 4.000000, 4.000000, 4.000000, 4.000000, 4.000000, 4.000000, 4.000000
127.000000, 0.000000, 4200.512695, 4200.000000, 4212.307617, 4190.769043, 4197.948730, 4203.076660, 4202.051270, 4202.051270, 4204.102539, 4236.922852, 4200.512695, 4188.717773, 4213.333008, 4198.974121, 56.000000, 8033.000000, 8134.000000, 0.000000, 0.000000, 0.000000, 23623.000000, 636.410217, 4.000000, 4.000000, 4.000000, 4.000000, 4.000000, 4.000000, 4.000000, 4.000000, 4.000000, 4.000000, 4.000000, 4.000000, 4.000000, 4.000000, 4.000000, 4.000000
0.000000, 0.000000, 4199.487305, 4195.897461, 4202.051270, 4184.615234, 4190.769043, 4198.974121, 4192.307617, 4203.589844, 4191.794922, 4231.281738, 4191.794922, 4181.025391, 4206.666504, 4190.256348, 3538.000000, 8033.000000, 8134.000000, 0.000000, 0.000000, 0.000000, 23623.000000, 644.615356, 4.000000, 4.000000, 4.000000, 4.000000, 4.000000, 4.000000, 4.000000, 4.000000, 4.000000, 4.000000, 4.000000, 4.000000, 4.000000, 4.000000, 4.000000, 4.000000
1.000000, 0.000000, 4201.538574, 4190.769043, 4196.410156, 4190.769043, 4187.692383, 4196.922852, 4189.743652, 4201.025391, 4188.205078, 4226.153809, 4186.666504, 4175.384277, 4201.538574, 4191.794922, 3535.000000, 8039.000000, 8118.000000, 0.000000, 0.000000, 0.000000, 23623.000000, 652.820496, 4.000000, 4.000000, 4.000000, 4.000000, 4.000000, 4.000000, 4.000000, 4.000000, 4.000000, 4.000000, 4.000000, 4.000000, 4.000000, 4.000000, 4.000000, 4.000000
2.000000, 0.000000, 4206.666504, 4201.025391, 4207.692383, 4200.512695, 4197.436035, 4198.974121, 4197.948730, 4202.563965, 4200.512695, 4226.153809, 4198.461426, 4183.076660, 4205.641113, 4203.589844, 1785.000000, 8039.000000, 8118.000000, 0.000000, 0.000000, 0.000000, 23623.000000, 660.512817, 4.000000, 4.000000, 4.000000, 4.000000, 4.000000, 4.000000, 4.000000, 4.000000, 4.000000, 4.000000, 4.000000, 4.000000, 4.000000, 4.000000, 4.000000, 4.000000
3.000000, 0.000000, 4209.743652, 4215.384277, 4220.512695, 4208.205078, 4202.563965, 4197.948730, 4198.461426, 4207.692383, 4205.127930, 4231.281738, 4205.127930, 4194.871582, 4213.846191, 4206.666504, 3565.000000, 8057.000000, 8109.000000, 0.000000, 0.000000, 0.000000, 23623.000000, 668.717957, 4.000000, 4.000000, 4.000000, 4.000000, 4.000000, 4.000000, 4.000000, 4.000000, 4.000000, 4.000000, 4.000000, 4.000000, 4.000000, 4.000000, 4.000000, 4.000000
4.000000, 0.000000, 4206.153809, 4215.897461, 4221.538574, 4211.281738, 4197.948730, 4198.974121, 4196.922852, 4210.256348, 4196.922852, 4228.205078, 4200.000000, 4199.487305, 4213.333008, 4202.563965, 3559.000000, 8057.000000, 8109.000000, 0.000000, 0.000000, 0.000000, 23623.000000, 676.410217, 4.000000, 4.000000, 4.000000, 4.000000, 4.000000, 4.000000, 4.000000, 4.000000, 4.000000, 4.000000, 4.000000, 4.000000, 4.000000, 4.000000, 4.000000, 4.000000
5.000000, 0.000000, 4204.102539, 4210.256348, 4217.948730, 4206.153809, 4190.256348, 4198.974121, 4202.563965, 4204.615234, 4190.256348, 4218.461426, 4200.512695, 4197.436035, 4205.127930, 4202.563965, 3575.000000, 8068.000000, 8096.000000, 0.000000, 0.000000, 0.000000, 23623.000000, 684.615356, 4.000000, 4.000000, 4.000000, 4.000000, 4.000000, 4.000000, 4.000000, 4.000000, 4.000000, 4.000000, 4.000000, 4.000000, 4.000000, 4.000000, 4.000000, 4.000000
6.000000, 0.000000, 4205.127930, 4207.179199, 4215.897461, 4199.487305, 4183.076660, 4189.743652, 4199.487305, 4199.487305, 4189.230469, 4213.846191, 4202.051270, 4194.358887, 4201.538574, 4202.051270, 3063.000000, 8068.000000, 8096.000000, 0.000000, 0.000000, 0.000000, 23623.000000, 692.307678, 4.000000, 4.000000, 4.000000, 4.000000, 4.000000, 4.000000, 4.000000, 4.000000, 4.000000, 4.000000, 4.000000, 4.000000, 4.000000, 4.000000, 4.000000, 4.000000
7.000000, 0.000000, 4205.641113, 4203.076660, 4215.384277, 4200.512695, 4183.076660, 4183.076660, 4188.717773, 4203.076660, 4184.102539, 4209.230469, 4200.512695, 4192.820313, 4204.615234, 4202.051270, 442.000000, 8086.000000, 8086.000000, 0.000000, 0.000000, 0.000000, 23623.000000, 700.512817, 4.000000, 4.000000, 4.000000, 4.000000, 4.000000, 4.000000, 4.000000, 4.000000, 4.000000, 4.000000, 4.000000, 4.000000, 4.000000, 4.000000, 4.000000, 4.000000
8.000000, 0.000000, 4205.641113, 4202.051270, 4216.922852, 4202.051270, 4188.717773, 4188.205078, 4187.692383, 4204.615234, 4174.358887, 4201.538574, 4199.487305, 4190.769043, 4201.538574, 4204.102539, 3521.000000, 8086.000000, 8086.000000, 0.000000, 0.000000, 0.000000, 23623.000000, 708.205139, 4.000000, 4.000000, 4.000000, 4.000000, 4.000000, 4.000000, 4.000000, 4.000000, 4.000000, 4.000000, 4.000000, 4.000000, 4.000000, 4.000000, 4.000000, 4.000000
9.000000, 0.000000, 4204.615234, 4202.563965, 4216.922852, 4199.487305, 4184.615234, 4188.717773, 4188.717773, 4202.051270, 4166.666504, 4197.436035, 4191.794922, 4184.615234, 4195.384277, 4201.025391, 3539.000000, 8094.000000, 8082.000000, 0.000000, 0.000000, 0.000000, 23623.000000, 716.410217, 4.000000, 4.000000, 4.000000, 4.000000, 4.000000, 4.000000, 4.000000, 4.000000, 4.000000, 4.000000, 4.000000, 4.000000, 4.000000, 4.000000, 4.000000, 4.000000
10.000000, 0.000000, 4206.153809, 4201.025391, 4212.820313, 4196.410156, 4181.538574, 4183.076660, 4185.127930, 4202.051270, 4167.692383, 4197.948730, 4187.179199, 4183.076660, 4198.974121, 4199.487305, 2502.000000, 8094.000000, 8082.000000, 0.000000, 0.000000, 0.000000, 23623.000000, 724.615356, 4.000000, 4.000000, 4.000000, 4.000000, 4.000000, 4.000000, 4.000000, 4.000000, 4.000000, 4.000000, 4.000000, 4.000000, 4.000000, 4.000000, 4.000000, 4.000000
11.000000, 0.000000, 4206.153809, 4203.076660, 4213.846191, 4197.436035, 4194.358887, 4189.230469, 4183.076660, 4200.512695, 4170.256348, 4199.487305, 4197.948730, 4191.281738, 4205.641113, 4206.666504, 2999.000000, 8112.000000, 8070.000000, 0.000000, 0.000000, 0.000000, 23623.000000, 732.307678, 4.000000, 4.000000, 4.000000, 4.000000, 4.000000, 4.000000, 4.000000, 4.000000, 4.000000, 4.000000, 4.000000, 4.000000, 4.000000, 4.000000, 4.000000, 4.000000
12.000000, 0.000000, 4204.615234, 4205.127930, 4217.436035, 4202.051270, 4205.641113, 4201.538574, 4186.666504, 4200.512695, 4169.230469, 4200.512695, 4203.589844, 4194.358887, 4202.051270, 4209.230469, 3496.000000, 8112.000000, 8070.000000, 0.000000, 0.000000, 0.000000, 23623.000000, 740.512817, 4.000000, 4.000000, 4.000000, 4.000000, 4.000000, 4.000000, 4.000000, 4.000000, 4.000000, 4.000000, 4.000000, 4.000000, 4.000000, 4.000000, 4.000000, 4.000000
13.000000, 0.000000, 4205.127930, 4201.538574, 4217.436035, 4202.563965, 4200.000000, 4205.641113, 4194.871582, 4206.666504, 4173.333008, 4200.000000, 4190.256348, 4186.153809, 4194.358887, 4200.512695, 3528.000000, 8123.000000, 8065.000000, 0.000000, 0.000000, 0.000000, 23623.000000, 748.205139, 4.000000, 4.000000, 4.000000, 4.000000, 4.000000, 4.000000, 4.000000, 4.000000, 4.000000, 4.000000, 4.000000, 4.000000, 4.000000, 4.000000, 4.000000, 4.000000
14.000000, 0.000000, 4203.589844, 4197.436035, 4217.436035, 4194.871582, 4198.461426, 4207.692383, 4201.538574, 4207.692383, 4184.615234, 4200.000000, 4188.205078, 4188.717773, 4197.436035, 4198.974121, 2502.000000, 8123.000000, 8065.000000, 0.000000, 0.000000, 0.000000, 23623.000000, 756.410217, 4.000000, 4.000000, 4.000000, 4.000000, 4.000000, 4.000000, 4.000000, 4.000000, 4.000000, 4.000000, 4.000000, 4.000000, 4.000000, 4.000000, 4.000000, 4.000000
15.000000, 0.000000, 4205.127930, 4195.897461, 4212.307617, 4186.666504, 4198.974121, 4208.205078, 4204.102539, 4202.563965, 4192.307617, 4204.102539, 4198.461426, 4200.512695, 4203.589844, 4206.153809, 2999.000000, 8134.000000, 8064.000000, 0.000000, 0.000000, 0.000000, 23623.000000, 764.102539, 4.000000, 4.000000, 4.000000, 4.000000, 4.000000, 4.000000, 4.000000, 4.000000, 4.000000, 4.000000, 4.000000, 4.000000, 4.000000, 4.000000, 4.000000, 4.000000
16.000000, 0.000000, 4205.641113, 4194.358887, 4207.179199, 4182.563965, 4187.692383, 4200.000000, 4200.000000, 4200.512695, 4188.205078, 4204.615234, 4196.410156, 4197.436035, 4199.487305, 4206.153809, 0.000000, 8134.000000, 8064.000000, 0.000000, 0.000000, 0.000000, 23623.000000, 772.307678, 4.000000, 4.000000, 4.000000, 4.000000, 4.000000, 4.000000, 4.000000, 4.000000, 4.000000, 4.000000, 4.000000, 4.000000, 4.000000, 4.000000, 4.000000, 4.000000
17.000000, 0.000000, 4204.102539, 4197.948730, 4212.820313, 4188.205078, 4189.230469, 4188.205078, 4191.794922, 4202.051270, 4184.615234, 4203.589844, 4192.307617, 4190.256348, 4200.000000, 4201.025391, 0.000000, 8150.000000, 8055.000000, 0.000000, 0.000000, 0.000000, 23623.000000, 780.512817, 4.000000, 4.000000, 4.000000, 4.000000, 4.000000, 4.000000, 4.000000, 4.000000, 4.000000, 4.000000, 4.000000, 4.000000, 4.000000, 4.000000, 4.000000, 4.000000
18.000000, 0.000000, 4205.641113, 4201.538574, 4216.410156, 4193.333008, 4203.589844, 4187.179199, 4183.589844, 4202.563965, 4182.563965, 4204.102539, 4194.358887, 4186.153809, 4205.641113, 4202.563965, 0.000000, 8150.000000, 8055.000000, 0.000000, 0.000000, 0.000000, 23623.000000, 788.205139, 4.000000, 4.000000, 4.000000, 4.000000, 4.000000, 4.000000, 4.000000, 4.000000, 4.000000, 4.000000, 4.000000, 4.000000, 4.000000, 4.000000, 4.000000, 4.000000
19.000000, 0.000000, 4201.538574, 4193.333008, 4207.692383, 4187.692383, 4203.076660, 4194.358887, 4186.153809, 4202.563965, 4175.384277, 4197.948730, 4188.717773, 4175.384277, 4201.025391, 4202.051270, 0.000000, 8164.000000, 8055.000000, 0.000000, 0.000000, 0.000000, 23623.000000, 796.410217, 4.000000, 4.000000, 4.000000, 4.000000, 4.000000, 4.000000, 4.000000, 4.000000, 4.000000, 4.000000, 4.000000, 4.000000, 4.000000, 4.000000, 4.000000, 4.000000
20.000000, 0.000000, 4198.461426, 4185.127930, 4195.897461, 4177.436035, 4195.384277, 4196.922852, 4197.436035, 4202.563965, 4168.205078, 4191.794922, 4177.436035, 4165.127930, 4193.333008, 4193.333008, 0.000000, 8164.000000, 8055.000000, 0.000000, 0.000000, 0.000000, 23623.000000, 804.102539, 4.000000, 4.000000, 4.000000, 4.000000, 4.000000, 4.000000, 4.000000, 4.000000, 4.000000, 4.000000, 4.000000, 4.000000, 4.000000, 4.000000, 4.000000, 4.000000
21.000000, 0.000000, 4201.538574, 4184.615234, 4186.153809, 4173.333008, 4196.410156, 4193.846191, 4200.512695, 4201.538574, 4170.769043, 4193.333008, 4176.922852, 4163.076660, 4196.410156, 4188.717773, 0.000000, 8177.000000, 8053.000000, 0.000000, 0.000000, 0.000000, 23623.000000, 812.307678, 4.000000, 4.000000, 4.000000, 4.000000, 4.000000, 4.000000, 4.000000, 4.000000, 4.000000, 4.000000, 4.000000, 4.000000, 4.000000, 4.000000, 4.000000, 4.000000
22.000000, 0.000000, 4202.563965, 4187.179199, 4185.641113, 4178.974121, 4199.487305, 4196.410156, 4199.487305, 4202.051270, 4179.487305, 4197.436035, 4182.563965, 4170.769043, 4201.538574, 4195.384277, 0.000000, 8177.000000, 8053.000000, 0.000000, 0.000000, 0.000000, 23623.000000, 820.000000, 4.000000, 4.000000, 4.000000, 4.000000, 4.000000, 4.000000, 4.000000, 4.000000, 4.000000, 4.000000, 4.000000, 4.000000, 4.000000, 4.000000, 4.000000, 4.000000
23.000000, 0.000000, 4204.615234, 4194.358887, 4198.461426, 4186.666504, 4203.076660, 4201.538574, 4202.563965, 4202.563965, 4185.641113, 4199.487305, 4188.717773, 4183.589844, 4203.076660, 4203.076660, 0.000000, 8186.000000, 8052.000000, 0.000000, 0.000000, 0.000000, 23623.000000, 828.205078, 4.000000, 4.000000, 4.000000, 4.000000, 4.000000, 4.000000, 4.000000, 4.000000, 4.000000, 4.000000, 4.000000, 4.000000, 4.000000, 4.000000, 4.000000, 4.000000
24.000000, 0.000000, 4202.563965, 4198.974121, 4207.179199, 4187.692383, 4202.563965, 4198.461426, 4200.000000, 4202.563965, 4189.230469, 4201.538574, 4191.281738, 4189.743652, 4203.076660, 4204.102539, 0.000000, 8186.000000, 8052.000000, 0.000000, 0.000000, 0.000000, 23623.000000, 835.897400, 4.000000, 4.000000, 4.000000, 4.000000, 4.000000, 4.000000, 4.000000, 4.000000, 4.000000, 4.000000, 4.000000, 4.000000, 4.000000, 4.000000, 4.000000, 4.000000
25.000000, 0.000000, 4201.025391, 4192.307617, 4203.589844, 4184.102539, 4195.384277, 4195.384277, 4190.256348, 4203.589844, 4186.153809, 4200.512695, 4189.230469, 4183.589844, 4200.512695, 4201.025391, 0.000000, 8195.000000, 8043.000000, 0.000000, 0.000000, 0.000000, 23623.000000, 844.102539, 4.000000, 4.000000, 4.000000, 4.000000, 4.000000, 4.000000, 4.000000, 4.000000, 4.000000, 4.000000, 4.000000, 4.000000, 4.000000, 4.000000, 4.000000, 4.000000
26.000000, 0.000000, 4203.589844, 4186.666504, 4202.563965, 4185.641113, 4196.922852, 4198.974121, 4185.127930, 4203.589844, 4181.538574, 4198.974121, 4194.871582, 4183.076660, 4200.512695, 4201.538574, 0.000000, 8195.000000, 8043.000000, 0.000000, 0.000000, 0.000000, 23623.000000, 852.307678, 4.000000, 4.000000, 4.000000, 4.000000, 4.000000, 4.000000, 4.000000, 4.000000, 4.000000, 4.000000, 4.000000, 4.000000, 4.000000, 4.000000, 4.000000, 4.000000
27.000000, 0.000000, 4202.051270, 4188.205078, 4201.025391, 4183.076660, 4197.436035, 4198.974121, 4184.615234, 4202.563965, 4183.589844, 4200.512695, 4197.436035, 4186.666504, 4201.025391, 4202.563965, 0.000000, 8197.000000, 8041.000000, 0.000000, 0.000000, 0.000000, 23623.000000, 860.000000, 4.000000, 4.000000, 4.000000, 4.000000, 4.000000, 4.000000, 4.000000, 4.000000, 4.000000, 4.000000, 4.000000, 4.000000, 4.000000, 4.000000, 4.000000, 4.000000
28.000000, 0.000000, 4201.025391, 4188.717773, 4193.846191, 4173.846191, 4186.666504, 4195.897461, 4184.102539, 4203.076660, 4186.666504, 4200.512695, 4190.256348, 4183.589844, 4199.487305, 4200.512695, 0.000000, 8197.000000, 8041.000000, 0.000000, 0.000000, 0.000000, 23623.000000, 868.205078, 4.000000, 4.000000, 4.000000, 4.000000, 4.000000, 4.000000, 4.000000, 4.000000, 4.000000, 4.000000, 4.000000, 4.000000, 4.000000, 4.000000, 4.000000, 4.000000
29.000000, 0.000000, 4198.461426, 4186.153809, 4186.153809, 4172.307617, 4187.179199, 4198.974121, 4186.153809, 4203.589844, 4187.179199, 4202.051270, 4187.692383, 4184.102539, 4197.948730, 4198.461426, 0.000000, 8201.000000, 8042.000000, 0.000000, 0.000000, 0.000000, 23623.000000, 875.897400, 4.000000, 4.000000, 4.000000, 4.000000, 4.000000, 4.000000, 4.000000, 4.000000, 4.000000, 4.000000, 4.000000, 4.000000, 4.000000, 4.000000, 4.000000, 4.000000
30.000000, 0.000000, 4199.487305, 4183.589844, 4184.102539, 4173.846191, 4198.974121, 4205.127930, 4187.692383, 4203.076660, 4186.666504, 4201.025391, 4187.179199, 4182.051270, 4192.820313, 4196.922852, 0.000000, 8201.000000, 8042.000000, 0.000000, 0.000000, 0.000000, 23623.000000, 884.102539, 4.000000, 4.000000, 4.000000, 4.000000, 4.000000, 4.000000, 4.000000, 4.000000, 4.000000, 4.000000, 4.000000, 4.000000, 4.000000, 4.000000, 4.000000, 4.000000
31.000000, 0.000000, 4201.538574, 4183.589844, 4191.794922, 4173.333008, 4202.563965, 4207.692383, 4192.307617, 4203.076660, 4184.615234, 4194.358887, 4182.563965, 4173.333008, 4186.666504, 4196.410156, 0.000000, 8204.000000, 8050.000000, 0.000000, 0.000000, 0.000000, 23623.000000, 891.794861, 4.000000, 4.000000, 4.000000, 4.000000, 4.000000, 4.000000, 4.000000, 4.000000, 4.000000, 4.000000, 4.000000, 4.000000, 4.000000, 4.000000, 4.000000, 4.000000
32.000000, 0.000000, 4198.974121, 4186.153809, 4201.538574, 4177.948730, 4198.974121, 4210.256348, 4199.487305, 4204.102539, 4183.076660, 4195.384277, 4182.563965, 4177.436035, 4187.692383, 4198.974121, 0.000000, 8204.000000, 8050.000000, 0.000000, 0.000000, 0.000000, 23623.000000, 900.000000, 4.000000, 4.000000, 4.000000, 4.000000, 4.000000, 4.000000, 4.000000, 4.000000, 4.000000, 4.000000, 4.000000, 4.000000, 4.000000, 4.000000, 4.000000, 4.000000
33.000000, 0.000000, 4196.922852, 4187.692383, 4200.512695, 4181.025391, 4198.974121, 4210.769043, 4199.487305, 4203.076660, 4185.127930, 4200.000000, 4185.127930, 4183.589844, 4188.205078, 4201.538574, 0.000000, 8206.000000, 8057.000000, 0.000000, 0.000000, 0.000000, 23623.000000, 907.692261, 4.000000, 4.000000, 4.000000, 4.000000, 4.000000, 4.000000, 4.000000, 4.000000, 4.000000, 4.000000, 4.000000, 4.000000, 4.000000, 4.000000, 4.000000, 4.000000
34.000000, 0.000000, 4193.333008, 4181.025391, 4190.769043, 4173.333008, 4198.974121, 4206.153809, 4192.820313, 4200.512695, 4184.615234, 4196.410156, 4181.025391, 4173.846191, 4182.563965, 4198.461426, 0.000000, 8206.000000, 8057.000000, 0.000000, 0.000000, 0.000000, 23623.000000, 915.897400, 4.000000, 4.000000, 4.000000, 4.000000, 4.000000, 4.000000, 4.000000, 4.000000, 4.000000, 4.000000, 4.000000, 4.000000, 4.000000, 4.000000, 4.000000, 4.000000
35.000000, 0.000000, 4194.358887, 4177.436035, 4185.641113, 4168.717773, 4197.948730, 4203.589844, 4189.230469, 4200.512695, 4179.487305, 4195.384277, 4177.948730, 4166.153809, 4180.512695, 4195.384277, 0.000000, 8209.000000, 8074.000000, 0.000000, 0.000000, 0.000000, 23623.000000, 924.102539, 4.000000, 4.000000, 4.000000, 4.000000, 4.000000, 4.000000, 4.000000, 4.000000, 4.000000, 4.000000, 4.000000, 4.000000, 4.000000, 4.000000, 4.000000, 4.000000
36.000000, 0.000000, 4200.512695, 4184.102539, 4189.743652, 4176.410156, 4199.487305, 4204.615234, 4190.256348, 4201.538574, 4178.461426, 4198.461426, 4178.461426, 4171.281738, 4183.589844, 4200.000000, 0.000000, 8209.000000, 8074.000000, 0.000000, 0.000000, 0.000000, 23623.000000, 931.794861, 4.000000, 4.000000, 4.000000, 4.000000, 4.000000, 4.000000, 4.000000, 4.000000, 4.000000, 4.000000, 4.000000, 4.000000, 4.000000, 4.000000, 4.000000, 4.000000
37.000000, 0.000000, 4198.974121, 4183.076660, 4191.281738, 4177.948730, 4195.384277, 4201.025391, 4187.179199, 4201.538574, 4175.897461, 4190.769043, 4174.358887, 4165.127930, 4181.538574, 4197.948730, 0.000000, 8215.000000, 8080.000000, 0.000000, 0.000000, 0.000000, 23623.000000, 940.000000, 4.000000, 4.000000, 4.000000, 4.000000, 4.000000, 4.000000, 4.000000, 4.000000, 4.000000, 4.000000, 4.000000, 4.000000, 4.000000, 4.000000, 4.000000, 4.000000
38.000000, 0.000000, 4196.922852, 4176.410156, 4192.307617, 4175.897461, 4192.307617, 4206.153809, 4188.205078, 4201.538574, 4171.794922, 4181.025391, 4170.256348, 4157.436035, 4178.974121, 4186.153809, 0.000000, 8215.000000, 8080.000000, 0.000000, 0.000000, 0.000000, 23623.000000, 947.692261, 4.000000, 4.000000, 4.000000, 4.000000, 4.000000, 4.000000, 4.000000, 4.000000, 4.000000, 4.000000, 4.000000, 4.000000, 4.000000, 4.000000, 4.000000, 4.000000
39.000000, 0.000000, 4198.974121, 4180.000000, 4197.948730, 4182.563965, 4196.922852, 4213.333008, 4192.307617, 4200.000000, 4175.384277, 4184.615234, 4171.281738, 4166.666504, 4181.538574, 4186.666504, 0.000000, 8216.000000, 8092.000000, 0.000000, 0.000000, 0.000000, 23623.000000, 955.384583, 4.000000, 4.000000, 4.000000, 4.000000, 4.000000, 4.000000, 4.000000, 4.000000, 4.000000, 4.000000, 4.000000, 4.000000, 4.000000, 4.000000, 4.000000, 4.000000
40.000000, 0.000000, 4200.512695, 4186.153809, 4202.051270, 4186.153809, 4201.538574, 4206.666504, 4191.281738, 4200.512695, 4182.563965, 4187.692383, 4171.281738, 4171.794922, 4184.615234, 4194.871582, 0.000000, 8216.000000, 8092.000000, 0.000000, 0.000000, 0.000000, 23623.000000, 963.589722, 4.000000, 4.000000, 4.000000, 4.000000, 4.000000, 4.000000, 4.000000, 4.000000, 4.000000, 4.000000, 4.000000, 4.000000, 4.000000, 4.000000, 4.000000, 4.000000
41.000000, 0.000000, 4198.461426, 4182.051270, 4201.025391, 4177.948730, 4197.436035, 4202.051270, 4191.794922, 4201.538574, 4184.102539, 4184.102539, 4170.769043, 4168.717773, 4184.102539, 4194.871582, 0.000000, 8223.000000, 8110.000000, 0.000000, 0.000000, 0.000000, 23623.000000, 971.794861, 4.000000, 4.000000, 4.000000, 4.000000, 4.000000, 4.000000, 4.000000, 4.000000, 4.000000, 4.000000, 4.000000, 4.000000, 4.000000, 4.000000, 4.000000, 4.000000
42.000000, 0.000000, 4196.922852, 4179.487305, 4195.384277, 4171.281738, 4192.820313, 4206.153809, 4196.922852, 4200.512695, 4183.076660, 4182.051270, 4174.358887, 4167.692383, 4182.051270, 4192.307617, 0.000000, 8223.000000, 8110.000000, 0.000000, 0.000000, 0.000000, 23623.000000, 979.487183, 4.000000, 4.000000, 4.000000, 4.000000, 4.000000, 4.000000, 4.000000, 4.000000, 4.000000, 4.000000, 4.000000, 4.000000, 4.000000, 4.000000, 4.000000, 4.000000
43.000000, 0.000000, 4202.051270, 4185.127930, 4193.846191, 4176.410156, 4200.512695, 4210.256348, 4200.000000, 4203.589844, 4187.179199, 4188.717773, 4184.102539, 4175.384277, 4186.666504, 4203.076660, 0.000000, 8227.000000, 8117.000000, 0.000000, 0.000000, 0.000000, 23623.000000, 987.179443, 4.000000, 4.000000, 4.000000, 4.000000, 4.000000, 4.000000, 4.000000, 4.000000, 4.000000, 4.000000, 4.000000, 4.000000, 4.000000, 4.000000, 4.000000, 4.000000
44.000000, 0.000000, 4200.000000, 4188.205078, 4197.436035, 4183.589844, 4204.102539, 4210.769043, 4198.461426, 4206.153809, 4195.384277, 4193.333008, 4189.230469, 4184.102539, 4192.820313, 4210.769043, 0.000000, 8227.000000, 8117.000000, 0.000000, 0.000000, 0.000000, 23623.000000, 995.384583, 4.000000, 4.000000, 4.000000, 4.000000, 4.000000, 4.000000, 4.000000, 4.000000, 4.000000, 4.000000, 4.000000, 4.000000, 4.000000, 4.000000, 4.000000, 4.000000
45.000000, 0.000000, 4198.461426, 4187.179199, 4202.563965, 4184.615234, 4201.538574, 4214.358887, 4202.051270, 4204.102539, 4200.512695, 4193.333008, 4186.666504, 4185.127930, 4189.743652, 4205.127930, 0.000000, 8226.000000, 8139.000000, 0.000000, 0.000000, 0.000000, 23624.000000, 3.076923, 4.000000, 4.000000, 4.000000, 4.000000, 4.000000, 4.000000, 4.000000, 4.000000, 4.000000, 4.000000, 4.000000, 4.000000, 4.000000, 4.000000, 4.000000, 4.000000
46.000000, 0.000000, 4201.538574, 4191.794922, 4211.281738, 4184.615234, 4208.205078, 4218.461426, 4205.641113, 4206.153809, 4202.051270, 4198.974121, 4193.846191, 4187.179199, 4191.281738, 4204.615234, 0.000000, 8226.000000, 8139.000000, 0.000000, 0.000000, 0.000000, 23624.000000, 11.282051, 4.000000, 4.000000, 4.000000, 4.000000, 4.000000, 4.000000, 4.000000, 4.000000, 4.000000, 4.000000, 4.000000, 4.000000, 4.000000, 4.000000, 4.000000, 4.000000
47.000000, 0.000000, 4197.948730, 4195.897461, 4214.358887, 4185.641113, 4214.358887, 4217.948730, 4203.589844, 4205.127930, 4203.076660, 4204.102539, 4202.051270, 4192.820313, 4197.436035, 4208.717773, 0.000000, 8231.000000, 8147.000000, 0.000000, 0.000000, 0.000000, 23624.000000, 18.974358, 4.000000, 4.000000, 4.000000, 4.000000, 4.000000, 4.000000, 4.000000, 4.000000, 4.000000, 4.000000, 4.000000, 4.000000, 4.000000, 4.000000, 4.000000, 4.000000
48.000000, 0.000000, 4194.871582, 4191.794922, 4206.666504, 4185.127930, 4206.666504, 4216.410156, 4202.051270, 4202.051270, 4202.563965, 4202.563965, 4192.820313, 4190.769043, 4192.307617, 4203.589844, 0.000000, 8231.000000, 8147.000000, 0.000000, 0.000000, 0.000000, 23624.000000, 27.179487, 4.000000, 4.000000, 4.000000, 4.000000, 4.000000, 4.000000, 4.000000, 4.000000, 4.000000, 4.000000, 4.000000, 4.000000, 4.000000, 4.000000, 4.000000, 4.000000
49.000000, 0.000000, 4194.871582, 4187.692383, 4201.538574, 4184.615234, 4200.512695, 4215.897461, 4202.051270, 4205.641113, 4202.051270, 4196.922852, 4183.589844, 4183.589844, 4183.076660, 4196.410156, 0.000000, 8233.000000, 8154.000000, 0.000000, 0.000000, 0.000000, 23624.000000, 34.871796, 4.000000, 4.000000, 4.000000, 4.000000, 4.000000, 4.000000, 4.000000, 4.000000, 4.000000, 4.000000, 4.000000, 4.000000, 4.000000, 4.000000, 4.000000, 4.000000
50.000000, 0.000000, 4195.384277, 4189.743652, 4204.102539, 4185.127930, 4207.179199, 4213.846191, 4202.051270, 4207.179199, 4198.461426, 4190.256348, 4187.179199, 4184.615234, 4185.127930, 4197.948730, 0.000000, 8233.000000, 8154.000000, 0.000000, 0.000000, 0.000000, 23624.000000, 42.564102, 4.000000, 4.000000, 4.000000, 4.000000, 4.000000, 4.000000, 4.000000, 4.000000, 4.000000, 4.000000, 4.000000, 4.000000, 4.000000, 4.000000, 4.000000, 4.000000
51.000000, 0.000000, 4194.871582, 4187.179199, 4201.538574, 4183.076660, 4201.538574, 4205.641113, 4200.000000, 4202.051270, 4189.230469, 4185.127930, 4190.256348, 4187.179199, 4190.256348, 4198.461426, 0.000000, 8245.000000, 8164.000000, 0.000000, 0.000000, 0.000000, 23624.000000, 50.769230, 4.000000, 4.000000, 4.000000, 4.000000, 4.000000, 4.000000, 4.000000, 4.000000, 4.000000, 4.000000, 4.000000, 4.000000, 4.000000, 4.000000, 4.000000, 4.000000
52.000000, 0.000000, 4192.820313, 4184.102539, 4200.000000, 4180.512695, 4186.153809, 4201.025391, 4194.871582, 4200.512695, 4183.589844, 4184.615234, 4186.666504, 4183.589844, 4187.692383, 4195.384277, 0.000000, 8245.000000, 8164.000000, 0.000000, 0.000000, 0.000000, 23624.000000, 58.974358, 4.000000, 4.000000, 4.000000, 4.000000, 4.000000, 4.000000, 4.000000, 4.000000, 4.000000, 4.000000, 4.000000, 4.000000, 4.000000, 4.000000, 4.000000, 4.000000
53.000000, 0.000000, 4197.436035, 4188.717773, 4202.051270, 4181.538574, 4190.256348, 4201.025391, 4191.794922, 4203.076660, 4183.589844, 4184.102539, 4184.102539, 4181.538574, 4190.256348, 4197.948730, 0.000000, 8253.000000, 8167.000000, 0.000000, 0.000000, 0.000000, 23624.000000, 66.666664, 4.000000, 4.000000, 4.000000, 4.000000, 4.000000, 4.000000, 4.000000, 4.000000, 4.000000, 4.000000, 4.000000, 4.000000, 4.000000, 4.000000, 4.000000, 4.000000
54.000000, 0.000000, 4202.563965, 4194.871582, 4203.076660, 4185.641113, 4203.076660, 4194.871582, 4190.769043, 4202.563965, 4186.666504, 4185.641113, 4189.743652, 4190.769043, 4197.948730, 4201.025391, 0.000000, 8253.000000, 8167.000000, 0.000000, 0.000000, 0.000000, 23624.000000, 74.358971, 4.000000, 4.000000, 4.000000, 4.000000, 4.000000, 4.000000, 4.000000, 4.000000, 4.000000, 4.000000, 4.000000, 4.000000, 4.000000, 4.000000, 4.000000, 4.000000
55.000000, 0.000000, 4200.512695, 4195.897461, 4209.230469, 4186.666504, 4201.538574, 4192.307617, 4192.307617, 4203.076660, 4190.256348, 4188.717773, 4200.000000, 4198.461426, 4197.948730, 4202.051270, 0.000000, 8263.000000, 8170.000000, 0.000000, 0.000000, 0.000000, 23624.000000, 82.564102, 4.000000, 4.000000, 4.000000, 4.000000, 4.000000, 4.000000, 4.000000, 4.000000, 4.000000, 4.000000, 4.000000, 4.000000, 4.000000, 4.000000, 4.000000, 4.000000
56.000000, 0.000000, 4200.000000, 4193.333008, 4213.846191, 4183.076660, 4197.948730, 4196.410156, 4194.871582, 4203.076660, 4186.666504, 4185.127930, 4196.410156, 4192.820313, 4193.333008, 4201.025391, 0.000000, 8263.000000, 8170.000000, 0.000000, 0.000000, 0.000000, 23624.000000, 90.256409, 4.000000, 4.000000, 4.000000, 4.000000, 4.000000, 4.000000, 4.000000, 4.000000, 4.000000, 4.000000, 4.000000, 4.000000, 4.000000, 4.000000, 4.000000, 4.000000
57.000000, 0.000000, 4201.538574, 4199.487305, 4214.871582, 4187.179199, 4201.538574, 4197.436035, 4191.794922, 4200.512695, 4182.563965, 4184.102539, 4187.692383, 4190.769043, 4196.410156, 4198.974121, 0.000000, 8267.000000, 8169.000000, 0.000000, 0.000000, 0.000000, 23624.000000, 98.461533, 4.000000, 4.000000, 4.000000, 4.000000, 4.000000, 4.000000, 4.000000, 4.000000, 4.000000, 4.000000, 4.000000, 4.000000, 4.000000, 4.000000, 4.000000, 4.000000
58.000000, 0.000000, 4201.025391, 4207.692383, 4218.461426, 4197.948730, 4202.051270, 4198.461426, 4191.281738, 4202.563965, 4191.794922, 4193.333008, 4194.871582, 4198.974121, 4201.538574, 4202.051270, 0.000000, 8267.000000, 8169.000000, 0.000000, 0.000000, 0.000000, 23624.000000, 106.153847, 4.000000, 4.000000, 4.000000, 4.000000, 4.000000, 4.000000, 4.000000, 4.000000, 4.000000, 4.000000, 4.000000, 4.000000, 4.000000, 4.000000, 4.000000, 4.000000
59.000000, 0.000000, 4200.000000, 4206.153809, 4218.974121, 4201.025391, 4207.179199, 4203.589844, 4199.487305, 4206.666504, 4201.025391, 4200.000000, 4201.538574, 4202.563965, 4198.974121, 4207.692383, 0.000000, 8271.000000, 8181.000000, 0.000000, 0.000000, 0.000000, 23624.000000, 114.358971, 4.000000, 4.000000, 4.000000, 4.000000, 4.000000, 4.000000, 4.000000, 4.000000, 4.000000, 4.000000, 4.000000, 4.000000, 4.000000, 4.000000, 4.000000, 4.000000
60.000000, 0.000000, 4201.025391, 4210.256348, 4220.000000, 4199.487305, 4215.897461, 4205.127930, 4205.127930, 4206.153809, 4200.512695, 4202.051270, 4201.025391, 4201.538574, 4199.487305, 4210.769043, 0.000000, 8271.000000, 8181.000000, 0.000000, 0.000000, 0.000000, 23624.000000, 122.051277, 4.000000, 4.000000, 4.000000, 4.000000, 4.000000, 4.000000, 4.000000, 4.000000, 4.000000, 4.000000, 4.000000, 4.000000, 4.000000, 4.000000, 4.000000, 4.000000
61.000000, 0.000000, 4204.102539, 4215.897461, 4224.615234, 4202.563965, 4208.717773, 4202.051270, 4201.025391, 4203.589844, 4201.538574, 4204.615234, 4204.102539, 4205.641113, 4204.102539, 4209.230469, 0.000000, 8271.000000, 8179.000000, 0.000000, 0.000000, 0.000000, 23624.000000, 130.256409, 4.000000, 4.000000, 4.000000, 4.000000, 4.000000, 4.000000, 4.000000, 4.000000, 4.000000, 4.000000, 4.000000, 4.000000, 4.000000, 4.000000, 4.000000, 4.000000
62.000000, 0.000000, 4199.487305, 4207.179199, 4221.538574, 4201.025391, 4197.948730, 4201.025391, 4196.922852, 4203.076660, 4204.102539, 4204.102539, 4205.127930, 4204.615234, 4203.076660, 4205.127930, 0.000000, 8271.000000, 8179.000000, 0.000000, 0.000000, 0.000000, 23624.000000, 137.948715, 4.000000, 4.000000, 4.000000, 4.000000, 4.000000, 4.000000, 4.000000, 4.000000, 4.000000, 4.000000, 4.000000, 4.000000, 4.000000, 4.000000, 4.000000, 4.000000
63.000000, 0.000000, 4195.384277, 4198.974121, 4214.871582, 4190.769043, 4200.000000, 4202.051270, 4200.000000, 4203.076660, 4200.000000, 4201.025391, 4202.563965, 4198.974121, 4201.538574, 4201.538574, 0.000000, 8272.000000, 8178.000000, 0.000000, 0.000000, 0.000000, 23624.000000, 145.641022, 4.000000, 4.000000, 4.000000, 4.000000, 4.000000, 4.000000, 4.000000, 4.000000, 4.000000, 4.000000, 4.000000, 4.000000, 4.000000, 4.000000, 4.000000, 4.000000
64.000000, 0.000000, 4197.948730, 4201.538574, 4214.358887, 4187.179199, 4204.615234, 4202.051270, 4200.000000, 4203.076660, 4200.512695, 4199.487305, 4205.641113, 4198.461426, 4206.666504, 4202.051270, 3538.000000, 8272.000000, 8178.000000, 0.000000, 0.000000, 0.000000, 23624.000000, 153.846146, 4.000000, 4.000000, 4.000000, 4.000000, 4.000000, 4.000000, 4.000000, 4.000000, 4.000000, 4.000000, 4.000000, 4.000000, 4.000000, 4.000000, 4.000000, 4.000000
65.000000, 0.000000, 4197.948730, 4204.102539, 4213.333008, 4191.281738, 4201.025391, 4202.051270, 4197.436035, 4203.076660, 4199.487305, 4197.436035, 4211.794922, 4201.025391, 4210.769043, 4206.153809, 3535.000000, 8263.000000, 8174.000000, 0.000000, 0.000000, 0.000000, 23624.000000, 162.051285, 4.000000, 4.000000, 4.000000, 4.000000, 4.000000, 4.000000, 4.000000, 4.000000, 4.000000, 4.000000, 4.000000, 4.000000, 4.000000, 4.000000, 4.000000, 4.000000
66.000000, 0.000000, 4198.974121, 4206.666504, 4213.846191, 4193.333008, 4200.000000, 4200.000000, 4196.922852, 4202.051270, 4188.717773, 4199.487305, 4212.307617, 4204.615234, 4210.256348, 4207.692383, 1782.000000, 8263.000000, 8174.000000, 0.000000, 0.000000, 0.000000, 23624.000000, 169.743591, 4.000000, 4.000000, 4.000000, 4.000000, 4.000000, 4.000000, 4.000000, 4.000000, 4.000000, 4.000000, 4.000000, 4.000000, 4.000000, 4.000000, 4.000000, 4.000000
67.000000, 0.000000, 4197.436035, 4207.179199, 4213.333008, 4189.743652, 4201.538574, 4197.948730, 4193.846191, 4200.000000, 4185.127930, 4198.974121, 4205.641113, 4198.974121, 4204.615234, 4203.076660, 3564.000000, 8259.000000, 8170.000000, 0.000000, 0.000000, 0.000000, 23624.000000, 177.435898, 4.000000, 4.000000, 4.000000, 4.000000, 4.000000, 4.000000, 4.000000, 4.000000, 4.000000, 4.000000, 4.000000, 4.000000, 4.000000, 4.000000, 4.000000, 4.000000
68.000000, 0.000000, 4197.436035, 4201.538574, 4204.615234, 4187.692383, 4198.974121, 4198.461426, 4185.641113, 4202.051270, 4187.692383, 4192.307617, 4200.512695, 4189.743652, 4201.025391, 4199.487305, 3400.000000, 8259.000000, 8170.000000, 0.000000, 0.000000, 0.000000, 23624.000000, 185.641022, 4.000000, 4.000000, 4.000000, 4.000000, 4.000000, 4.000000, 4.000000, 4.000000, 4.000000, 4.000000, 4.000000, 4.000000, 4.000000, 4.000000, 4.000000, 4.000000
69.000000, 0.000000, 4198.974121, 4200.000000, 4201.025391, 4189.743652, 4198.461426, 4197.436035, 4186.666504, 4203.076660, 4188.205078, 4193.333008, 4207.179199, 4191.794922, 4207.692383, 4201.538574, 3575.000000, 8245.000000, 8167.000000, 0.000000, 0.000000, 0.000000, 23624.000000, 193.333328, 4.000000, 4.000000, 4.000000, 4.000000, 4.000000, 4.000000, 4.000000, 4.000000, 4.000000, 4.000000, 4.000000, 4.000000, 4.000000, 4.000000, 4.000000, 4.000000
70.000000, 0.000000, 4194.358887, 4203.076660, 4209.743652, 4194.358887, 4201.538574, 4200.000000, 4194.871582, 4201.025391, 4194.871582, 4201.538574, 4218.461426, 4197.948730, 4216.922852, 4203.589844, 2803.000000, 8245.000000, 8167.000000, 0.000000, 0.000000, 0.000000, 23624.000000, 201.538452, 4.000000, 4.000000, 4.000000, 4.000000, 4.000000, 4.000000, 4.000000, 4.000000, 4.000000, 4.000000, 4.000000, 4.000000, 4.000000, 4.000000, 4.000000, 4.000000
71.000000, 0.000000, 4194.871582, 4205.127930, 4210.256348, 4198.974121, 4202.563965, 4209.743652, 4199.487305, 4204.615234, 4203.076660, 4206.153809, 4222.563965, 4197.948730, 4218.974121, 4204.102539, 177.000000, 8241.000000, 8163.000000, 0.000000, 0.000000, 0.000000, 23624.000000, 209.230759, 4.000000, 4.000000, 4.000000, 4.000000, 4.000000, 4.000000, 4.000000, 2.000000, 4.000000, 4.000000, 4.000000, 4.000000, 4.000000, 4.000000, 4.000000, 4.000000
72.000000, 0.000000, 4198.461426, 4209.230469, 4202.563965, 4200.000000, 4204.102539, 4216.922852, 4196.922852, 4207.179199, 4203.589844, 4209.230469, 4221.538574, 4195.384277, 4217.436035, 4202.563965, 3522.000000, 8241.000000, 8163.000000, 0.000000, 0.000000, 0.000000, 23624.000000, 216.923065, 4.000000, 4.000000, 4.000000, 4.000000, 4.000000, 4.000000, 4.000000, 2.000000, 4.000000, 4.000000, 4.000000, 4.000000, 4.000000, 4.000000, 4.000000, 4.000000
73.000000, 0.000000, 4195.897461, 4206.153809, 4202.051270, 4194.871582, 4205.127930, 4211.794922, 4191.281738, 4204.102539, 4202.563965, 4209.230469, 4218.974121, 4191.794922, 4216.922852, 4197.948730, 3539.000000, 8233.000000, 8163.000000, 0.000000, 0.000000, 0.000000, 23624.000000, 225.128204, 4.000000, 4.000000, 4.000000, 4.000000, 4.000000, 4.000000, 4.000000, 2.000000, 4.000000, 4.000000, 4.000000, 4.000000, 4.000000, 4.000000, 4.000000, 4.000000
74.000000, 0.000000, 4192.307617, 4198.461426, 4203.076660, 4190.256348, 4195.384277, 4202.563965, 4190.769043, 4202.051270, 4197.436035, 4200.000000, 4208.717773, 4184.102539, 4213.333008, 4195.897461, 2502.000000, 8233.000000, 8163.000000, 0.000000, 0.000000, 0.000000, 23624.000000, 232.820511, 4.000000, 4.000000, 4.000000, 4.000000, 4.000000, 4.000000, 4.000000, 2.000000, 4.000000, 4.000000, 4.000000, 4.000000, 4.000000, 4.000000, 4.000000, 4.000000
75.000000, 0.000000, 4195.897461, 4204.615234, 4201.025391, 4193.846191, 4190.769043, 4204.102539, 4196.410156, 4201.025391, 4190.769043, 4195.897461, 4201.025391, 4178.974121, 4212.307617, 4195.897461, 2999.000000, 8221.000000, 8168.000000, 0.000000, 0.000000, 0.000000, 23624.000000, 241.025635, 4.000000, 4.000000, 4.000000, 4.000000, 4.000000, 4.000000, 4.000000, 2.000000, 4.000000, 4.000000, 4.000000, 4.000000, 4.000000, 4.000000, 4.000000, 4.000000
76.000000, 0.000000, 4202.563965, 4213.333008, 4207.179199, 4200.000000, 4202.051270, 4213.333008, 4198.974121, 4205.127930, 4193.846191, 4199.487305, 4207.179199, 4181.538574, 4216.922852, 4198.461426, 3498.000000, 8221.000000, 8168.000000, 0.000000, 0.000000, 0.000000, 23624.000000, 248.717941, 4.000000, 4.000000, 4.000000, 4.000000, 4.000000, 4.000000, 4.000000, 2.000000, 4.000000, 4.000000, 4.000000, 4.000000, 4.000000, 4.000000, 4.000000, 4.000000
77.000000, 0.000000, 4203.589844, 4213.846191, 4214.358887, 4201.538574, 4205.641113, 4212.307617, 4196.922852, 4208.717773, 4201.538574, 4202.051270, 4216.922852, 4189.743652, 4221.025391, 4207.179199, 3283.000000, 8215.000000, 8170.000000, 0.000000, 0.000000, 0.000000, 23624.000000, 256.923065, 4.000000, 4.000000, 4.000000, 4.000000, 4.000000, 4.000000, 4.000000, 2.000000, 4.000000, 4.000000, 4.000000, 4.000000, 4.000000, 4.000000, 4.000000, 4.000000
78.000000, 0.000000, 4207.692383, 4216.410156, 4219.487305, 4202.563965, 4201.025391, 4207.179199, 4198.461426, 4206.666504, 4205.127930, 4202.563965, 4221.025391, 4199.487305, 4225.641113, 4216.922852, 2502.000000, 8215.000000, 8170.000000, 0.000000, 0.000000, 0.000000, 23624.000000, 264.615387, 4.000000, 4.000000, 4.000000, 4.000000, 4.000000, 4.000000, 4.000000, 2.000000, 4.000000, 4.000000, 4.000000, 4.000000, 4.000000, 4.000000, 4.000000, 4.000000
79.000000, 0.000000, 4211.281738, 4220.512695, 4226.153809, 4204.615234, 4210.256348, 4214.871582, 4201.025391, 4207.179199, 4204.615234, 4203.076660, 4226.666504, 4201.538574, 4229.743652, 4217.436035, 2999.000000, 8207.000000, 8181.000000, 0.000000, 0.000000, 0.000000, 23624.000000, 272.307678, 4.000000, 4.000000, 4.000000, 4.000000, 4.000000, 4.000000, 4.000000, 2.000000, 4.000000, 4.000000, 4.000000, 4.000000, 4.000000, 4.000000, 4.000000, 4.000000
80.000000, 0.000000, 4207.692383, 4218.461426, 4224.615234, 4202.563965, 4215.384277, 4221.025391, 4202.563965, 4207.692383, 4208.205078, 4207.179199, 4231.794922, 4200.512695, 4230.256348, 4213.333008, 3498.000000, 8207.000000, 8181.000000, 0.000000, 0.000000, 0.000000, 23624.000000, 280.512817, 4.000000, 4.000000, 4.000000, 4.000000, 4.000000, 4.000000, 4.000000, 2.000000, 4.000000, 4.000000, 4.000000, 4.000000, 4.000000, 4.000000, 4.000000, 4.000000
81.000000, 0.000000, 4209.743652, 4220.000000, 4219.487305, 4201.538574, 4210.256348, 4215.897461, 4206.666504, 4205.127930, 4212.307617, 4212.820313, 4231.281738, 4206.666504, 4231.281738, 4215.384277, 3283.000000, 8207.000000, 8183.000000, 0.000000, 0.000000, 0.000000, 23624.000000, 288.205109, 4.000000, 4.000000, 4.000000, 4.000000, 4.000000, 4.000000, 4.000000, 2.000000, 4.000000, 4.000000, 4.000000, 4.000000, 4.000000, 4.000000, 4.000000, 4.000000
82.000000, 0.000000, 4211.281738, 4225.641113, 4225.641113, 4205.127930, 4211.794922, 4215.897461, 4209.230469, 4207.179199, 4209.230469, 4212.820313, 4231.281738, 4216.410156, 4232.307617, 4219.487305, 2502.000000, 8207.000000, 8183.000000, 0.000000, 0.000000, 0.000000, 23624.000000, 295.897430, 4.000000, 4.000000, 4.000000, 4.000000, 4.000000, 4.000000, 4.000000, 2.000000, 4.000000, 4.000000, 4.000000, 4.000000, 4.000000, 4.000000, 4.000000, 4.000000
83.000000, 0.000000, 4206.666504, 4222.051270, 4227.179199, 4204.102539, 4209.743652, 4219.487305, 4209.743652, 4209.743652, 4201.025391, 4206.153809, 4228.205078, 4212.820313, 4226.153809, 4213.333008, 2999.000000, 8206.000000, 8187.000000, 0.000000, 0.000000, 0.000000, 23624.000000, 304.102570, 4.000000, 4.000000, 4.000000, 4.000000, 4.000000, 4.000000, 4.000000, 2.000000, 4.000000, 4.000000, 4.000000, 4.000000, 4.000000, 4.000000, 4.000000, 4.000000
84.000000, 0.000000, 4208.205078, 4217.948730, 4215.384277, 4200.000000, 4200.000000, 4216.410156, 4208.717773, 4203.589844, 4199.487305, 4201.025391, 4218.974121, 4204.102539, 4224.615234, 4209.743652, 3498.000000, 8206.000000, 8187.000000, 0.000000, 0.000000, 0.000000, 23624.000000, 311.794861, 4.000000, 4.000000, 4.000000, 4.000000, 4.000000, 4.000000, 4.000000, 2.000000, 4.000000, 4.000000, 4.000000, 4.000000, 4.000000, 4.000000, 4.000000, 4.000000
85.000000, 0.000000, 4210.769043, 4221.538574, 4214.871582, 4201.538574, 4204.102539, 4213.846191, 4206.153809, 4197.948730, 4206.153809, 4206.666504, 4220.512695, 4210.256348, 4230.256348, 4214.358887, 3283.000000, 8198.000000, 8192.000000, 0.000000, 0.000000, 0.000000, 23624.000000, 320.000000, 4.000000, 4.000000, 4.000000, 4.000000, 4.000000, 4.000000, 4.000000, 2.000000, 4.000000, 4.000000, 4.000000, 4.000000, 4.000000, 4.000000, 4.000000, 4.000000
86.000000, 0.000000, 4208.717773, 4221.025391, 4216.922852, 4200.000000, 4215.897461, 4215.897461, 4210.769043, 4204.102539, 4213.333008, 4214.358887, 4229.230469, 4217.436035, 4230.256348, 4213.333008, 2502.000000, 8198.000000, 8192.000000, 0.000000, 0.000000, 0.000000, 23624.000000, 327.692291, 4.000000, 4.000000, 4.000000, 4.000000, 4.000000, 4.000000, 4.000000, 2.000000, 4.000000, 4.000000, 4.000000, 4.000000, 4.000000, 4.000000, 4.000000, 4.000000
87.000000, 0.000000, 4206.153809, 4214.871582, 4205.127930, 4191.281738, 4211.281738, 4220.000000, 4214.871582, 4208.717773, 4218.974121, 4215.897461, 4229.743652, 4208.205078, 4225.127930, 4205.127930, 2999.000000, 8196.000000, 8194.000000, 0.000000, 0.000000, 0.000000, 23624.000000, 335.384613, 4.000000, 4.000000, 4.000000, 4.000000, 4.000000, 4.000000, 4.000000, 2.000000, 4.000000, 4.000000, 4.000000, 4.000000, 4.000000, 4.000000, 4.000000, 4.000000
88.000000, 0.000000, 4205.127930, 4216.410156, 4197.948730, 4186.666504, 4198.461426, 4216.922852, 4208.717773, 4207.179199, 4215.897461, 4211.281738, 4222.563965, 4200.000000, 4223.589844, 4205.127930, 3498.000000, 8196.000000, 8194.000000, 0.000000, 0.000000, 0.000000, 23624.000000, 343.589722, 4.000000, 4.000000, 4.000000, 4.000000, 4.000000, 4.000000, 4.000000, 2.000000, 4.000000, 4.000000, 4.000000, 4.000000, 4.000000, 4.000000, 4.000000, 4.000000
89.000000, 0.000000, 4205.127930, 4213.333008, 4200.512695, 4185.641113, 4196.410156, 4206.666504, 4198.461426, 4202.051270, 4206.666504, 4203.589844, 4217.948730, 4201.538574, 4227.179199, 4204.615234, 3283.000000, 8184.000000, 8196.000000, 0.000000, 0.000000, 0.000000, 23624.000000, 351.794861, 4.000000, 4.000000, 4.000000, 4.000000, 4.000000, 4.000000, 4.000000, 2.000000, 4.000000, 4.000000, 4.000000, 4.000000, 4.000000, 4.000000, 4.000000, 4.000000
90.000000, 0.000000, 4204.615234, 4204.615234, 4199.487305, 4180.512695, 4202.051270, 4201.025391, 4193.846191, 4200.512695, 4198.461426, 4197.948730, 4213.333008, 4196.410156, 4226.666504, 4197.948730, 2502.000000, 8184.000000, 8196.000000, 0.000000, 0.000000, 0.000000, 23624.000000, 359.487183, 4.000000, 4.000000, 4.000000, 4.000000, 4.000000, 4.000000, 4.000000, 2.000000, 4.000000, 4.000000, 4.000000, 4.000000, 4.000000, 4.000000, 4.000000, 4.000000
91.000000, 0.000000, 4208.717773, 4209.743652, 4196.922852, 4181.025391, 4206.153809, 4206.153809, 4198.461426, 4204.102539, 4199.487305, 4203.076660, 4210.256348, 4187.692383, 4220.512695, 4204.102539, 2999.000000, 8186.000000, 8193.000000, 0.000000, 0.000000, 0.000000, 23624.000000, 367.179474, 4.000000, 4.000000, 4.000000, 4.000000, 4.000000, 4.000000, 4.000000, 2.000000, 4.000000, 4.000000, 4.000000, 4.000000, 4.000000, 4.000000, 4.000000, 4.000000
92.000000, 0.000000, 4209.743652, 4218.461426, 4196.922852, 4185.641113, 4203.076660, 4207.179199, 4200.512695, 4202.563965, 4200.512695, 4202.051270, 4211.281738, 4185.641113, 4217.436035, 4210.256348, 3498.000000, 8186.000000, 8193.000000, 0.000000, 0.000000, 0.000000, 23624.000000, 374.871796, 4.000000, 4.000000, 4.000000, 4.000000, 4.000000, 4.000000, 4.000000, 2.000000, 4.000000, 4.000000, 4.000000, 4.000000, 4.000000, 4.000000, 4.000000, 4.000000
93.000000, 0.000000, 4205.641113, 4214.871582, 4198.461426, 4183.589844, 4200.000000, 4199.487305, 4195.897461, 4202.051270, 4190.769043, 4190.769043, 4211.794922, 4190.256348, 4220.000000, 4202.051270, 3283.000000, 8180.000000, 8184.000000, 0.000000, 0.000000, 0.000000, 23624.000000, 383.076904, 4.000000, 4.000000, 4.000000, 4.000000, 4.000000, 4.000000, 4.000000, 2.000000, 4.000000, 4.000000, 4.000000, 4.000000, 4.000000, 4.000000, 4.000000, 4.000000
94.000000, 0.000000, 4208.717773, 4213.846191, 4209.230469, 4185.127930, 4200.512695, 4195.897461, 4190.769043, 4203.076660, 4182.563965, 4191.794922, 4214.871582, 4198.461426, 4221.025391, 4204.615234, 2502.000000, 8180.000000, 8184.000000, 0.000000, 0.000000, 0.000000, 23624.000000, 390.769226, 4.000000, 4.000000, 4.000000, 4.000000, 4.000000, 4.000000, 4.000000, 2.000000, 4.000000, 4.000000, 4.000000, 4.000000, 4.000000, 4.000000, 4.000000, 4.000000
95.000000, 0.000000, 4208.205078, 4220.512695, 4220.512695, 4193.846191, 4201.538574, 4200.512695, 4195.384277, 4201.538574, 4184.102539, 4201.025391, 4215.897461, 4203.589844, 4220.512695, 4213.846191, 2999.000000, 8174.000000, 8176.000000, 0.000000, 0.000000, 0.000000, 23624.000000, 398.974335, 4.000000, 4.000000, 4.000000, 4.000000, 4.000000, 4.000000, 4.000000, 2.000000, 4.000000, 4.000000, 4.000000, 4.000000, 4.000000, 4.000000, 4.000000, 4.000000
96.000000, 0.000000, 4205.127930, 4222.051270, 4216.410156, 4198.461426, 4201.538574, 4203.076660, 4202.051270, 4203.076660, 4192.820313, 4204.102539, 4215.897461, 4199.487305, 4224.615234, 4211.794922, 3498.000000, 8174.000000, 8176.000000, 0.000000, 0.000000, 0.000000, 23624.000000, 406.666656, 4.000000, 4.000000, 4.000000, 4.000000, 4.000000, 4.000000, 4.000000, 2.000000, 4.000000, 4.000000, 4.000000, 4.000000, 4.000000, 4.000000, 4.000000, 4.000000
97.000000, 0.000000, 4204.615234, 4218.461426, 4205.641113, 4193.333008, 4199.487305, 4202.051270, 4200.512695, 4205.641113, 4201.025391, 4204.615234, 4216.922852, 4190.256348, 4221.538574, 4205.641113, 3283.000000, 8175.000000, 8165.000000, 0.000000, 0.000000, 0.000000, 23624.000000, 414.358978, 4.000000, 4.000000, 4.000000, 4.000000, 4.000000, 4.000000, 4.000000, 2.000000, 4.000000, 4.000000, 4.000000, 4.000000, 4.000000, 4.000000, 4.000000, 4.000000
98.000000, 0.000000, 4202.051270, 4220.000000, 4196.410156, 4188.717773, 4198.974121, 4202.051270, 4199.487305, 4202.051270, 4197.948730, 4204.102539, 4213.333008, 4177.436035, 4214.358887, 4203.589844, 2502.000000, 8175.000000, 8165.000000, 0.000000, 0.000000, 0.000000, 23624.000000, 422.564087, 4.000000, 4.000000, 4.000000, 4.000000, 4.000000, 4.000000, 4.000000, 2.000000, 4.000000, 4.000000, 4.000000, 4.000000, 4.000000, 4.000000, 4.000000, 4.000000
99.000000, 0.000000, 4201.538574, 4217.948730, 4194.358887, 4188.717773, 4201.538574, 4202.563965, 4202.051270, 4203.076660, 4192.820313, 4196.922852, 4204.102539, 4172.307617, 4214.358887, 4201.025391, 2999.000000, 8169.000000, 8152.000000, 0.000000, 0.000000, 0.000000, 23624.000000, 430.256409, 4.000000, 4.000000, 4.000000, 4.000000, 4.000000, 4.000000, 4.000000, 2.000000, 4.000000, 4.000000, 4.000000, 4.000000, 4.000000, 4.000000, 4.000000, 4.000000
100.000000, 0.000000, 4202.563965, 4205.641113, 4198.974121, 4186.153809, 4201.538574, 4202.563965, 4202.051270, 4208.205078, 4195.897461, 4187.692383, 4200.000000, 4182.051270, 4213.846191, 4198.974121, 3498.000000, 8169.000000, 8152.000000, 0.000000, 0.000000, 0.000000, 23624.000000, 438.461517, 4.000000, 4.000000, 4.000000, 4.000000, 4.000000, 4.000000, 4.000000, 2.000000, 4.000000, 4.000000, 4.000000, 4.000000, 4.000000, 4.000000, 4.000000, 4.000000
101.000000, 0.000000, 4206.666504, 4205.641113, 4201.538574, 4189.230469, 4205.127930, 4205.127930, 4200.512695, 4205.641113, 4196.922852, 4184.102539, 4205.641113, 4188.717773, 4212.307617, 4200.512695, 3283.000000, 8165.000000, 8138.000000, 0.000000, 0.000000, 0.000000, 23624.000000, 446.153839, 4.000000, 4.000000, 4.000000, 4.000000, 4.000000, 4.000000, 4.000000, 2.000000, 4.000000, 4.000000, 4.000000, 4.000000, 4.000000, 4.000000, 4.000000, 4.000000
102.000000, 0.000000, 4209.743652, 4223.076660, 4206.153809, 4198.974121, 4213.333008, 4207.692383, 4202.051270, 4205.641113, 4193.846191, 4185.641113, 4212.820313, 4186.153809, 4217.436035, 4208.205078, 2502.000000, 8165.000000, 8138.000000, 0.000000, 0.000000, 0.000000, 23624.000000, 453.846130, 4.000000, 4.000000, 4.000000, 4.000000, 4.000000, 4.000000, 4.000000, 2.000000, 4.000000, 4.000000, 4.000000, 4.000000, 4.000000, 4.000000, 4.000000, 4.000000
103.000000, 0.000000, 4208.205078, 4232.307617, 4216.922852, 4204.102539, 4215.897461, 4210.256348, 4204.102539, 4206.153809, 4203.589844, 4197.436035, 4223.076660, 4192.820313, 4225.641113, 4216.410156, 2999.000000, 8167.000000, 8127.000000, 0.000000, 0.000000, 0.000000, 23624.000000, 462.051270, 4.000000, 4.000000, 4.000000, 4.000000, 4.000000, 4.000000, 4.000000, 2.000000, 4.000000, 4.000000, 4.000000, 4.000000, 4.000000, 4.000000, 4.000000, 4.000000
104.000000, 0.000000, 4209.743652, 4230.256348, 4214.358887, 4202.563965, 4214.871582, 4214.358887, 4204.615234, 4204.615234, 4216.410156, 4212.820313, 4232.820313, 4200.512695, 4230.769043, 4216.410156, 3498.000000, 8167.000000, 8127.000000, 0.000000, 0.000000, 0.000000, 23624.000000, 470.256409, 4.000000, 4.000000, 4.000000, 4.000000, 4.000000, 4.000000, 4.000000, 2.000000, 4.000000, 4.000000, 4.000000, 4.000000, 4.000000, 4.000000, 4.000000, 4.000000
105.000000, 0.000000, 4210.256348, 4234.358887, 4201.538574, 4202.051270, 4216.410156, 4215.384277, 4203.589844, 4207.692383, 4221.538574, 4220.000000, 4234.871582, 4191.281738, 4229.743652, 4214.358887, 3283.000000, 8170.000000, 8125.000000, 0.000000, 0.000000, 0.000000, 23624.000000, 477.948700, 4.000000, 4.000000, 4.000000, 4.000000, 4.000000, 4.000000, 4.000000, 2.000000, 4.000000, 4.000000, 4.000000, 4.000000, 4.000000, 4.000000, 4.000000, 4.000000
106.000000, 0.000000, 4208.717773, 4241.538574, 4198.461426, 4204.615234, 4217.436035, 4210.256348, 4198.974121, 4209.743652, 4218.974121, 4221.025391, 4234.871582, 4182.051270, 4223.076660, 4212.307617, 2502.000000, 8170.000000, 8125.000000, 0.000000, 0.000000, 0.000000, 23624.000000, 485.641022, 4.000000, 4.000000, 4.000000, 4.000000, 4.000000, 4.000000, 4.000000, 2.000000, 4.000000, 4.000000, 4.000000, 4.000000, 4.000000, 4.000000, 4.000000, 4.000000
107.000000, 0.000000, 4207.692383, 4231.794922, 4198.974121, 4198.461426, 4211.281738, 4204.102539, 4189.743652, 4204.102539, 4205.127930, 4216.410156, 4228.717773, 4181.538574, 4212.307617, 4204.615234, 2999.000000, 8162.000000, 8125.000000, 0.000000, 0.000000, 0.000000, 23624.000000, 493.846130, 4.000000, 4.000000, 4.000000, 4.000000, 4.000000, 4.000000, 4.000000, 2.000000, 4.000000, 4.000000, 4.000000, 4.000000, 4.000000, 4.000000, 4.000000, 4.000000
108.000000, 0.000000, 4207.692383, 4217.436035, 4195.384277, 4190.256348, 4205.127930, 4199.487305, 4185.127930, 4198.974121, 4198.461426, 4207.179199, 4218.461426, 4180.512695, 4206.666504, 4198.461426, 3498.000000, 8162.000000, 8125.000000, 0.000000, 0.000000, 0.000000, 23624.000000, 501.538452, 4.000000, 4.000000, 4.000000, 4.000000, 4.000000, 4.000000, 4.000000, 2.000000, 4.000000, 4.000000, 4.000000, 4.000000, 4.000000, 4.000000, 4.000000, 4.000000
109.000000, 0.000000, 4210.256348, 4221.538574, 4198.974121, 4192.820313, 4213.846191, 4201.025391, 4192.820313, 4204.102539, 4209.230469, 4205.127930, 4214.358887, 4188.717773, 4211.794922, 4203.589844, 3283.000000, 8163.000000, 8126.000000, 0.000000, 0.000000, 0.000000, 23624.000000, 509.743591, 4.000000, 4.000000, 4.000000, 4.000000, 4.000000, 4.000000, 4.000000, 2.000000, 4.000000, 4.000000, 4.000000, 4.000000, 4.000000, 4.000000, 4.000000, 4.000000
110.000000, 0.000000, 4210.769043, 4230.769043, 4205.127930, 4201.538574, 4218.461426, 4207.692383, 4208.205078, 4208.717773, 4217.436035, 4211.794922, 4220.000000, 4204.102539, 4217.948730, 4213.846191, 2502.000000, 8163.000000, 8126.000000, 0.000000, 0.000000, 0.000000, 23624.000000, 517.435913, 4.000000, 4.000000, 4.000000, 4.000000, 4.000000, 4.000000, 4.000000, 2.000000, 4.000000, 4.000000, 4.000000, 4.000000, 4.000000, 4.000000, 4.000000, 4.000000
111.000000, 0.000000, 4208.717773, 4225.641113, 4204.615234, 4203.076660, 4205.127930, 4208.205078, 4214.871582, 4210.256348, 4215.384277, 4213.846191, 4223.076660, 4203.076660, 4217.436035, 4215.384277, 2999.000000, 8161.000000, 8128.000000, 0.000000, 0.000000, 0.000000, 23624.000000, 525.128174, 4.000000, 4.000000, 4.000000, 4.000000, 4.000000, 4.000000, 4.000000, 2.000000, 4.000000, 4.000000, 4.000000, 4.000000, 4.000000, 4.000000, 4.000000, 4.000000
112.000000, 0.000000, 4209.230469, 4218.461426, 4197.436035, 4195.384277, 4203.076660, 4203.589844, 4208.205078, 4209.230469, 4215.384277, 4212.820313, 4220.512695, 4189.230469, 4215.897461, 4208.205078, 3498.000000, 8161.000000, 8128.000000, 0.000000, 0.000000, 0.000000, 23624.000000, 532.820496, 4.000000, 4.000000, 4.000000, 4.000000, 4.000000, 4.000000, 4.000000, 2.000000, 4.000000, 4.000000, 4.000000, 4.000000, 4.000000, 4.000000, 4.000000, 4.000000
113.000000, 0.000000, 4208.717773, 4219.487305, 4190.769043, 4190.769043, 4212.820313, 4202.563965, 4200.512695, 4206.153809, 4216.922852, 4214.871582, 4218.974121, 4182.051270, 4214.871582, 4202.563965, 3283.000000, 8170.000000, 8146.000000, 0.000000, 0.000000, 0.000000, 23624.000000, 541.025635, 4.000000, 4.000000, 4.000000, 4.000000, 4.000000, 4.000000, 4.000000, 2.000000, 4.000000, 4.000000, 4.000000, 4.000000, 4.000000, 4.000000, 4.000000, 4.000000
114.000000, 0.000000, 4207.179199, 4210.256348, 4187.692383, 4189.230469, 4206.153809, 4198.974121, 4200.512695, 4202.563965, 4207.692383, 4208.205078, 4212.820313, 4173.333008, 4209.230469, 4199.487305, 2502.000000, 8170.000000, 8146.000000, 0.000000, 0.000000, 0.000000, 23624.000000, 548.717957, 4.000000, 4.000000, 4.000000, 4.000000, 4.000000, 4.000000, 4.000000, 2.000000, 4.000000, 4.000000, 4.000000, 4.000000, 4.000000, 4.000000, 4.000000, 4.000000
115.000000, 0.000000, 4206.153809, 4202.563965, 4190.769043, 4188.717773, 4196.922852, 4193.333008, 4195.384277, 4200.000000, 4193.333008, 4200.512695, 4202.051270, 4160.512695, 4205.127930, 4194.871582, 2999.000000, 8178.000000, 8152.000000, 0.000000, 0.000000, 0.000000, 23624.000000, 556.923035, 4.000000, 4.000000, 4.000000, 4.000000, 4.000000, 4.000000, 4.000000, 2.000000, 4.000000, 4.000000, 4.000000, 4.000000, 4.000000, 4.000000, 4.000000, 4.000000
116.000000, 0.000000, 4206.153809, 4209.230469, 4197.436035, 4188.717773, 4202.563965, 4195.384277, 4188.205078, 4202.563965, 4184.102539, 4197.948730, 4193.333008, 4158.974121, 4205.127930, 4194.358887, 3498.000000, 8178.000000, 8152.000000, 0.000000, 0.000000, 0.000000, 23624.000000, 564.615356, 4.000000, 4.000000, 4.000000, 4.000000, 4.000000, 4.000000, 4.000000, 2.000000, 4.000000, 4.000000, 4.000000, 4.000000, 4.000000, 4.000000, 4.000000, 4.000000
117.000000, 0.000000, 4209.230469, 4210.256348, 4201.025391, 4190.769043, 4203.076660, 4200.512695, 4185.641113, 4205.127930, 4183.589844, 4191.794922, 4191.281738, 4168.205078, 4203.589844, 4200.000000, 3283.000000, 8202.000000, 8160.000000, 0.000000, 0.000000, 0.000000, 23624.000000, 572.820496, 4.000000, 4.000000, 4.000000, 4.000000, 4.000000, 4.000000, 4.000000, 2.000000, 4.000000, 4.000000, 4.000000, 4.000000, 4.000000, 4.000000, 4.000000, 4.000000
118.000000, 0.000000, 4207.692383, 4203.589844, 4201.025391, 4191.794922, 4197.436035, 4199.487305, 4183.589844, 4201.025391, 4186.153809, 4185.127930, 4192.820313, 4172.820313, 4201.025391, 4201.025391, 2502.000000, 8202.000000, 8160.000000, 0.000000, 0.000000, 0.000000, 23624.000000, 580.512817, 4.000000, 4.000000, 4.000000, 4.000000, 4.000000, 4.000000, 4.000000, 2.000000, 4.000000, 4.000000, 4.000000, 4.000000, 4.000000, 4.000000, 4.000000, 4.000000
119.000000, 0.000000, 4209.743652, 4211.794922, 4201.025391, 4194.871582, 4200.512695, 4199.487305, 4190.256348, 4200.512695, 4183.589844, 4183.076660, 4195.384277, 4168.717773, 4205.641113, 4202.563965, 2999.000000, 8227.000000, 8165.000000, 0.000000, 0.000000, 0.000000, 23624.000000, 588.717957, 4.000000, 4.000000, 4.000000, 4.000000, 4.000000, 4.000000, 4.000000, 2.000000, 4.000000, 4.000000, 4.000000, 4.000000, 4.000000, 4.000000, 4.000000, 4.000000
120.000000, 0.000000, 4211.794922, 4220.000000, 4202.051270, 4203.589844, 4204.615234, 4209.743652, 4203.589844, 4205.127930, 4184.102539, 4187.179199, 4200.000000, 4168.717773, 4214.871582, 4207.692383, 3498.000000, 8227.000000, 8165.000000, 0.000000, 0.000000, 0.000000, 23624.000000, 596.410217, 4.000000, 4.000000, 4.000000, 4.000000, 4.000000, 4.000000, 4.000000, 2.000000, 4.000000, 4.000000, 4.000000, 4.000000, 4.000000, 4.000000, 4.000000, 4.000000
121.000000, 0.000000, 4202.563965, 4198.461426, 4200.512695, 4197.436035, 4203.589844, 4221.025391, 4210.256348, 4207.179199, 4194.871582, 4200.000000, 4200.000000, 4175.384277, 4212.820313, 4202.563965, 3283.000000, 8251.000000, 8158.000000, 0.000000, 0.000000, 0.000000, 23624.000000, 604.102539, 4.000000, 4.000000, 4.000000, 4.000000, 4.000000, 4.000000, 4.000000, 2.000000, 4.000000, 4.000000, 4.000000, 4.000000, 4.000000, 4.000000, 4.000000, 4.000000
122.000000, 0.000000, 4202.051270, 4186.153809, 4194.358887, 4184.102539, 4198.461426, 4214.358887, 4206.153809, 4202.563965, 4194.871582, 4202.051270, 4192.820313, 4168.205078, 4204.615234, 4195.384277, 2502.000000, 8251.000000, 8158.000000, 0.000000, 0.000000, 0.000000, 23624.000000, 611.794861, 4.000000, 4.000000, 4.000000, 4.000000, 4.000000, 4.000000, 4.000000, 2.000000, 4.000000, 4.000000, 4.000000, 4.000000, 4.000000, 4.000000, 4.000000, 4.000000
123.000000, 0.000000, 4207.179199, 4207.179199, 4192.820313, 4189.230469, 4197.436035, 4201.538574, 4200.512695, 4201.538574, 4183.076660, 4186.666504, 4180.512695, 4155.384277, 4202.051270, 4194.871582, 2999.000000, 8295.000000, 8149.000000, 0.000000, 0.000000, 0.000000, 23624.000000, 620.000000, 4.000000, 4.000000, 4.000000, 4.000000, 4.000000, 4.000000, 4.000000, 2.000000, 4.000000, 4.000000, 4.000000, 4.000000, 4.000000, 4.000000, 4.000000, 4.000000
124.000000, 0.000000, 4207.179199, 4221.025391, 4198.461426, 4200.000000, 4198.974121, 4200.512695, 4196.410156, 4203.589844, 4180.512695, 4180.512695, 4172.307617, 4160.000000, 4201.025391, 4194.871582, 3498.000000, 8295.000000, 8149.000000, 0.000000, 0.000000, 0.000000, 23624.000000, 627.692322, 4.000000, 4.000000, 4.000000, 4.000000, 4.000000, 4.000000, 4.000000, 2.000000, 4.000000, 4.000000, 4.000000, 4.000000, 4.000000, 4.000000, 4.000000, 4.000000
125.000000, 0.000000, 4207.179199, 4223.589844, 4198.974121, 4201.538574, 4197.436035, 4201.538574, 4198.461426, 4202.563965, 4186.666504, 4188.205078, 4173.333008, 4169.230469, 4198.461426, 4196.410156, 3283.000000, 8315.000000, 8136.000000, 0.000000, 0.000000, 0.000000, 23624.000000, 635.897400, 4.000000, 4.000000, 4.000000, 4.000000, 4.000000, 4.000000, 4.000000, 2.000000, 4.000000, 4.000000, 4.000000, 4.000000, 4.000000, 4.000000, 4.000000, 4.000000
126.000000, 0.000000, 4204.615234, 4239.487305, 4191.281738, 4202.051270, 4196.922852, 4197.436035, 4200.000000, 4202.051270, 4187.692383, 4189.743652, 4172.820313, 4161.538574, 4195.384277, 4194.871582, 2502.000000, 8315.000000, 8136.000000, 0.000000, 0.000000, 0.000000, 23624.000000, 643.589722, 4.000000, 4.000000, 4.000000, 4.000000, 4.000000, 4.000000, 4.000000, 2.000000, 4.000000, 4.000000, 4.000000, 4.000000, 4.000000, 4.000000, 4.000000, 4.000000
127.000000, 0.000000, 4205.127930, 4250.256348, 4185.127930, 4203.076660, 4198.974121, 4197.948730, 4196.410156, 4203.076660, 4185.641113, 4185.641113, 4168.205078, 4152.307617, 4189.230469, 4188.205078, 56.000000, 8350.000000, 8113.000000, 0.000000, 0.000000, 0.000000, 23624.000000, 651.282043, 4.000000, 4.000000, 4.000000, 4.000000, 4.000000, 4.000000, 4.000000, 2.000000, 4.000000, 4.000000, 4.000000, 4.000000, 4.000000, 4.000000, 4.000000, 4.000000
0.000000, 0.000000, 4205.641113, 4252.820313, 4185.641113, 4208.205078, 4202.051270, 4201.538574, 4190.769043, 4202.051270, 4185.127930, 4185.641113, 4169.230469, 4154.358887, 4187.179199, 4190.769043, 3538.000000, 8350.000000, 8113.000000, 0.000000, 0.000000, 0.000000, 23624.000000, 659.487183, 4.000000, 4.000000, 4.000000, 4.000000, 4.000000, 4.000000, 4.000000, 2.000000, 4.000000, 4.000000, 4.000000, 4.000000, 4.000000, 4.000000, 4.000000, 4.000000
1.000000, 0.000000, 4202.051270, 4263.076660, 4186.666504, 4214.871582, 4203.076660, 4202.051270, 4188.205078, 4202.563965, 4187.179199, 4189.743652, 4174.358887, 4156.410156, 4189.230469, 4195.384277, 3535.000000, 8372.000000, 8111.000000, 0.000000, 0.000000, 0.000000, 23624.000000, 667.179443, 4.000000, 4.000000, 4.000000, 4.000000, 4.000000, 4.000000, 4.000000, 2.000000, 4.000000, 4.000000, 4.000000, 4.000000, 4.000000, 4.000000, 4.000000, 4.000000
2.000000, 0.000000, 4199.487305, 4255.897461, 4178.974121, 4205.641113, 4201.025391, 4203.589844, 4194.871582, 4202.051270, 4189.743652, 4189.230469, 4172.307617, 4154.358887, 4185.127930, 4183.589844, 1781.000000, 8372.000000, 8111.000000, 0.000000, 0.000000, 0.000000, 23624.000000, 674.871765, 4.000000, 4.000000, 4.000000, 4.000000, 4.000000, 4.000000, 4.000000, 2.000000, 4.000000, 4.000000, 4.000000, 4.000000, 4.000000, 4.000000, 4.000000, 4.000000
3.000000, 0.000000, 4204.615234, 4242.563965, 4175.384277, 4200.512695, 4206.153809, 4203.589844, 4198.974121, 4201.538574, 4188.717773, 4187.179199, 4169.230469, 4154.871582, 4193.333008, 4181.025391, 3558.000000, 8382.000000, 8117.000000, 0.000000, 0.000000, 0.000000, 23624.000000, 683.076904, 4.000000, 4.000000, 4.000000, 4.000000, 4.000000, 4.000000, 4.000000, 2.000000, 4.000000, 4.000000, 4.000000, 4.000000, 4.000000, 4.000000, 4.000000, 4.000000
4.000000, 0.000000, 4210.769043, 4249.743652, 4184.102539, 4212.307617, 4213.846191, 4204.615234, 4191.281738, 4201.538574, 4190.256348, 4191.794922, 4175.897461, 4160.000000, 4201.025391, 4195.384277, 3354.000000, 8382.000000, 8117.000000, 0.000000, 0.000000, 0.000000, 23624.000000, 691.282043, 4.000000, 4.000000, 4.000000, 4.000000, 4.000000, 4.000000, 4.000000, 2.000000, 4.000000, 4.000000, 4.000000, 4.000000, 4.000000, 4.000000, 4.000000, 4.000000
5.000000, 0.000000, 4205.127930, 4248.717773, 4182.051270, 4209.743652, 4205.641113, 4200.512695, 4185.127930, 4201.025391, 4182.051270, 4185.641113, 4170.769043, 4158.461426, 4170.769043, 4190.769043, 3575.000000, 8396.000000, 8156.000000, 0.000000, 0.000000, 0.000000, 23624.000000, 698.974365, 4.000000, 4.000000, 4.000000, 4.000000, 4.000000, 4.000000, 4.000000, 2.000000, 4.000000, 4.000000, 4.000000, 4.000000, 4.000000, 4.000000, 4.000000, 4.000000
6.000000, 0.000000, 4200.000000, 4232.307617, 4172.820313, 4197.948730, 4194.871582, 4188.717773, 4185.641113, 4201.025391, 4165.127930, 4169.743652, 4153.333008, 4150.256348, 4138.974121, 4180.000000, 2996.000000, 8396.000000, 8156.000000, 0.000000, 0.000000, 0.000000, 23624.000000, 706.666626, 4.000000, 4.000000, 4.000000, 4.000000, 4.000000, 4.000000, 4.000000, 2.000000, 4.000000, 4.000000, 4.000000, 4.000000, 4.000000, 4.000000, 4.000000, 4.000000
7.000000, 0.000000, 4205.641113, 4235.897461, 4182.563965, 4206.666504, 4208.205078, 4189.743652, 4184.102539, 4202.563965, 4168.717773, 4174.871582, 4157.948730, 4157.436035, 4151.281738, 4192.820313, 384.000000, 8397.000000, 8188.000000, 0.000000, 0.000000, 0.000000, 23624.000000, 714.871765, 4.000000, 4.000000, 4.000000, 4.000000, 4.000000, 4.000000, 4.000000, 3.000000, 4.000000, 4.000000, 4.000000, 4.000000, 4.000000, 4.000000, 4.000000, 4.000000
8.000000, 0.000000, 4206.666504, 4250.256348, 4191.794922, 4217.948730, 4214.871582, 4202.051270, 4182.051270, 4202.563965, 4186.153809, 4188.717773, 4177.436035, 4168.717773, 4170.769043, 4202.051270, 3522.000000, 8397.000000, 8188.000000, 0.000000, 0.000000, 0.000000, 23624.000000, 722.564087, 4.000000, 4.000000, 4.000000, 4.000000, 4.000000, 4.000000, 4.000000, 3.000000, 4.000000, 4.000000, 4.000000, 4.000000, 4.000000, 4.000000, 4.000000, 4.000000
9.000000, 0.000000, 4202.563965, 4245.127930, 4185.127930, 4212.307617, 4199.487305, 4200.512695, 4186.153809, 4204.102539, 4185.641113, 4187.179199, 4176.922852, 4161.538574, 4166.666504, 4193.846191, 3539.000000, 8384.000000, 8229.000000, 0.000000, 0.000000, 0.000000, 23624.000000, 730.769226, 4.000000, 4.000000, 4.000000, 4.000000, 4.000000, 4.000000, 4.000000, 3.000000, 4.000000, 4.000000, 4.000000, 4.000000, 4.000000, 4.000000, 4.000000, 4.000000
10.000000, 0.000000, 4202.051270, 4234.358887, 4182.051270, 4207.179199, 4204.102539, 4193.333008, 4186.153809, 4202.051270, 4172.307617, 4180.000000, 4162.051270, 4152.307617, 4162.563965, 4189.230469, 2502.000000, 8384.000000, 8229.000000, 0.000000, 0.000000, 0.000000, 23624.000000, 738.461548, 4.000000, 4.000000, 4.000000, 4.000000, 4.000000, 4.000000, 4.000000, 3.000000, 4.000000, 4.000000, 4.000000, 4.000000, 4.000000, 4.000000, 4.000000, 4.000000
11.000000, 0.000000, 4204.102539, 4231.281738, 4182.051270, 4206.666504, 4218.461426, 4200.512695, 4185.641113, 4199.487305, 4167.179199, 4173.333008, 4157.436035, 4151.794922, 4165.127930, 4189.743652, 2999.000000, 8369.000000, 8251.000000, 0.000000, 0.000000, 0.000000, 23624.000000, 746.153809, 4.000000, 4.000000, 4.000000, 4.000000, 4.000000, 4.000000, 4.000000, 3.000000, 4.000000, 4.000000, 4.000000, 4.000000, 4.000000, 4.000000, 4.000000, 4.000000
12.000000, 0.000000, 4203.589844, 4231.281738, 4180.000000, 4207.179199, 4209.230469, 4206.666504, 4192.820313, 4206.666504, 4176.410156, 4172.820313, 4162.563965, 4151.281738, 4170.256348, 4191.794922, 3498.000000, 8369.000000, 8251.000000, 0.000000, 0.000000, 0.000000, 23624.000000, 753.846130, 4.000000, 4.000000, 4.000000, 4.000000, 4.000000, 4.000000, 4.000000, 3.000000, 4.000000, 4.000000, 4.000000, 4.000000, 4.000000, 4.000000, 4.000000, 4.000000
13.000000, 0.000000, 4205.127930, 4232.820313, 4185.641113, 4212.307617, 4202.051270, 4203.076660, 4201.025391, 4210.769043, 4194.358887, 4189.230469, 4176.410156, 4157.948730, 4180.000000, 4198.974121, 3481.000000, 8347.000000, 8260.000000, 0.000000, 0.000000, 0.000000, 23624.000000, 762.051270, 4.000000, 4.000000, 4.000000, 4.000000, 4.000000, 4.000000, 4.000000, 3.000000, 4.000000, 4.000000, 4.000000, 4.000000, 4.000000, 4.000000, 4.000000, 4.000000
14.000000, 0.000000, 4210.769043, 4234.358887, 4194.358887, 4215.897461, 4213.846191, 4203.076660, 4203.589844, 4205.641113, 4206.666504, 4204.615234, 4194.358887, 4169.230469, 4188.205078, 4205.127930, 2502.000000, 8347.000000, 8260.000000, 0.000000, 0.000000, 0.000000, 23624.000000, 769.743591, 4.000000, 4.000000, 4.000000, 4.000000, 4.000000, 4.000000, 4.000000, 3.000000, 4.000000, 4.000000, 4.000000, 4.000000, 4.000000, 4.000000, 4.000000, 4.000000
15.000000, 0.000000, 4207.692383, 4233.846191, 4196.922852, 4212.820313, 4216.410156, 4205.641113, 4201.538574, 4204.102539, 4205.127930, 4202.051270, 4198.974121, 4171.794922, 4193.333008, 4207.179199, 2999.000000, 8300.000000, 8241.000000, 0.000000, 0.000000, 0.000000, 23624.000000, 777.948669, 4.000000, 4.000000, 4.000000, 4.000000, 4.000000, 4.000000, 4.000000, 3.000000, 4.000000, 4.000000, 4.000000, 4.000000, 4.000000, 4.000000, 4.000000, 4.000000
16.000000, 0.000000, 4204.615234, 4240.000000, 4198.461426, 4214.358887, 4208.717773, 4204.102539, 4202.051270, 4205.641113, 4202.051270, 4199.487305, 4200.000000, 4176.410156, 4199.487305, 4213.846191, 0.000000, 8300.000000, 8241.000000, 0.000000, 0.000000, 0.000000, 23624.000000, 785.640991, 4.000000, 4.000000, 4.000000, 4.000000, 4.000000, 4.000000, 4.000000, 3.000000, 4.000000, 4.000000, 4.000000, 4.000000, 4.000000, 4.000000, 4.000000, 4.000000
17.000000, 0.000000, 4209.230469, 4248.717773, 4201.538574, 4218.461426, 4209.743652, 4202.563965, 4200.512695, 4203.589844, 4205.641113, 4206.666504, 4208.717773, 4184.102539, 4201.538574, 4216.922852, 0.000000, 8270.000000, 8215.000000, 0.000000, 0.000000, 0.000000, 23624.000000, 793.333313, 4.000000, 4.000000, 4.000000, 4.000000, 4.000000, 4.000000, 4.000000, 3.000000, 4.000000, 4.000000, 4.000000, 4.000000, 4.000000, 4.000000, 4.000000, 4.000000
18.000000, 0.000000, 4208.205078, 4249.743652, 4208.205078, 4218.974121, 4213.846191, 4206.666504, 4197.436035, 4201.025391, 4215.384277, 4214.871582, 4223.589844, 4188.717773, 4206.666504, 4216.410156, 0.000000, 8270.000000, 8215.000000, 0.000000, 0.000000, 0.000000, 23624.000000, 801.538452, 4.000000, 4.000000, 4.000000, 4.000000, 4.000000, 4.000000, 4.000000, 3.000000, 4.000000, 4.000000, 4.000000, 4.000000, 4.000000, 4.000000, 4.000000, 4.000000
19.000000, 0.000000, 4206.153809, 4249.743652, 4217.436035, 4223.589844, 4216.410156, 4214.358887, 4200.000000, 4204.102539, 4220.512695, 4220.000000, 4232.307617, 4196.410156, 4216.922852, 4220.512695, 0.000000, 8211.000000, 8156.000000, 0.000000, 0.000000, 0.000000, 23624.000000, 809.230774, 4.000000, 4.000000, 4.000000, 4.000000, 4.000000, 4.000000, 4.000000, 3.000000, 4.000000, 4.000000, 4.000000, 4.000000, 4.000000, 4.000000, 4.000000, 4.000000
20.000000, 0.000000, 4206.666504, 4252.820313, 4222.051270, 4231.794922, 4217.436035, 4216.922852, 4202.563965, 4204.615234, 4220.512695, 4221.025391, 4234.358887, 4202.563965, 4218.974121, 4221.025391, 0.000000, 8211.000000, 8156.000000, 0.000000, 0.000000, 0.000000, 23624.000000, 816.923035, 4.000000, 4.000000, 4.000000, 4.000000, 4.000000, 4.000000, 4.000000, 3.000000, 4.000000, 4.000000, 4.000000, 4.000000, 4.000000, 4.000000, 4.000000, 4.000000
21.000000, 0.000000, 4202.563965, 4252.820313, 4220.000000, 4228.205078, 4216.922852, 4216.410156, 4202.563965, 4203.589844, 4220.000000, 4222.051270, 4237.948730, 4199.487305, 4213.846191, 4214.871582, 0.000000, 8183.000000, 8124.000000, 0.000000, 0.000000, 0.000000, 23624.000000, 825.128174, 4.000000, 4.000000, 4.000000, 4.000000, 4.000000, 4.000000, 4.000000, 3.000000, 4.000000, 4.000000, 4.000000, 4.000000, 4.000000, 4.000000, 4.000000, 4.000000
22.000000, 0.000000, 4204.102539, 4249.743652, 4220.512695, 4220.000000, 4220.512695, 4214.358887, 4203.589844, 4206.153809, 4220.000000, 4224.615234, 4245.127930, 4199.487305, 4217.948730, 4214.358887, 0.000000, 8183.000000, 8124.000000, 0.000000, 0.000000, 0.000000, 23624.000000, 832.820496, 4.000000, 4.000000, 4.000000, 4.000000, 4.000000, 4.000000, 4.000000, 3.000000, 4.000000, 4.000000, 4.000000, 4.000000, 4.000000, 4.000000, 4.000000, 4.000000
23.000000, 0.000000, 4205.641113, 4251.281738, 4217.436035, 4220.512695, 4217.948730, 4210.256348, 4201.538574, 4206.153809, 4221.538574, 4226.153809, 4248.717773, 4202.051270, 4222.563965, 4215.897461, 0.000000, 8131.000000, 8085.000000, 0.000000, 0.000000, 0.000000, 23624.000000, 841.025635, 4.000000, 4.000000, 4.000000, 4.000000, 4.000000, 4.000000, 4.000000, 3.000000, 4.000000, 4.000000, 4.000000, 4.000000, 4.000000, 4.000000, 4.000000, 4.000000
24.000000, 0.000000, 4201.025391, 4245.641113, 4203.589844, 4216.410156, 4203.076660, 4202.051270, 4196.410156, 4202.051270, 4216.410156, 4217.948730, 4235.384277, 4191.794922, 4215.897461, 4208.717773, 0.000000, 8131.000000, 8085.000000, 0.000000, 0.000000, 0.000000, 23624.000000, 848.717957, 4.000000, 4.000000, 4.000000, 4.000000, 4.000000, 4.000000, 4.000000, 3.000000, 4.000000, 4.000000, 4.000000, 4.000000, 4.000000, 4.000000, 4.000000, 4.000000
25.000000, 0.000000, 4202.563965, 4236.922852, 4195.384277, 4208.717773, 4200.512695, 4198.974121, 4194.871582, 4201.025391, 4206.153809, 4206.666504, 4222.051270, 4176.922852, 4209.743652, 4198.974121, 0.000000, 8113.000000, 8081.000000, 0.000000, 0.000000, 0.000000, 23624.000000, 856.410217, 4.000000, 4.000000, 4.000000, 4.000000, 4.000000, 4.000000, 4.000000, 3.000000, 4.000000, 4.000000, 4.000000, 4.000000, 4.000000, 4.000000, 4.000000, 4.000000
26.000000, 0.000000, 4207.179199, 4238.461426, 4202.563965, 4214.358887, 4215.897461, 4207.179199, 4199.487305, 4204.102539, 4205.127930, 4202.563965, 4221.538574, 4172.307617, 4209.230469, 4197.948730, 0.000000, 8113.000000, 8081.000000, 0.000000, 0.000000, 0.000000, 23624.000000, 864.102539, 4.000000, 4.000000, 4.000000, 4.000000, 4.000000, 4.000000, 4.000000, 3.000000, 4.000000, 4.000000, 4.000000, 4.000000, 4.000000, 4.000000, 4.000000, 4.000000
27.000000, 0.000000, 4205.641113, 4240.000000, 4203.076660, 4217.436035, 4222.051270, 4212.307617, 4202.563965, 4202.563965, 4208.205078, 4202.051270, 4218.461426, 4171.794922, 4205.641113, 4197.948730, 0.000000, 8099.000000, 8072.000000, 0.000000, 0.000000, 0.000000, 23624.000000, 872.307678, 4.000000, 4.000000, 4.000000, 4.000000, 4.000000, 4.000000, 4.000000, 3.000000, 4.000000, 4.000000, 4.000000, 4.000000, 4.000000, 4.000000, 4.000000, 4.000000
28.000000, 0.000000, 4196.410156, 4233.333008, 4189.230469, 4207.179199, 4210.256348, 4204.615234, 4196.922852, 4200.512695, 4200.512695, 4194.358887, 4203.589844, 4164.615234, 4200.512695, 4189.743652, 0.000000, 8099.000000, 8072.000000, 0.000000, 0.000000, 0.000000, 23624.000000, 880.000000, 4.000000, 4.000000, 4.000000, 4.000000, 4.000000, 4.000000, 4.000000, 3.000000, 4.000000, 4.000000, 4.000000, 4.000000, 4.000000, 4.000000, 4.000000, 4.000000
29.000000, 0.000000, 4200.512695, 4225.127930, 4183.076660, 4201.025391, 4201.025391, 4198.974121, 4195.384277, 4204.102539, 4190.769043, 4183.589844, 4194.358887, 4159.487305, 4200.000000, 4185.641113, 0.000000, 8089.000000, 8070.000000, 0.000000, 0.000000, 0.000000, 23624.000000, 887.692261, 4.000000, 4.000000, 4.000000, 4.000000, 4.000000, 4.000000, 4.000000, 3.000000, 4.000000, 4.000000, 4.000000, 4.000000, 4.000000, 4.000000, 4.000000, 4.000000
30.000000, 0.000000, 4212.307617, 4220.000000, 4187.692383, 4203.076660, 4203.589844, 4202.563965, 4201.025391, 4205.641113, 4191.281738, 4186.153809, 4198.461426, 4166.666504, 4199.487305, 4195.384277, 0.000000, 8089.000000, 8070.000000, 0.000000, 0.000000, 0.000000, 23624.000000, 895.897400, 4.000000, 4.000000, 4.000000, 4.000000, 4.000000, 4.000000, 4.000000, 3.000000, 4.000000, 4.000000, 4.000000, 4.000000, 4.000000, 4.000000, 4.000000, 4.000000
31.000000, 0.000000, 4199.487305, 4223.589844, 4189.743652, 4204.615234, 4207.179199, 4205.641113, 4197.948730, 4199.487305, 4193.333008, 4195.384277, 4200.512695, 4175.897461, 4198.461426, 4201.025391, 0.000000, 8085.000000, 8070.000000, 0.000000, 0.000000, 0.000000, 23624.000000, 904.102539, 4.000000, 4.000000, 4.000000, 4.000000, 4.000000, 4.000000, 4.000000, 3.000000, 4.000000, 4.000000, 4.000000, 4.000000, 4.000000, 4.000000, 4.000000, 4.000000
32.000000, 0.000000, 4218.461426, 4230.256348, 4192.307617, 4207.692383, 4206.666504, 4201.025391, 4196.410156, 4204.102539, 4188.205078, 4189.743652, 4191.281738, 4172.820313, 4192.307617, 4196.922852, 0.000000, 8085.000000, 8070.000000, 0.000000, 0.000000, 0.000000, 23624.000000, 911.794861, 4.000000, 4.000000, 4.000000, 4.000000, 4.000000, 4.000000, 4.000000, 3.000000, 4.000000, 4.000000, 4.000000, 4.000000, 4.000000, 4.000000, 4.000000, 4.000000
33.000000, 0.000000, 4256.410156, 4216.410156, 4195.897461, 4207.179199, 4203.589844, 4201.025391, 4197.948730, 4214.358887, 4182.563965, 4178.461426, 4177.948730, 4164.615234, 4177.948730, 4195.384277, 0.000000, 8082.000000, 8084.000000, 0.000000, 0.000000, 0.000000, 23624.000000, 920.000000, 4.000000, 4.000000, 4.000000, 4.000000, 4.000000, 4.000000, 4.000000, 3.000000, 4.000000, 4.000000, 4.000000, 4.000000, 4.000000, 4.000000, 4.000000, 4.000000
34.000000, 0.000000, 4230.256348, 4195.384277, 4198.461426, 4203.589844, 4202.563965, 4205.127930, 4192.307617, 4209.230469, 4184.102539, 4181.538574, 4182.563965, 4166.153809, 4179.487305, 4197.948730, 0.000000, 8082.000000, 8084.000000, 0.000000, 0.000000, 0.000000, 23624.000000, 927.692261, 4.000000, 4.000000, 4.000000, 4.000000, 4.000000, 4.000000, 4.000000, 3.000000, 4.000000, 4.000000, 4.000000, 4.000000, 4.000000, 4.000000, 4.000000, 4.000000
35.000000, 0.000000, 4199.487305, 4199.487305, 4198.974121, 4205.127930, 4201.538574, 4205.641113, 4192.307617, 4198.974121, 4186.666504, 4185.641113, 4197.948730, 4172.307617, 4198.974121, 4204.102539, 0.000000, 8086.000000, 8098.000000, 0.000000, 0.000000, 0.000000, 23624.000000, 935.897400, 4.000000, 4.000000, 4.000000, 4.000000, 4.000000, 4.000000, 4.000000, 3.000000, 4.000000, 4.000000, 4.000000, 4.000000, 4.000000, 4.000000, 4.000000, 4.000000
36.000000, 0.000000, 4202.563965, 4205.127930, 4200.000000, 4204.615234, 4197.948730, 4202.051270, 4196.922852, 4200.000000, 4183.589844, 4182.051270, 4201.025391, 4177.948730, 4204.615234, 4205.641113, 0.000000, 8086.000000, 8098.000000, 0.000000, 0.000000, 0.000000, 23624.000000, 943.589722, 4.000000, 4.000000, 4.000000, 4.000000, 4.000000, 4.000000, 4.000000, 3.000000, 4.000000, 4.000000, 4.000000, 4.000000, 4.000000, 4.000000, 4.000000, 4.000000
37.000000, 0.000000, 4202.563965, 4192.820313, 4200.512695, 4196.410156, 4188.205078, 4200.512695, 4192.820313, 4203.076660, 4182.051270, 4187.179199, 4198.974121, 4183.076660, 4200.512695, 4209.743652, 0.000000, 8085.000000, 8109.000000, 0.000000, 0.000000, 0.000000, 23624.000000, 951.794861, 4.000000, 4.000000, 4.000000, 4.000000, 4.000000, 4.000000, 4.000000, 3.000000, 4.000000, 4.000000, 4.000000, 4.000000, 4.000000, 4.000000, 4.000000, 4.000000
38.000000, 0.000000, 4200.512695, 4180.000000, 4200.512695, 4190.769043, 4180.000000, 4200.512695, 4191.281738, 4201.025391, 4191.281738, 4198.461426, 4208.205078, 4189.743652, 4209.230469, 4218.974121, 0.000000, 8085.000000, 8109.000000, 0.000000, 0.000000, 0.000000, 23624.000000, 959.487183, 4.000000, 4.000000, 4.000000, 4.000000, 4.000000, 4.000000, 4.000000, 3.000000, 4.000000, 4.000000, 4.000000, 4.000000, 4.000000, 4.000000, 4.000000, 4.000000
39.000000, 0.000000, 4201.025391, 4177.948730, 4206.666504, 4195.897461, 4188.717773, 4203.589844, 4196.410156, 4201.025391, 4200.000000, 4202.051270, 4222.563965, 4196.922852, 4220.512695, 4224.102539, 0.000000, 8095.000000, 8127.000000, 0.000000, 0.000000, 0.000000, 23624.000000, 967.692261, 4.000000, 4.000000, 4.000000, 4.000000, 4.000000, 4.000000, 4.000000, 3.000000, 4.000000, 4.000000, 4.000000, 4.000000, 4.000000, 4.000000, 4.000000, 4.000000
40.000000, 0.000000, 4205.641113, 4173.333008, 4216.410156, 4198.974121, 4201.025391, 4211.794922, 4188.717773, 4206.153809, 4200.000000, 4200.512695, 4232.307617, 4202.563965, 4222.051270, 4226.153809, 0.000000, 8095.000000, 8127.000000, 0.000000, 0.000000, 0.000000, 23624.000000, 975.897400, 4.000000, 4.000000, 4.000000, 4.000000, 4.000000, 4.000000, 4.000000, 3.000000, 4.000000, 4.000000, 4.000000, 4.000000, 4.000000, 4.000000, 4.000000, 4.000000
41.000000, 0.000000, 4204.102539, 4164.102539, 4219.487305, 4194.358887, 4202.051270, 4218.461426, 4173.846191, 4205.641113, 4207.692383, 4206.153809, 4236.410156, 4204.102539, 4219.487305, 4226.666504, 0.000000, 8103.000000, 8137.000000, 0.000000, 0.000000, 0.000000, 23624.000000, 983.589722, 4.000000, 4.000000, 4.000000, 4.000000, 4.000000, 4.000000, 4.000000, 3.000000, 4.000000, 4.000000, 4.000000, 4.000000, 4.000000, 4.000000, 4.000000, 4.000000
42.000000, 0.000000, 4202.563965, 4157.948730, 4214.871582, 4187.692383, 4194.871582, 4212.307617, 4172.307617, 4204.102539, 4216.922852, 4207.179199, 4233.333008, 4203.076660, 4214.871582, 4220.000000, 0.000000, 8103.000000, 8137.000000, 0.000000, 0.000000, 0.000000, 23624.000000, 991.794861, 4.000000, 4.000000, 4.000000, 4.000000, 4.000000, 4.000000, 4.000000, 3.000000, 4.000000, 4.000000, 4.000000, 4.000000, 4.000000, 4.000000, 4.000000, 4.000000
43.000000, 0.000000, 4202.563965, 4156.410156, 4212.307617, 4187.692383, 4188.717773, 4205.641113, 4174.358887, 4206.153809, 4207.692383, 4201.538574, 4229.230469, 4200.000000, 4213.846191, 4213.846191, 0.000000, 8125.000000, 8160.000000, 0.000000, 0.000000, 0.000000, 23624.000000, 999.487183, 4.000000, 4.000000, 4.000000, 4.000000, 4.000000, 4.000000, 4.000000, 3.000000, 4.000000, 4.000000, 4.000000, 4.000000, 4.000000, 4.000000, 4.000000, 4.000000
44.000000, 0.000000, 4201.025391, 4157.436035, 4213.846191, 4194.358887, 4193.846191, 4211.794922, 4173.333008, 4205.641113, 4197.948730, 4206.666504, 4231.794922, 4198.461426, 4212.820313, 4211.794922, 0.000000, 8125.000000, 8160.000000, 0.000000, 0.000000, 0.000000, 23625.000000, 7.692307, 4.000000, 4.000000, 4.000000, 4.000000, 4.000000, 4.000000, 4.000000, 3.000000, 4.000000, 4.000000, 4.000000, 4.000000, 4.000000, 4.000000, 4.000000, 4.000000
45.000000, 0.000000, 4203.076660, 4161.025391, 4213.333008, 4196.922852, 4199.487305, 4215.384277, 4175.897461, 4207.692383, 4206.666504, 4216.922852, 4233.846191, 4208.717773, 4209.230469, 4214.358887, 0.000000, 8139.000000, 8166.000000, 0.000000, 0.000000, 0.000000, 23625.000000, 15.384615, 4.000000, 4.000000, 4.000000, 4.000000, 4.000000, 4.000000, 4.000000, 3.000000, 4.000000, 4.000000, 4.000000, 4.000000, 4.000000, 4.000000, 4.000000, 4.000000
46.000000, 0.000000, 4200.000000, 4167.179199, 4214.871582, 4192.820313, 4188.205078, 4206.153809, 4177.948730, 4208.205078, 4216.922852, 4218.974121, 4233.846191, 4214.871582, 4208.205078, 4215.384277, 0.000000, 8139.000000, 8166.000000, 0.000000, 0.000000, 0.000000, 23625.000000, 23.589743, 4.000000, 4.000000, 4.000000, 4.000000, 4.000000, 4.000000, 4.000000, 3.000000, 4.000000, 4.000000, 4.000000, 4.000000, 4.000000, 4.000000, 4.000000, 4.000000
47.000000, 0.000000, 4199.487305, 4168.717773, 4213.846191, 4188.717773, 4183.076660, 4201.538574, 4177.436035, 4206.153809, 4216.922852, 4216.410156, 4231.794922, 4207.179199, 4206.666504, 4210.769043, 0.000000, 8177.000000, 8175.000000, 0.000000, 0.000000, 0.000000, 23625.000000, 31.282051, 4.000000, 4.000000, 4.000000, 4.000000, 4.000000, 4.000000, 4.000000, 3.000000, 4.000000, 4.000000, 4.000000, 4.000000, 4.000000, 4.000000, 4.000000, 4.000000
48.000000, 0.000000, 4202.051270, 4166.153809, 4207.692383, 4188.717773, 4196.922852, 4203.076660, 4175.897461, 4206.153809, 4214.871582, 4214.358887, 4230.256348, 4201.025391, 4202.563965, 4208.717773, 0.000000, 8177.000000, 8175.000000, 0.000000, 0.000000, 0.000000, 23625.000000, 39.487179, 4.000000, 4.000000, 4.000000, 4.000000, 4.000000, 4.000000, 4.000000, 3.000000, 4.000000, 4.000000, 4.000000, 4.000000, 4.000000, 4.000000, 4.000000, 4.000000
49.000000, 0.000000, 4202.051270, 4167.179199, 4201.538574, 4191.794922, 4202.051270, 4199.487305, 4174.871582, 4205.641113, 4214.871582, 4215.384277, 4229.230469, 4202.051270, 4200.000000, 4208.717773, 0.000000, 8193.000000, 8165.000000, 0.000000, 0.000000, 0.000000, 23625.000000, 47.692307, 4.000000, 4.000000, 4.000000, 4.000000, 4.000000, 4.000000, 4.000000, 3.000000, 4.000000, 4.000000, 4.000000, 4.000000, 4.000000, 4.000000, 4.000000, 4.000000
50.000000, 0.000000, 4203.076660, 4168.717773, 4200.512695, 4190.769043, 4194.871582, 4197.948730, 4176.922852, 4205.641113, 4212.307617, 4211.794922, 4226.666504, 4201.538574, 4199.487305, 4207.179199, 0.000000, 8193.000000, 8165.000000, 0.000000, 0.000000, 0.000000, 23625.000000, 55.384613, 4.000000, 4.000000, 4.000000, 4.000000, 4.000000, 4.000000, 4.000000, 3.000000, 4.000000, 4.000000, 4.000000, 4.000000, 4.000000, 4.000000, 4.000000, 4.000000
51.000000, 0.000000, 4196.922852, 4167.179199, 4202.051270, 4186.153809, 4192.820313, 4202.051270, 4177.948730, 4205.127930, 4206.666504, 4203.589844, 4225.641113, 4199.487305, 4198.461426, 4205.127930, 0.000000, 8210.000000, 8159.000000, 0.000000, 0.000000, 0.000000, 23625.000000, 63.589741, 4.000000, 4.000000, 4.000000, 4.000000, 4.000000, 4.000000, 4.000000, 3.000000, 4.000000, 4.000000, 4.000000, 4.000000, 4.000000, 4.000000, 4.000000, 4.000000
52.000000, 0.000000, 4198.974121, 4166.153809, 4200.512695, 4183.589844, 4198.461426, 4202.051270, 4177.948730, 4207.179199, 4206.666504, 4202.563965, 4229.743652, 4201.538574, 4200.512695, 4207.692383, 0.000000, 8210.000000, 8159.000000, 0.000000, 0.000000, 0.000000, 23625.000000, 71.282051, 4.000000, 4.000000, 4.000000, 4.000000, 4.000000, 4.000000, 4.000000, 3.000000, 4.000000, 4.000000, 4.000000, 4.000000, 4.000000, 4.000000, 4.000000, 4.000000
53.000000, 0.000000, 4203.589844, 4168.205078, 4199.487305, 4185.641113, 4203.589844, 4201.025391, 4178.461426, 4207.179199, 4211.794922, 4211.794922, 4231.794922, 4202.051270, 4202.563965, 4211.281738, 0.000000, 8238.000000, 8147.000000, 0.000000, 0.000000, 0.000000, 23625.000000, 79.487175, 4.000000, 4.000000, 4.000000, 4.000000, 4.000000, 4.000000, 4.000000, 3.000000, 4.000000, 4.000000, 4.000000, 4.000000, 4.000000, 4.000000, 4.000000, 4.000000
54.000000, 0.000000, 4200.512695, 4170.256348, 4197.436035, 4186.153809, 4200.512695, 4201.025391, 4183.589844, 4205.641113, 4218.461426, 4222.563965, 4230.769043, 4200.512695, 4201.025391, 4210.256348, 0.000000, 8238.000000, 8147.000000, 0.000000, 0.000000, 0.000000, 23625.000000, 87.179482, 4.000000, 4.000000, 4.000000, 4.000000, 4.000000, 4.000000, 4.000000, 3.000000, 4.000000, 4.000000, 4.000000, 4.000000, 4.000000, 4.000000, 4.000000, 4.000000
55.000000, 0.000000, 4203.589844, 4170.256348, 4193.846191, 4185.127930, 4196.922852, 4202.051270, 4188.205078, 4207.692383, 4225.127930, 4228.717773, 4232.820313, 4196.410156, 4204.102539, 4210.256348, 0.000000, 8251.000000, 8142.000000, 1.000000, 2.000000, 0.000000, 23625.000000, 95.384613, 4.000000, 4.000000, 4.000000, 4.000000, 4.000000, 4.000000, 4.000000, 3.000000, 4.000000, 4.000000, 4.000000, 4.000000, 4.000000, 4.000000, 4.000000, 4.000000
56.000000, 0.000000, 4200.000000, 4169.743652, 4186.153809, 4184.615234, 4192.307617, 4202.051270, 4180.000000, 4207.692383, 4222.051270, 4224.615234, 4226.666504, 4187.692383, 4201.538574, 4206.153809, 0.000000, 8251.000000, 8142.000000, 0.000000, 0.000000, 0.000000, 23625.000000, 103.076920, 4.000000, 4.000000, 4.000000, 4.000000, 4.000000, 4.000000, 4.000000, 3.000000, 4.000000, 4.000000, 4.000000, 4.000000, 4.000000, 4.000000, 4.000000, 4.000000
57.000000, 0.000000, 4201.025391, 4171.281738, 4181.538574, 4184.615234, 4189.743652, 4200.512695, 4170.256348, 4206.153809, 4216.410156, 4214.871582, 4217.436035, 4181.538574, 4192.307617, 4203.076660, 0.000000, 8264.000000, 8164.000000, 0.000000, 0.000000, 0.000000, 23625.000000, 111.282051, 4.000000, 4.000000, 4.000000, 4.000000, 4.000000, 4.000000, 4.000000, 3.000000, 4.000000, 4.000000, 4.000000, 4.000000, 4.000000, 4.000000, 4.000000, 4.000000
58.000000, 0.000000, 4205.641113, 4171.281738, 4190.769043, 4186.153809, 4197.436035, 4200.512695, 4172.307617, 4205.641113, 4215.897461, 4215.384277, 4221.025391, 4188.205078, 4188.205078, 4208.205078, 0.000000, 8264.000000, 8164.000000, 0.000000, 0.000000, 0.000000, 23625.000000, 119.487175, 4.000000, 4.000000, 4.000000, 4.000000, 4.000000, 4.000000, 4.000000, 3.000000, 4.000000, 4.000000, 4.000000, 4.000000, 4.000000, 4.000000, 4.000000, 4.000000
59.000000, 0.000000, 4198.461426, 4170.769043, 4198.974121, 4188.205078, 4202.563965, 4202.051270, 4179.487305, 4205.641113, 4210.769043, 4213.846191, 4223.076660, 4194.871582, 4187.179199, 4208.717773, 0.000000, 8272.000000, 8175.000000, 0.000000, 0.000000, 0.000000, 23625.000000, 127.179482, 4.000000, 4.000000, 4.000000, 4.000000, 4.000000, 4.000000, 4.000000, 3.000000, 4.000000, 4.000000, 4.000000, 4.000000, 4.000000, 4.000000, 4.000000, 4.000000
60.000000, 0.000000, 4197.436035, 4168.717773, 4192.820313, 4190.256348, 4192.820313, 4202.563965, 4181.025391, 4204.615234, 4201.025391, 4202.563965, 4217.948730, 4191.794922, 4185.641113, 4203.076660, 0.000000, 8272.000000, 8175.000000, 0.000000, 0.000000, 0.000000, 23625.000000, 135.384613, 4.000000, 4.000000, 4.000000, 4.000000, 4.000000, 4.000000, 4.000000, 3.000000, 4.000000, 4.000000, 4.000000, 4.000000, 4.000000, 4.000000, 4.000000, 4.000000
61.000000, 0.000000, 4197.436035, 4160.512695, 4185.641113, 4182.563965, 4183.076660, 4195.897461, 4176.410156, 4202.051270, 4195.897461, 4194.358887, 4211.281738, 4183.076660, 4186.666504, 4198.461426, 0.000000, 8273.000000, 8186.000000, 0.000000, 0.000000, 0.000000, 23625.000000, 143.076920, 4.000000, 4.000000, 4.000000, 4.000000, 4.000000, 4.000000, 4.000000, 3.000000, 4.000000, 4.000000, 4.000000, 4.000000, 4.000000, 4.000000, 4.000000, 4.000000
62.000000, 0.000000, 4198.974121, 4150.256348, 4185.127930, 4171.281738, 4184.102539, 4188.205078, 4171.794922, 4203.589844, 4193.846191, 4191.794922, 4205.127930, 4175.384277, 4185.127930, 4198.461426, 0.000000, 8273.000000, 8186.000000, 0.000000, 0.000000, 0.000000, 23625.000000, 151.282043, 4.000000, 4.000000, 4.000000, 4.000000, 4.000000, 4.000000, 4.000000, 3.000000, 4.000000, 4.000000, 4.000000, 4.000000, 4.000000, 4.000000, 4.000000, 4.000000
63.000000, 0.000000, 4200.512695, 4151.794922, 4186.666504, 4175.897461, 4184.615234, 4193.333008, 4174.358887, 4205.127930, 4197.948730, 4196.410156, 4206.153809, 4175.384277, 4184.102539, 4202.051270, 0.000000, 8259.000000, 8195.000000, 0.000000, 0.000000, 0.000000, 23625.000000, 158.974350, 4.000000, 4.000000, 4.000000, 4.000000, 4.000000, 4.000000, 4.000000, 3.000000, 4.000000, 4.000000, 4.000000, 4.000000, 4.000000, 4.000000, 4.000000, 4.000000
64.000000, 0.000000, 4197.948730, 4156.922852, 4190.769043, 4188.205078, 4186.153809, 4203.076660, 4178.974121, 4204.615234, 4203.076660, 4201.538574, 4216.410156, 4185.641113, 4186.153809, 4207.692383, 3538.000000, 8259.000000, 8195.000000, 0.000000, 0.000000, 0.000000, 23625.000000, 167.179489, 4.000000, 4.000000, 4.000000, 4.000000, 4.000000, 4.000000, 4.000000, 3.000000, 4.000000, 4.000000, 4.000000, 4.000000, 4.000000, 4.000000, 4.000000, 4.000000
65.000000, 0.000000, 4202.563965, 4157.436035, 4198.974121, 4185.127930, 4191.794922, 4201.025391, 4178.974121, 4205.127930, 4200.000000, 4200.000000, 4217.948730, 4193.333008, 4189.743652, 4212.820313, 3535.000000, 8251.000000, 8196.000000, 0.000000, 0.000000, 0.000000, 23625.000000, 175.384613, 4.000000, 4.000000, 4.000000, 4.000000, 4.000000, 4.000000, 4.000000, 3.000000, 4.000000, 4.000000, 4.000000, 4.000000, 4.000000, 4.000000, 4.000000, 4.000000
66.000000, 0.000000, 4203.589844, 4164.102539, 4203.076660, 4181.538574, 4199.487305, 4199.487305, 4180.512695, 4204.615234, 4201.538574, 4200.512695, 4217.948730, 4192.307617, 4192.820313, 4214.358887, 1784.000000, 8251.000000, 8196.000000, 0.000000, 0.000000, 0.000000, 23625.000000, 183.076920, 4.000000, 4.000000, 4.000000, 4.000000, 4.000000, 4.000000, 4.000000, 3.000000, 4.000000, 4.000000, 4.000000, 4.000000, 4.000000, 4.000000, 4.000000, 4.000000
67.000000, 0.000000, 4202.051270, 4170.256348, 4202.563965, 4193.846191, 4197.436035, 4208.205078, 4188.205078, 4206.153809, 4212.820313, 4204.102539, 4226.153809, 4188.205078, 4195.384277, 4211.794922, 3560.000000, 8226.000000, 8204.000000, 0.000000, 0.000000, 0.000000, 23625.000000, 191.282043, 4.000000, 4.000000, 4.000000, 4.000000, 4.000000, 4.000000, 4.000000, 3.000000, 4.000000, 4.000000, 4.000000, 4.000000, 4.000000, 4.000000, 4.000000, 4.000000
68.000000, 0.000000, 4203.589844, 4166.666504, 4202.051270, 4200.000000, 4189.230469, 4209.743652, 4188.717773, 4207.692383, 4217.948730, 4202.563965, 4224.615234, 4184.615234, 4194.871582, 4208.205078, 3349.000000, 8226.000000, 8204.000000, 0.000000, 0.000000, 0.000000, 23625.000000, 198.974350, 4.000000, 4.000000, 4.000000, 4.000000, 4.000000, 4.000000, 4.000000, 3.000000, 4.000000, 4.000000, 4.000000, 4.000000, 4.000000, 4.000000, 4.000000, 4.000000
69.000000, 0.000000, 4201.025391, 4167.179199, 4204.615234, 4193.846191, 4195.897461, 4205.127930, 4185.127930, 4205.127930, 4211.281738, 4201.025391, 4224.102539, 4191.794922, 4192.307617, 4208.717773, 3573.000000, 8212.000000, 8209.000000, 0.000000, 0.000000, 0.000000, 23625.000000, 207.179489, 4.000000, 4.000000, 4.000000, 4.000000, 4.000000, 4.000000, 4.000000, 3.000000, 4.000000, 4.000000, 4.000000, 4.000000, 4.000000, 4.000000, 4.000000, 4.000000
70.000000, 0.000000, 4203.589844, 4173.333008, 4206.153809, 4188.205078, 4206.666504, 4203.076660, 4186.666504, 4205.127930, 4203.076660, 4201.538574, 4233.333008, 4202.563965, 4190.256348, 4211.794922, 3045.000000, 8212.000000, 8209.000000, 0.000000, 0.000000, 0.000000, 23625.000000, 214.871796, 4.000000, 4.000000, 4.000000, 4.000000, 4.000000, 4.000000, 4.000000, 3.000000, 4.000000, 4.000000, 4.000000, 4.000000, 4.000000, 4.000000, 4.000000, 4.000000
71.000000, 0.000000, 4205.641113, 4171.281738, 4203.076660, 4186.153809, 4195.384277, 4202.563965, 4183.589844, 4204.615234, 4200.512695, 4197.436035, 4235.384277, 4199.487305, 4190.769043, 4211.281738, 434.000000, 8203.000000, 8213.000000, 0.000000, 0.000000, 0.000000, 23625.000000, 223.076920, 4.000000, 4.000000, 4.000000, 4.000000, 4.000000, 4.000000, 4.000000, 4.000000, 4.000000, 4.000000, 4.000000, 4.000000, 4.000000, 4.000000, 4.000000, 4.000000
72.000000, 0.000000, 4204.615234, 4167.179199, 4203.076660, 4192.820313, 4190.769043, 4208.205078, 4184.102539, 4203.076660, 4200.000000, 4196.922852, 4229.743652, 4192.307617, 4191.281738, 4207.179199, 3528.000000, 8203.000000, 8213.000000, 0.000000, 0.000000, 0.000000, 23625.000000, 230.769226, 4.000000, 4.000000, 4.000000, 4.000000, 4.000000, 4.000000, 4.000000, 4.000000, 4.000000, 4.000000, 4.000000, 4.000000, 4.000000, 4.000000, 4.000000, 4.000000
73.000000, 0.000000, 4205.127930, 4172.820313, 4207.179199, 4198.461426, 4201.538574, 4214.358887, 4192.820313, 4207.692383, 4202.563965, 4202.563965, 4227.692383, 4192.307617, 4190.256348, 4204.102539, 3540.000000, 8186.000000, 8222.000000, 0.000000, 0.000000, 0.000000, 23625.000000, 238.974350, 4.000000, 4.000000, 4.000000, 4.000000, 4.000000, 4.000000, 4.000000, 4.000000, 4.000000, 4.000000, 4.000000, 4.000000, 4.000000, 4.000000, 4.000000, 4.000000
74.000000, 0.000000, 4199.487305, 4168.205078, 4200.512695, 4191.794922, 4193.846191, 4208.205078, 4199.487305, 4209.230469, 4208.205078, 4203.589844, 4228.205078, 4188.205078, 4187.692383, 4201.538574, 2502.000000, 8186.000000, 8222.000000, 0.000000, 0.000000, 0.000000, 23625.000000, 247.179474, 4.000000, 4.000000, 4.000000, 4.000000, 4.000000, 4.000000, 4.000000, 4.000000, 4.000000, 4.000000, 4.000000, 4.000000, 4.000000, 4.000000, 4.000000, 4.000000
75.000000, 0.000000, 4203.589844, 4152.820313, 4187.179199, 4182.563965, 4183.589844, 4197.948730, 4198.974121, 4205.641113, 4210.769043, 4198.974121, 4224.615234, 4181.025391, 4185.641113, 4203.076660, 2999.000000, 8175.000000, 8235.000000, 0.000000, 0.000000, 0.000000, 23625.000000, 254.871796, 4.000000, 4.000000, 4.000000, 4.000000, 4.000000, 4.000000, 4.000000, 4.000000, 4.000000, 4.000000, 4.000000, 4.000000, 4.000000, 4.000000, 4.000000, 4.000000
76.000000, 0.000000, 4206.153809, 4156.410156, 4183.076660, 4187.179199, 4197.948730, 4202.051270, 4197.436035, 4205.127930, 4213.333008, 4204.102539, 4223.076660, 4181.025391, 4188.717773, 4203.589844, 3498.000000, 8175.000000, 8235.000000, 0.000000, 0.000000, 0.000000, 23625.000000, 263.076904, 4.000000, 4.000000, 4.000000, 4.000000, 4.000000, 4.000000, 4.000000, 4.000000, 4.000000, 4.000000, 4.000000, 4.000000, 4.000000, 4.000000, 4.000000, 4.000000
77.000000, 0.000000, 4203.589844, 4174.358887, 4192.307617, 4189.743652, 4209.230469, 4212.820313, 4204.102539, 4207.692383, 4219.487305, 4212.820313, 4229.230469, 4186.153809, 4198.974121, 4207.692383, 3520.000000, 8156.000000, 8244.000000, 0.000000, 0.000000, 0.000000, 23625.000000, 270.769226, 4.000000, 4.000000, 4.000000, 4.000000, 4.000000, 4.000000, 4.000000, 4.000000, 4.000000, 4.000000, 4.000000, 4.000000, 4.000000, 4.000000, 4.000000, 4.000000
78.000000, 0.000000, 4207.179199, 4173.333008, 4202.051270, 4186.153809, 4198.461426, 4214.871582, 4208.717773, 4206.153809, 4218.461426, 4205.127930, 4234.358887, 4193.333008, 4202.051270, 4214.871582, 2502.000000, 8156.000000, 8244.000000, 0.000000, 0.000000, 0.000000, 23625.000000, 278.461517, 4.000000, 4.000000, 4.000000, 4.000000, 4.000000, 4.000000, 4.000000, 4.000000, 4.000000, 4.000000, 4.000000, 4.000000, 4.000000, 4.000000, 4.000000, 4.000000
79.000000, 0.000000, 4204.615234, 4162.563965, 4204.102539, 4192.307617, 4198.461426, 4214.871582, 4205.127930, 4206.153809, 4218.461426, 4203.589844, 4236.410156, 4201.025391, 4197.948730, 4213.846191, 2999.000000, 8150.000000, 8249.000000, 0.000000, 0.000000, 0.000000, 23625.000000, 286.666656, 4.000000, 4.000000, 4.000000, 4.000000, 4.000000, 4.000000, 4.000000, 4.000000, 4.000000, 4.000000, 4.000000, 4.000000, 4.000000, 4.000000, 4.000000, 4.000000
80.000000, 0.000000, 4206.666504, 4178.461426, 4203.589844, 4201.538574, 4210.256348, 4218.974121, 4202.051270, 4206.153809, 4227.179199, 4218.461426, 4240.000000, 4203.076660, 4200.512695, 4216.410156, 3498.000000, 8150.000000, 8249.000000, 0.000000, 0.000000, 0.000000, 23625.000000, 294.871796, 4.000000, 4.000000, 4.000000, 4.000000, 4.000000, 4.000000, 4.000000, 4.000000, 4.000000, 4.000000, 4.000000, 4.000000, 4.000000, 4.000000, 4.000000, 4.000000
81.000000, 0.000000, 4207.179199, 4191.281738, 4201.025391, 4204.102539, 4196.410156, 4213.333008, 4199.487305, 4199.487305, 4221.538574, 4215.897461, 4238.461426, 4194.358887, 4200.512695, 4218.461426, 3520.000000, 8142.000000, 8262.000000, 0.000000, 0.000000, 0.000000, 23625.000000, 302.564087, 4.000000, 4.000000, 4.000000, 4.000000, 4.000000, 4.000000, 4.000000, 4.000000, 4.000000, 4.000000, 4.000000, 4.000000, 4.000000, 4.000000, 4.000000, 4.000000
82.000000, 0.000000, 4201.025391, 4165.127930, 4201.025391, 4198.461426, 4184.102539, 4208.205078, 4201.025391, 4200.000000, 4213.333008, 4206.666504, 4232.820313, 4189.743652, 4195.897461, 4210.256348, 2502.000000, 8142.000000, 8262.000000, 0.000000, 0.000000, 0.000000, 23625.000000, 310.256409, 4.000000, 4.000000, 4.000000, 4.000000, 4.000000, 4.000000, 4.000000, 4.000000, 4.000000, 4.000000, 4.000000, 4.000000, 4.000000, 4.000000, 4.000000, 4.000000
83.000000, 0.000000, 4203.589844, 4157.436035, 4205.127930, 4196.410156, 4201.025391, 4213.333008, 4203.589844, 4207.179199, 4221.025391, 4214.871582, 4232.307617, 4196.922852, 4194.358887, 4206.666504, 2999.000000, 8142.000000, 8265.000000, 0.000000, 0.000000, 0.000000, 23625.000000, 318.461517, 4.000000, 4.000000, 4.000000, 4.000000, 4.000000, 4.000000, 4.000000, 4.000000, 4.000000, 4.000000, 4.000000, 4.000000, 4.000000, 4.000000, 4.000000, 4.000000
84.000000, 0.000000, 4209.230469, 4194.358887, 4212.307617, 4204.615234, 4217.436035, 4217.948730, 4202.563965, 4205.641113, 4223.589844, 4222.563965, 4236.922852, 4205.641113, 4200.512695, 4212.307617, 3498.000000, 8142.000000, 8265.000000, 0.000000, 0.000000, 0.000000, 23625.000000, 326.153839, 4.000000, 4.000000, 4.000000, 4.000000, 4.000000, 4.000000, 4.000000, 4.000000, 4.000000, 4.000000, 4.000000, 4.000000, 4.000000, 4.000000, 4.000000, 4.000000
85.000000, 0.000000, 4217.948730, 4218.461426, 4224.615234, 4217.948730, 4212.307617, 4211.281738, 4198.974121, 4203.589844, 4217.436035, 4222.563965, 4243.589844, 4213.846191, 4213.333008, 4222.051270, 3520.000000, 8148.000000, 8267.000000, 0.000000, 0.000000, 0.000000, 23625.000000, 333.846161, 4.000000, 4.000000, 4.000000, 4.000000, 4.000000, 4.000000, 4.000000, 4.000000, 4.000000, 4.000000, 4.000000, 4.000000, 4.000000, 4.000000, 4.000000, 4.000000
86.000000, 0.000000, 4220.000000, 4221.538574, 4232.307617, 4228.205078, 4206.153809, 4205.127930, 4194.871582, 4204.615234, 4218.974121, 4218.461426, 4245.127930, 4219.487305, 4215.384277, 4228.717773, 2502.000000, 8148.000000, 8267.000000, 0.000000, 0.000000, 0.000000, 23625.000000, 342.051270, 4.000000, 4.000000, 4.000000, 4.000000, 4.000000, 4.000000, 4.000000, 4.000000, 4.000000, 4.000000, 4.000000, 4.000000, 4.000000, 4.000000, 4.000000, 4.000000
87.000000, 0.000000, 4213.333008, 4238.974121, 4231.281738, 4230.256348, 4207.179199, 4205.127930, 4190.256348, 4204.615234, 4216.922852, 4203.589844, 4236.410156, 4212.820313, 4204.102539, 4228.205078, 2999.000000, 8157.000000, 8269.000000, 0.000000, 0.000000, 0.000000, 23625.000000, 349.743591, 4.000000, 4.000000, 4.000000, 4.000000, 4.000000, 4.000000, 4.000000, 4.000000, 4.000000, 4.000000, 4.000000, 4.000000, 4.000000, 4.000000, 4.000000, 4.000000
88.000000, 0.000000, 4214.358887, 4253.846191, 4227.179199, 4229.230469, 4205.641113, 4204.102539, 4186.153809, 4205.127930, 4208.717773, 4197.948730, 4229.743652, 4200.512695, 4198.974121, 4227.692383, 3498.000000, 8157.000000, 8269.000000, 0.000000, 0.000000, 0.000000, 23625.000000, 357.948700, 4.000000, 4.000000, 4.000000, 4.000000, 4.000000, 4.000000, 4.000000, 4.000000, 4.000000, 4.000000, 4.000000, 4.000000, 4.000000, 4.000000, 4.000000, 4.000000
89.000000, 0.000000, 4211.794922, 4257.948730, 4224.102539, 4230.769043, 4205.127930, 4201.025391, 4186.153809, 4208.205078, 4211.794922, 4206.153809, 4233.333008, 4200.512695, 4201.025391, 4227.179199, 3520.000000, 8164.000000, 8277.000000, 0.000000, 0.000000, 0.000000, 23625.000000, 366.153839, 4.000000, 4.000000, 4.000000, 4.000000, 4.000000, 4.000000, 4.000000, 4.000000, 4.000000, 4.000000, 4.000000, 4.000000, 4.000000, 4.000000, 4.000000, 4.000000
90.000000, 0.000000, 4209.230469, 4269.743652, 4219.487305, 4232.307617, 4205.127930, 4200.512695, 4186.666504, 4206.153809, 4215.384277, 4206.153809, 4232.820313, 4200.000000, 4202.051270, 4223.076660, 2502.000000, 8164.000000, 8277.000000, 0.000000, 0.000000, 0.000000, 23625.000000, 373.846130, 4.000000, 4.000000, 4.000000, 4.000000, 4.000000, 4.000000, 4.000000, 4.000000, 4.000000, 4.000000, 4.000000, 4.000000, 4.000000, 4.000000, 4.000000, 4.000000
91.000000, 0.000000, 4209.230469, 4272.820313, 4215.384277, 4229.743652, 4203.076660, 4203.076660, 4186.666504, 4198.974121, 4207.179199, 4195.897461, 4222.051270, 4191.794922, 4198.461426, 4217.436035, 2999.000000, 8194.000000, 8252.000000, 0.000000, 0.000000, 0.000000, 23625.000000, 381.538452, 4.000000, 4.000000, 4.000000, 4.000000, 4.000000, 4.000000, 4.000000, 4.000000, 4.000000, 4.000000, 4.000000, 4.000000, 4.000000, 4.000000, 4.000000, 4.000000
92.000000, 0.000000, 4205.641113, 4264.102539, 4213.333008, 4225.641113, 4199.487305, 4200.512695, 4184.615234, 4198.461426, 4196.922852, 4191.281738, 4211.281738, 4190.256348, 4190.256348, 4209.230469, 3498.000000, 8194.000000, 8252.000000, 0.000000, 0.000000, 0.000000, 23625.000000, 389.230774, 4.000000, 4.000000, 4.000000, 4.000000, 4.000000, 4.000000, 4.000000, 4.000000, 4.000000, 4.000000, 4.000000, 4.000000, 4.000000, 4.000000, 4.000000, 4.000000
93.000000, 0.000000, 4211.794922, 4266.153809, 4216.410156, 4228.205078, 4202.051270, 4197.948730, 4182.563965, 4204.102539, 4202.051270, 4196.922852, 4212.820313, 4197.948730, 4193.846191, 4208.205078, 3520.000000, 8206.000000, 8246.000000, 0.000000, 0.000000, 0.000000, 23625.000000, 397.435883, 4.000000, 4.000000, 4.000000, 4.000000, 4.000000, 4.000000, 4.000000, 4.000000, 4.000000, 4.000000, 4.000000, 4.000000, 4.000000, 4.000000, 4.000000, 4.000000
94.000000, 0.000000, 4209.743652, 4270.769043, 4222.563965, 4230.256348, 4207.179199, 4204.102539, 4185.641113, 4205.641113, 4213.333008, 4202.563965, 4218.461426, 4204.102539, 4205.641113, 4211.281738, 2502.000000, 8206.000000, 8246.000000, 0.000000, 0.000000, 0.000000, 23625.000000, 405.128204, 4.000000, 4.000000, 4.000000, 4.000000, 4.000000, 4.000000, 4.000000, 4.000000, 4.000000, 4.000000, 4.000000, 4.000000, 4.000000, 4.000000, 4.000000, 4.000000
95.000000, 0.000000, 4201.025391, 4256.410156, 4215.897461, 4222.051270, 4192.307617, 4201.538574, 4186.153809, 4204.615234, 4206.153809, 4191.794922, 4208.205078, 4196.922852, 4200.000000, 4205.127930, 2999.000000, 8223.000000, 8234.000000, 0.000000, 0.000000, 0.000000, 23625.000000, 412.820496, 4.000000, 4.000000, 4.000000, 4.000000, 4.000000, 4.000000, 4.000000, 4.000000, 4.000000, 4.000000, 4.000000, 4.000000, 4.000000, 4.000000, 4.000000, 4.000000
96.000000, 0.000000, 4202.563965, 4244.615234, 4207.179199, 4214.871582, 4182.563965, 4189.743652, 4181.538574, 4202.051270, 4194.358887, 4181.538574, 4198.461426, 4192.307617, 4191.794922, 4198.974121, 3498.000000, 8223.000000, 8234.000000, 0.000000, 0.000000, 0.000000, 23625.000000, 421.025635, 4.000000, 4.000000, 4.000000, 4.000000, 4.000000, 4.000000, 4.000000, 4.000000, 4.000000, 4.000000, 4.000000, 4.000000, 4.000000, 4.000000, 4.000000, 4.000000
97.000000, 0.000000, 4204.615234, 4257.948730, 4213.333008, 4218.461426, 4199.487305, 4190.769043, 4181.538574, 4199.487305, 4197.436035, 4192.307617, 4208.717773, 4199.487305, 4200.000000, 4206.153809, 3520.000000, 8251.000000, 8216.000000, 0.000000, 0.000000, 0.000000, 23625.000000, 428.717926, 4.000000, 4.000000, 4.000000, 4.000000, 4.000000, 4.000000, 4.000000, 4.000000, 4.000000, 4.000000, 4.000000, 4.000000, 4.000000, 4.000000, 4.000000, 4.000000
98.000000, 0.000000, 4205.641113, 4262.051270, 4220.000000, 4220.000000, 4207.692383, 4202.563965, 4190.769043, 4203.589844, 4203.076660, 4201.025391, 4218.974121, 4204.615234, 4205.641113, 4213.333008, 2502.000000, 8251.000000, 8216.000000, 0.000000, 0.000000, 0.000000, 23625.000000, 436.923065, 4.000000, 4.000000, 4.000000, 4.000000, 4.000000, 4.000000, 4.000000, 4.000000, 4.000000, 4.000000, 4.000000, 4.000000, 4.000000, 4.000000, 4.000000, 4.000000
99.000000, 0.000000, 4204.102539, 4248.717773, 4217.436035, 4215.384277, 4200.000000, 4200.000000, 4194.358887, 4206.153809, 4202.051270, 4198.974121, 4214.871582, 4205.127930, 4202.563965, 4212.820313, 2999.000000, 8261.000000, 8214.000000, 0.000000, 0.000000, 0.000000, 23625.000000, 444.615387, 4.000000, 4.000000, 4.000000, 4.000000, 4.000000, 4.000000, 4.000000, 4.000000, 4.000000, 4.000000, 4.000000, 4.000000, 4.000000, 4.000000, 4.000000, 4.000000
100.000000, 0.000000, 4207.179199, 4247.692383, 4216.922852, 4215.897461, 4200.512695, 4188.717773, 4188.717773, 4205.641113, 4204.102539, 4200.512695, 4213.846191, 4210.256348, 4204.102539, 4211.794922, 3498.000000, 8261.000000, 8214.000000, 0.000000, 0.000000, 0.000000, 23625.000000, 452.307678, 4.000000, 4.000000, 4.000000, 4.000000, 4.000000, 4.000000, 4.000000, 4.000000, 4.000000, 4.000000, 4.000000, 4.000000, 4.000000, 4.000000, 4.000000, 4.000000
101.000000, 0.000000, 4208.717773, 4253.846191, 4222.051270, 4217.436035, 4199.487305, 4184.615234, 4184.615234, 4206.153809, 4203.076660, 4200.000000, 4213.846191, 4210.769043, 4206.153809, 4210.256348, 3520.000000, 8274.000000, 8207.000000, 0.000000, 0.000000, 0.000000, 23625.000000, 460.512817, 4.000000, 4.000000, 4.000000, 4.000000, 4.000000, 4.000000, 4.000000, 4.000000, 4.000000, 4.000000, 4.000000, 4.000000, 4.000000, 4.000000, 4.000000, 4.000000
102.000000, 0.000000, 4198.461426, 4249.743652, 4222.051270, 4215.384277, 4191.281738, 4186.153809, 4185.641113, 4203.589844, 4197.436035, 4191.281738, 4204.102539, 4201.538574, 4204.102539, 4206.666504, 2502.000000, 8274.000000, 8207.000000, 0.000000, 0.000000, 0.000000, 23625.000000, 468.205109, 4.000000, 4.000000, 4.000000, 4.000000, 4.000000, 4.000000, 4.000000, 4.000000, 4.000000, 4.000000, 4.000000, 4.000000, 4.000000, 4.000000, 4.000000, 4.000000
103.000000, 0.000000, 4201.538574, 4245.641113, 4216.922852, 4217.948730, 4195.384277, 4189.743652, 4196.410156, 4203.076660, 4200.000000, 4189.743652, 4200.512695, 4201.538574, 4209.230469, 4207.692383, 2999.000000, 8280.000000, 8203.000000, 0.000000, 0.000000, 0.000000, 23625.000000, 475.897430, 4.000000, 4.000000, 4.000000, 4.000000, 4.000000, 4.000000, 4.000000, 4.000000, 4.000000, 4.000000, 4.000000, 4.000000, 4.000000, 4.000000, 4.000000, 4.000000
104.000000, 0.000000, 4203.589844, 4242.051270, 4215.897461, 4216.922852, 4194.358887, 4192.820313, 4199.487305, 4203.076660, 4201.025391, 4191.794922, 4201.538574, 4202.051270, 4214.358887, 4203.589844, 3498.000000, 8280.000000, 8203.000000, 0.000000, 0.000000, 0.000000, 23625.000000, 484.102539, 4.000000, 4.000000, 4.000000, 4.000000, 4.000000, 4.000000, 4.000000, 4.000000, 4.000000, 4.000000, 4.000000, 4.000000, 4.000000, 4.000000, 4.000000, 4.000000
105.000000, 0.000000, 4198.974121, 4230.769043, 4214.358887, 4205.641113, 4182.051270, 4187.692383, 4190.256348, 4205.127930, 4190.769043, 4184.615234, 4190.256348, 4187.179199, 4206.666504, 4194.358887, 3520.000000, 8281.000000, 8202.000000, 0.000000, 0.000000, 0.000000, 23625.000000, 491.794861, 4.000000, 4.000000, 4.000000, 4.000000, 4.000000, 4.000000, 4.000000, 4.000000, 4.000000, 4.000000, 4.000000, 4.000000, 4.000000, 4.000000, 4.000000, 4.000000
106.000000, 0.000000, 4202.051270, 4217.436035, 4207.692383, 4200.512695, 4180.512695, 4183.589844, 4187.692383, 4207.179199, 4184.615234, 4178.974121, 4182.051270, 4178.461426, 4199.487305, 4193.846191, 2502.000000, 8281.000000, 8202.000000, 0.000000, 0.000000, 0.000000, 23625.000000, 500.000000, 4.000000, 4.000000, 4.000000, 4.000000, 4.000000, 4.000000, 4.000000, 4.000000, 4.000000, 4.000000, 4.000000, 4.000000, 4.000000, 4.000000, 4.000000, 4.000000
107.000000, 0.000000, 4203.589844, 4217.436035, 4203.589844, 4204.615234, 4191.794922, 4193.846191, 4190.769043, 4206.666504, 4195.384277, 4183.589844, 4187.179199, 4185.641113, 4204.102539, 4200.512695, 2999.000000, 8279.000000, 8205.000000, 0.000000, 0.000000, 0.000000, 23625.000000, 508.205109, 4.000000, 4.000000, 4.000000, 4.000000, 4.000000, 4.000000, 4.000000, 4.000000, 4.000000, 4.000000, 4.000000, 4.000000, 4.000000, 4.000000, 4.000000, 4.000000
108.000000, 0.000000, 4205.127930, 4221.025391, 4202.563965, 4201.025391, 4197.436035, 4201.025391, 4192.820313, 4204.102539, 4201.025391, 4187.179199, 4188.205078, 4189.743652, 4212.820313, 4205.127930, 3498.000000, 8279.000000, 8205.000000, 0.000000, 0.000000, 0.000000, 23625.000000, 515.897400, 4.000000, 4.000000, 4.000000, 4.000000, 4.000000, 4.000000, 4.000000, 4.000000, 4.000000, 4.000000, 4.000000, 4.000000, 4.000000, 4.000000, 4.000000, 4.000000
109.000000, 0.000000, 4203.589844, 4217.948730, 4197.948730, 4196.410156, 4195.897461, 4195.897461, 4189.743652, 4200.512695, 4191.281738, 4183.076660, 4180.512695, 4182.563965, 4211.281738, 4200.512695, 3520.000000, 8278.000000, 8208.000000, 0.000000, 0.000000, 0.000000, 23625.000000, 524.102539, 4.000000, 4.000000, 4.000000, 4.000000, 4.000000, 4.000000, 4.000000, 4.000000, 4.000000, 4.000000, 4.000000, 4.000000, 4.000000, 4.000000, 4.000000, 4.000000
110.000000, 0.000000, 4203.076660, 4220.000000, 4198.461426, 4202.051270, 4196.410156, 4196.410156, 4187.179199, 4202.051270, 4186.153809, 4181.025391, 4183.076660, 4180.512695, 4206.666504, 4198.974121, 2502.000000, 8278.000000, 8208.000000, 0.000000, 0.000000, 0.000000, 23625.000000, 531.794861, 4.000000, 4.000000, 4.000000, 4.000000, 4.000000, 4.000000, 4.000000, 4.000000, 4.000000, 4.000000, 4.000000, 4.000000, 4.000000, 4.000000, 4.000000, 4.000000
111.000000, 0.000000, 4201.538574, 4209.230469, 4203.589844, 4197.436035, 4193.333008, 4200.000000, 4187.692383, 4203.589844, 4190.256348, 4183.076660, 4186.153809, 4187.179199, 4204.615234, 4198.974121, 2999.000000, 8272.000000, 8204.000000, 0.000000, 0.000000, 0.000000, 23625.000000, 539.487183, 4.000000, 4.000000, 4.000000, 4.000000, 4.000000, 4.000000, 4.000000, 4.000000, 4.000000, 4.000000, 4.000000, 4.000000, 4.000000, 4.000000, 4.000000, 4.000000
112.000000, 0.000000, 4197.948730, 4195.384277, 4199.487305, 4189.743652, 4186.153809, 4192.307617, 4185.127930, 4201.025391, 4189.743652, 4181.538574, 4176.410156, 4184.102539, 4200.512695, 4195.897461, 3498.000000, 8272.000000, 8204.000000, 0.000000, 0.000000, 0.000000, 23625.000000, 547.692322, 4.000000, 4.000000, 4.000000, 4.000000, 4.000000, 4.000000, 4.000000, 4.000000, 4.000000, 4.000000, 4.000000, 4.000000, 4.000000, 4.000000, 4.000000, 4.000000
113.000000, 0.000000, 4210.769043, 4222.563965, 4196.922852, 4203.076660, 4187.692383, 4183.076660, 4177.436035, 4200.512695, 4183.589844, 4177.948730, 4172.307617, 4176.410156, 4204.102539, 4202.051270, 3520.000000, 8264.000000, 8202.000000, 0.000000, 0.000000, 0.000000, 23625.000000, 555.384583, 4.000000, 4.000000, 4.000000, 4.000000, 4.000000, 4.000000, 4.000000, 4.000000, 4.000000, 4.000000, 4.000000, 4.000000, 4.000000, 4.000000, 4.000000, 4.000000
114.000000, 0.000000, 4213.846191, 4257.948730, 4207.179199, 4217.948730, 4202.563965, 4185.641113, 4177.436035, 4203.589844, 4187.692383, 4184.615234, 4183.589844, 4181.538574, 4209.743652, 4213.333008, 2502.000000, 8264.000000, 8202.000000, 0.000000, 0.000000, 0.000000, 23625.000000, 563.076904, 4.000000, 4.000000, 4.000000, 4.000000, 4.000000, 4.000000, 4.000000, 4.000000, 4.000000, 4.000000, 4.000000, 4.000000, 4.000000, 4.000000, 4.000000, 4.000000
115.000000, 0.000000, 4204.615234, 4251.794922, 4216.410156, 4216.922852, 4202.563965, 4187.179199, 4185.127930, 4205.641113, 4190.769043, 4188.205078, 4188.717773, 4189.743652, 4207.179199, 4212.820313, 2999.000000, 8244.000000, 8191.000000, 0.000000, 0.000000, 0.000000, 23625.000000, 570.769226, 4.000000, 4.000000, 4.000000, 4.000000, 4.000000, 4.000000, 4.000000, 4.000000, 4.000000, 4.000000, 4.000000, 4.000000, 4.000000, 4.000000, 4.000000, 4.000000
116.000000, 0.000000, 4207.692383, 4243.589844, 4213.333008, 4214.358887, 4183.076660, 4178.974121, 4174.871582, 4202.051270, 4175.897461, 4175.384277, 4173.846191, 4182.563965, 4198.461426, 4208.205078, 3498.000000, 8244.000000, 8191.000000, 0.000000, 0.000000, 0.000000, 23625.000000, 578.974365, 4.000000, 4.000000, 4.000000, 4.000000, 4.000000, 4.000000, 4.000000, 4.000000, 4.000000, 4.000000, 4.000000, 4.000000, 4.000000, 4.000000, 4.000000, 4.000000
117.000000, 0.000000, 4206.153809, 4261.025391, 4210.256348, 4218.974121, 4184.102539, 4173.846191, 4164.102539, 4199.487305, 4165.127930, 4167.179199, 4168.717773, 4176.922852, 4195.384277, 4206.153809, 3520.000000, 8235.000000, 8184.000000, 0.000000, 0.000000, 0.000000, 23625.000000, 587.179443, 4.000000, 4.000000, 4.000000, 4.000000, 4.000000, 4.000000, 4.000000, 4.000000, 4.000000, 4.000000, 4.000000, 4.000000, 4.000000, 4.000000, 4.000000, 4.000000
118.000000, 0.000000, 4206.666504, 4268.205078, 4212.820313, 4220.512695, 4202.563965, 4181.025391, 4174.871582, 4204.102539, 4170.769043, 4178.461426, 4182.051270, 4184.615234, 4205.127930, 4208.205078, 2502.000000, 8235.000000, 8184.000000, 0.000000, 0.000000, 0.000000, 23625.000000, 594.871765, 4.000000, 4.000000, 4.000000, 4.000000, 4.000000, 4.000000, 4.000000, 4.000000, 4.000000, 4.000000, 4.000000, 4.000000, 4.000000, 4.000000, 4.000000, 4.000000
119.000000, 0.000000, 4209.743652, 4258.461426, 4213.333008, 4219.487305, 4204.102539, 4193.846191, 4187.179199, 4205.127930, 4176.922852, 4187.692383, 4187.692383, 4186.666504, 4212.307617, 4213.333008, 2999.000000, 8218.000000, 8177.000000, 0.000000, 0.000000, 0.000000, 23625.000000, 602.564087, 4.000000, 4.000000, 4.000000, 4.000000, 4.000000, 4.000000, 4.000000, 4.000000, 4.000000, 4.000000, 4.000000, 4.000000, 4.000000, 4.000000, 4.000000, 4.000000
120.000000, 0.000000, 4205.127930, 4251.794922, 4211.794922, 4217.436035, 4197.948730, 4197.948730, 4184.615234, 4201.025391, 4179.487305, 4183.076660, 4182.051270, 4181.538574, 4207.692383, 4212.820313, 3498.000000, 8218.000000, 8177.000000, 0.000000, 0.000000, 0.000000, 23625.000000, 610.769226, 4.000000, 4.000000, 4.000000, 4.000000, 4.000000, 4.000000, 4.000000, 4.000000, 4.000000, 4.000000, 4.000000, 4.000000, 4.000000, 4.000000, 4.000000, 4.000000
121.000000, 0.000000, 4208.205078, 4256.922852, 4213.846191, 4218.461426, 4202.051270, 4197.948730, 4185.641113, 4207.692383, 4192.820313, 4187.692383, 4184.102539, 4183.076660, 4206.666504, 4210.769043, 3520.000000, 8207.000000, 8171.000000, 0.000000, 0.000000, 0.000000, 23625.000000, 618.461548, 4.000000, 4.000000, 4.000000, 4.000000, 4.000000, 4.000000, 4.000000, 4.000000, 4.000000, 4.000000, 4.000000, 4.000000, 4.000000, 4.000000, 4.000000, 4.000000
122.000000, 0.000000, 4209.230469, 4267.179199, 4216.410156, 4223.589844, 4203.589844, 4200.000000, 4191.794922, 4210.256348, 4205.641113, 4202.051270, 4198.461426, 4194.871582, 4214.871582, 4213.846191, 2502.000000, 8207.000000, 8171.000000, 0.000000, 0.000000, 0.000000, 23625.000000, 626.666626, 4.000000, 4.000000, 4.000000, 4.000000, 4.000000, 4.000000, 4.000000, 4.000000, 4.000000, 4.000000, 4.000000, 4.000000, 4.000000, 4.000000, 4.000000, 4.000000
