title:neutral30, recorded:21.05.18 11.44.01, timestamp started:2018-05-12T20:28:52.032863+02:00            , sampling:128, subject:Noé, labels:COUNTER INTERPOLATED AF3 F7 F3 FC5 T7 P7 O1 O2 P8 T8 FC6 F4 F8 AF4 RAW_CQ GYROX GYROY MARKER MARKER_HARDWARE SYNC TIME_STAMP_s TIME_STAMP_ms CQ_AF3 CQ_F7 CQ_F3 CQ_FC5 CQ_T7 CQ_P7 CQ_O1 CQ_O2 CQ_P8 CQ_T8 CQ_FC6 CQ_F4 CQ_F8 CQ_AF4 CQ_CMS CQ_DRL, chan:40, samples:2672, units:emotiv
27.000000, 0.000000, 4278.461426, 3994.871582, 4197.948730, 4184.615234, 4217.948730, 4198.974121, 4200.000000, 4197.948730, 4202.563965, 4195.384277, 4201.538574, 4194.871582, 4202.563965, 4184.102539, 0.000000, 8126.000000, 8109.000000, 0.000000, 0.000000, 0.000000, 25213.000000, 582.564087, 4.000000, 4.000000, 4.000000, 4.000000, 4.000000, 4.000000, 4.000000, 4.000000, 4.000000, 4.000000, 4.000000, 4.000000, 4.000000, 4.000000, 4.000000, 4.000000
28.000000, 0.000000, 4280.512695, 3997.948730, 4196.922852, 4183.589844, 4218.974121, 4197.436035, 4200.512695, 4206.666504, 4205.127930, 4199.487305, 4200.000000, 4194.358887, 4208.717773, 4186.153809, 0.000000, 8126.000000, 8109.000000, 0.000000, 0.000000, 0.000000, 25213.000000, 590.256409, 4.000000, 4.000000, 4.000000, 4.000000, 4.000000, 4.000000, 4.000000, 4.000000, 4.000000, 4.000000, 4.000000, 4.000000, 4.000000, 4.000000, 4.000000, 4.000000
29.000000, 0.000000, 4288.717773, 4006.153809, 4197.436035, 4188.205078, 4222.563965, 4201.538574, 4205.641113, 4211.281738, 4202.563965, 4201.538574, 4202.563965, 4197.948730, 4216.922852, 4191.281738, 0.000000, 8132.000000, 8116.000000, 0.000000, 0.000000, 0.000000, 25213.000000, 598.461548, 4.000000, 4.000000, 4.000000, 4.000000, 4.000000, 4.000000, 4.000000, 4.000000, 4.000000, 4.000000, 4.000000, 4.000000, 4.000000, 4.000000, 4.000000, 4.000000
30.000000, 0.000000, 4305.127930, 4013.845947, 4205.127930, 4201.025391, 4232.820313, 4204.615234, 4201.538574, 4208.205078, 4205.127930, 4208.205078, 4213.846191, 4203.076660, 4224.615234, 4202.563965, 0.000000, 8132.000000, 8116.000000, 0.000000, 0.000000, 0.000000, 25213.000000, 606.153809, 4.000000, 4.000000, 4.000000, 4.000000, 4.000000, 4.000000, 4.000000, 4.000000, 4.000000, 4.000000, 4.000000, 4.000000, 4.000000, 4.000000, 4.000000, 4.000000
31.000000, 0.000000, 4309.230469, 4011.794678, 4209.743652, 4202.051270, 4232.820313, 4202.051270, 4198.461426, 4212.820313, 4212.307617, 4213.333008, 4212.307617, 4206.153809, 4221.538574, 4203.076660, 0.000000, 8150.000000, 8133.000000, 0.000000, 0.000000, 0.000000, 25213.000000, 613.846130, 4.000000, 4.000000, 4.000000, 4.000000, 4.000000, 4.000000, 4.000000, 4.000000, 4.000000, 4.000000, 4.000000, 4.000000, 4.000000, 4.000000, 4.000000, 4.000000
32.000000, 0.000000, 4298.461426, 4003.589600, 4205.127930, 4187.692383, 4219.487305, 4198.974121, 4204.102539, 4216.410156, 4209.743652, 4206.153809, 4201.538574, 4202.563965, 4215.384277, 4191.794922, 0.000000, 8150.000000, 8133.000000, 0.000000, 0.000000, 0.000000, 25213.000000, 621.538452, 4.000000, 4.000000, 4.000000, 4.000000, 4.000000, 4.000000, 4.000000, 4.000000, 4.000000, 4.000000, 4.000000, 4.000000, 4.000000, 4.000000, 4.000000, 4.000000
33.000000, 0.000000, 4297.948730, 4004.615234, 4204.102539, 4185.641113, 4213.333008, 4197.436035, 4200.512695, 4209.230469, 4202.563965, 4200.000000, 4200.512695, 4201.025391, 4214.871582, 4186.153809, 0.000000, 8162.000000, 8140.000000, 0.000000, 0.000000, 0.000000, 25213.000000, 629.230774, 4.000000, 4.000000, 4.000000, 4.000000, 4.000000, 4.000000, 4.000000, 4.000000, 4.000000, 4.000000, 4.000000, 4.000000, 4.000000, 4.000000, 4.000000, 4.000000
34.000000, 0.000000, 4304.102539, 4006.666504, 4206.153809, 4193.846191, 4216.922852, 4200.000000, 4200.000000, 4212.307617, 4204.615234, 4207.179199, 4203.076660, 4210.256348, 4213.333008, 4188.205078, 0.000000, 8162.000000, 8140.000000, 0.000000, 0.000000, 0.000000, 25213.000000, 636.923035, 4.000000, 4.000000, 4.000000, 4.000000, 4.000000, 4.000000, 4.000000, 4.000000, 4.000000, 4.000000, 4.000000, 4.000000, 4.000000, 4.000000, 4.000000, 4.000000
35.000000, 0.000000, 4303.076660, 4004.615234, 4207.179199, 4192.307617, 4217.436035, 4203.076660, 4212.820313, 4227.692383, 4206.666504, 4214.871582, 4209.230469, 4212.820313, 4217.436035, 4194.358887, 0.000000, 8172.000000, 8133.000000, 0.000000, 0.000000, 0.000000, 25213.000000, 645.128174, 4.000000, 4.000000, 4.000000, 4.000000, 4.000000, 4.000000, 4.000000, 4.000000, 4.000000, 4.000000, 4.000000, 4.000000, 4.000000, 4.000000, 4.000000, 4.000000
36.000000, 0.000000, 4304.615234, 4004.615234, 4205.127930, 4190.769043, 4216.410156, 4203.589844, 4213.846191, 4222.563965, 4202.563965, 4215.897461, 4216.410156, 4202.563965, 4229.743652, 4201.538574, 0.000000, 8172.000000, 8133.000000, 0.000000, 0.000000, 0.000000, 25213.000000, 652.820496, 4.000000, 4.000000, 4.000000, 4.000000, 4.000000, 4.000000, 4.000000, 4.000000, 4.000000, 4.000000, 4.000000, 4.000000, 4.000000, 4.000000, 4.000000, 4.000000
37.000000, 0.000000, 4311.794922, 4006.153809, 4201.025391, 4196.410156, 4221.538574, 4206.153809, 4204.615234, 4209.230469, 4202.563965, 4216.410156, 4220.000000, 4204.615234, 4237.436035, 4205.127930, 0.000000, 8174.000000, 8157.000000, 0.000000, 0.000000, 0.000000, 25213.000000, 660.512817, 4.000000, 4.000000, 4.000000, 4.000000, 4.000000, 4.000000, 4.000000, 4.000000, 4.000000, 4.000000, 4.000000, 4.000000, 4.000000, 4.000000, 4.000000, 4.000000
38.000000, 0.000000, 4314.871582, 4008.205078, 4207.692383, 4200.000000, 4228.717773, 4212.820313, 4211.281738, 4215.384277, 4204.102539, 4217.948730, 4222.563965, 4217.436035, 4238.461426, 4209.230469, 0.000000, 8174.000000, 8157.000000, 0.000000, 0.000000, 0.000000, 25213.000000, 668.205139, 4.000000, 4.000000, 4.000000, 4.000000, 4.000000, 4.000000, 4.000000, 4.000000, 4.000000, 4.000000, 4.000000, 4.000000, 4.000000, 4.000000, 4.000000, 4.000000
39.000000, 0.000000, 4320.512695, 4010.769043, 4215.897461, 4203.076660, 4231.281738, 4217.948730, 4221.538574, 4224.102539, 4204.102539, 4219.487305, 4225.127930, 4218.974121, 4239.487305, 4216.922852, 0.000000, 8174.000000, 8170.000000, 0.000000, 0.000000, 0.000000, 25213.000000, 675.897400, 4.000000, 4.000000, 4.000000, 4.000000, 4.000000, 4.000000, 4.000000, 4.000000, 4.000000, 4.000000, 4.000000, 4.000000, 4.000000, 4.000000, 4.000000, 4.000000
40.000000, 0.000000, 4326.153809, 4011.794678, 4214.358887, 4206.153809, 4231.794922, 4213.333008, 4211.281738, 4215.897461, 4204.615234, 4217.436035, 4223.076660, 4216.410156, 4236.410156, 4215.384277, 0.000000, 8174.000000, 8170.000000, 0.000000, 0.000000, 0.000000, 25213.000000, 683.589722, 4.000000, 4.000000, 4.000000, 4.000000, 4.000000, 4.000000, 4.000000, 4.000000, 4.000000, 4.000000, 4.000000, 4.000000, 4.000000, 4.000000, 4.000000, 4.000000
41.000000, 0.000000, 4318.461426, 4014.358887, 4211.794922, 4202.563965, 4233.333008, 4205.127930, 4198.974121, 4213.846191, 4205.127930, 4217.436035, 4216.922852, 4214.358887, 4229.743652, 4204.102539, 0.000000, 8195.000000, 8191.000000, 0.000000, 0.000000, 0.000000, 25213.000000, 691.794861, 4.000000, 4.000000, 4.000000, 4.000000, 4.000000, 4.000000, 4.000000, 4.000000, 4.000000, 4.000000, 4.000000, 4.000000, 4.000000, 4.000000, 4.000000, 4.000000
42.000000, 0.000000, 4313.846191, 4021.025635, 4209.743652, 4200.000000, 4234.358887, 4207.692383, 4206.666504, 4227.179199, 4204.615234, 4225.127930, 4217.436035, 4207.692383, 4232.307617, 4201.538574, 0.000000, 8195.000000, 8191.000000, 0.000000, 0.000000, 0.000000, 25213.000000, 699.487183, 4.000000, 4.000000, 4.000000, 4.000000, 4.000000, 4.000000, 4.000000, 4.000000, 4.000000, 4.000000, 4.000000, 4.000000, 4.000000, 4.000000, 4.000000, 4.000000
43.000000, 0.000000, 4320.512695, 4025.128174, 4208.717773, 4203.076660, 4234.871582, 4214.871582, 4217.948730, 4226.153809, 4204.102539, 4227.692383, 4225.127930, 4208.717773, 4240.000000, 4206.153809, 0.000000, 8211.000000, 8209.000000, 0.000000, 0.000000, 0.000000, 25213.000000, 707.179443, 4.000000, 4.000000, 4.000000, 4.000000, 4.000000, 4.000000, 4.000000, 4.000000, 4.000000, 4.000000, 4.000000, 4.000000, 4.000000, 4.000000, 4.000000, 4.000000
44.000000, 0.000000, 4323.589844, 4029.743408, 4212.820313, 4203.589844, 4234.871582, 4214.358887, 4215.384277, 4216.410156, 4204.102539, 4221.538574, 4227.692383, 4214.871582, 4244.615234, 4207.179199, 0.000000, 8211.000000, 8209.000000, 0.000000, 0.000000, 0.000000, 25213.000000, 714.871765, 4.000000, 4.000000, 4.000000, 4.000000, 4.000000, 4.000000, 4.000000, 4.000000, 4.000000, 4.000000, 4.000000, 4.000000, 4.000000, 4.000000, 4.000000, 4.000000
45.000000, 0.000000, 4321.025391, 4041.025635, 4215.384277, 4202.563965, 4230.256348, 4211.794922, 4213.846191, 4222.563965, 4202.563965, 4222.563965, 4223.589844, 4215.897461, 4243.589844, 4207.692383, 0.000000, 8233.000000, 8232.000000, 0.000000, 0.000000, 0.000000, 25213.000000, 722.564087, 4.000000, 4.000000, 4.000000, 4.000000, 4.000000, 4.000000, 4.000000, 4.000000, 4.000000, 4.000000, 4.000000, 4.000000, 4.000000, 4.000000, 4.000000, 4.000000
46.000000, 0.000000, 4324.102539, 4052.307617, 4212.307617, 4202.051270, 4231.794922, 4217.436035, 4224.615234, 4233.846191, 4203.076660, 4227.692383, 4224.615234, 4215.897461, 4244.615234, 4211.794922, 0.000000, 8233.000000, 8232.000000, 0.000000, 0.000000, 0.000000, 25213.000000, 730.256409, 4.000000, 4.000000, 4.000000, 4.000000, 4.000000, 4.000000, 4.000000, 4.000000, 4.000000, 4.000000, 4.000000, 4.000000, 4.000000, 4.000000, 4.000000, 4.000000
47.000000, 0.000000, 4328.717773, 4057.948730, 4208.717773, 4203.589844, 4238.974121, 4221.538574, 4224.102539, 4235.897461, 4205.127930, 4229.743652, 4231.794922, 4218.974121, 4248.717773, 4216.410156, 0.000000, 8280.000000, 8251.000000, 0.000000, 0.000000, 0.000000, 25213.000000, 738.461548, 4.000000, 4.000000, 4.000000, 4.000000, 4.000000, 4.000000, 4.000000, 4.000000, 4.000000, 4.000000, 4.000000, 4.000000, 4.000000, 4.000000, 4.000000, 4.000000
48.000000, 0.000000, 4326.666504, 4064.615234, 4207.692383, 4203.076660, 4237.948730, 4218.461426, 4215.384277, 4230.256348, 4204.102539, 4227.179199, 4227.179199, 4219.487305, 4245.641113, 4215.384277, 0.000000, 8280.000000, 8251.000000, 0.000000, 0.000000, 0.000000, 25213.000000, 746.153809, 4.000000, 4.000000, 4.000000, 4.000000, 4.000000, 4.000000, 4.000000, 4.000000, 4.000000, 4.000000, 4.000000, 4.000000, 4.000000, 4.000000, 4.000000, 4.000000
49.000000, 0.000000, 4324.615234, 4075.897217, 4206.666504, 4201.538574, 4234.358887, 4217.436035, 4216.922852, 4219.487305, 4203.589844, 4222.051270, 4219.487305, 4212.820313, 4242.563965, 4210.769043, 0.000000, 8296.000000, 8252.000000, 0.000000, 0.000000, 0.000000, 25213.000000, 753.846130, 4.000000, 4.000000, 4.000000, 4.000000, 4.000000, 4.000000, 4.000000, 4.000000, 4.000000, 4.000000, 4.000000, 4.000000, 4.000000, 4.000000, 4.000000, 4.000000
50.000000, 0.000000, 4327.692383, 4090.256348, 4207.692383, 4207.692383, 4236.410156, 4217.948730, 4217.436035, 4220.512695, 4206.153809, 4221.538574, 4218.461426, 4205.641113, 4243.589844, 4206.153809, 0.000000, 8296.000000, 8252.000000, 0.000000, 0.000000, 0.000000, 25213.000000, 761.538452, 4.000000, 4.000000, 4.000000, 4.000000, 4.000000, 4.000000, 4.000000, 4.000000, 4.000000, 4.000000, 4.000000, 4.000000, 4.000000, 4.000000, 4.000000, 4.000000
51.000000, 0.000000, 4329.743652, 4098.461426, 4210.769043, 4216.922852, 4233.846191, 4215.897461, 4217.436035, 4234.358887, 4205.641113, 4224.615234, 4215.897461, 4205.641113, 4242.051270, 4201.025391, 0.000000, 8327.000000, 8246.000000, 0.000000, 0.000000, 0.000000, 25213.000000, 769.230774, 4.000000, 4.000000, 4.000000, 4.000000, 4.000000, 4.000000, 4.000000, 4.000000, 4.000000, 4.000000, 4.000000, 4.000000, 4.000000, 4.000000, 4.000000, 4.000000
52.000000, 0.000000, 4328.205078, 4102.563965, 4209.230469, 4214.871582, 4227.179199, 4214.358887, 4219.487305, 4235.384277, 4204.615234, 4225.127930, 4217.436035, 4213.333008, 4241.538574, 4202.563965, 0.000000, 8327.000000, 8246.000000, 0.000000, 0.000000, 0.000000, 25213.000000, 777.435852, 4.000000, 4.000000, 4.000000, 4.000000, 4.000000, 4.000000, 4.000000, 4.000000, 4.000000, 4.000000, 4.000000, 4.000000, 4.000000, 4.000000, 4.000000, 4.000000
53.000000, 0.000000, 4326.666504, 4111.281738, 4208.205078, 4207.179199, 4228.717773, 4217.436035, 4215.897461, 4231.281738, 4211.281738, 4228.717773, 4226.153809, 4221.025391, 4248.717773, 4211.794922, 0.000000, 8330.000000, 8236.000000, 0.000000, 0.000000, 0.000000, 25213.000000, 785.128174, 4.000000, 4.000000, 4.000000, 4.000000, 4.000000, 4.000000, 4.000000, 4.000000, 4.000000, 4.000000, 4.000000, 4.000000, 4.000000, 4.000000, 4.000000, 4.000000
54.000000, 0.000000, 4322.563965, 4115.897461, 4205.127930, 4204.615234, 4230.769043, 4217.436035, 4214.871582, 4228.205078, 4210.769043, 4230.769043, 4226.153809, 4216.410156, 4249.743652, 4210.769043, 0.000000, 8330.000000, 8236.000000, 0.000000, 0.000000, 0.000000, 25213.000000, 792.820496, 4.000000, 4.000000, 4.000000, 4.000000, 4.000000, 4.000000, 4.000000, 4.000000, 4.000000, 4.000000, 4.000000, 4.000000, 4.000000, 4.000000, 4.000000, 4.000000
55.000000, 0.000000, 4315.384277, 4116.410156, 4203.589844, 4206.153809, 4228.717773, 4215.384277, 4214.871582, 4219.487305, 4202.563965, 4224.615234, 4215.897461, 4205.641113, 4237.948730, 4201.025391, 0.000000, 8327.000000, 8187.000000, 0.000000, 0.000000, 0.000000, 25213.000000, 800.512817, 4.000000, 4.000000, 4.000000, 4.000000, 4.000000, 4.000000, 4.000000, 4.000000, 4.000000, 4.000000, 4.000000, 4.000000, 4.000000, 4.000000, 4.000000, 4.000000
56.000000, 0.000000, 4312.307617, 4120.000000, 4210.769043, 4207.692383, 4229.230469, 4214.871582, 4203.076660, 4220.512695, 4204.102539, 4223.076660, 4215.897461, 4206.153809, 4231.281738, 4199.487305, 0.000000, 8327.000000, 8187.000000, 0.000000, 0.000000, 0.000000, 25213.000000, 808.205078, 4.000000, 4.000000, 4.000000, 4.000000, 4.000000, 4.000000, 4.000000, 4.000000, 4.000000, 4.000000, 4.000000, 4.000000, 4.000000, 4.000000, 4.000000, 4.000000
57.000000, 0.000000, 4308.717773, 4120.000000, 4211.794922, 4203.076660, 4229.743652, 4214.358887, 4204.615234, 4222.051270, 4206.153809, 4223.076660, 4218.461426, 4212.820313, 4232.307617, 4199.487305, 0.000000, 8302.000000, 8159.000000, 0.000000, 0.000000, 0.000000, 25213.000000, 815.897400, 4.000000, 4.000000, 4.000000, 4.000000, 4.000000, 4.000000, 4.000000, 4.000000, 4.000000, 4.000000, 4.000000, 4.000000, 4.000000, 4.000000, 4.000000, 4.000000
58.000000, 0.000000, 4305.641113, 4124.102539, 4209.230469, 4200.512695, 4229.743652, 4216.410156, 4220.000000, 4214.871582, 4203.076660, 4221.025391, 4215.897461, 4212.820313, 4233.846191, 4197.436035, 0.000000, 8302.000000, 8159.000000, 0.000000, 0.000000, 0.000000, 25213.000000, 824.102539, 4.000000, 4.000000, 4.000000, 4.000000, 4.000000, 4.000000, 4.000000, 4.000000, 4.000000, 4.000000, 4.000000, 4.000000, 4.000000, 4.000000, 4.000000, 4.000000
59.000000, 0.000000, 4304.615234, 4133.333008, 4210.256348, 4206.153809, 4233.846191, 4219.487305, 4218.974121, 4223.589844, 4207.179199, 4229.230469, 4221.025391, 4214.871582, 4236.922852, 4199.487305, 0.000000, 8285.000000, 8133.000000, 0.000000, 0.000000, 0.000000, 25213.000000, 831.794861, 4.000000, 4.000000, 4.000000, 4.000000, 4.000000, 4.000000, 4.000000, 4.000000, 4.000000, 4.000000, 4.000000, 4.000000, 4.000000, 4.000000, 4.000000, 4.000000
60.000000, 0.000000, 4300.512695, 4133.846191, 4208.205078, 4207.179199, 4232.307617, 4217.948730, 4210.769043, 4230.256348, 4208.717773, 4236.410156, 4223.076660, 4215.897461, 4236.922852, 4200.000000, 0.000000, 8285.000000, 8133.000000, 0.000000, 0.000000, 0.000000, 25213.000000, 839.487183, 4.000000, 4.000000, 4.000000, 4.000000, 4.000000, 4.000000, 4.000000, 4.000000, 4.000000, 4.000000, 4.000000, 4.000000, 4.000000, 4.000000, 4.000000, 4.000000
61.000000, 0.000000, 4294.358887, 4132.820313, 4204.615234, 4201.025391, 4222.051270, 4213.846191, 4210.256348, 4213.846191, 4201.025391, 4228.205078, 4215.384277, 4208.205078, 4232.307617, 4197.948730, 0.000000, 8244.000000, 8107.000000, 0.000000, 0.000000, 0.000000, 25213.000000, 847.179443, 4.000000, 4.000000, 4.000000, 4.000000, 4.000000, 4.000000, 4.000000, 4.000000, 4.000000, 4.000000, 4.000000, 4.000000, 4.000000, 4.000000, 4.000000, 4.000000
62.000000, 0.000000, 4292.820313, 4134.358887, 4205.641113, 4200.000000, 4214.871582, 4213.333008, 4211.281738, 4216.410156, 4201.025391, 4221.025391, 4214.871582, 4205.641113, 4232.307617, 4198.974121, 0.000000, 8244.000000, 8107.000000, 0.000000, 0.000000, 0.000000, 25213.000000, 854.871765, 4.000000, 4.000000, 4.000000, 4.000000, 4.000000, 4.000000, 4.000000, 4.000000, 4.000000, 4.000000, 4.000000, 4.000000, 4.000000, 4.000000, 4.000000, 4.000000
63.000000, 0.000000, 4296.922852, 4135.384277, 4209.230469, 4202.563965, 4216.922852, 4216.922852, 4217.436035, 4240.000000, 4208.717773, 4227.179199, 4220.512695, 4209.743652, 4236.410156, 4200.512695, 0.000000, 8219.000000, 8095.000000, 0.000000, 0.000000, 0.000000, 25213.000000, 863.076904, 4.000000, 4.000000, 4.000000, 4.000000, 4.000000, 4.000000, 4.000000, 4.000000, 4.000000, 4.000000, 4.000000, 4.000000, 4.000000, 4.000000, 4.000000, 4.000000
64.000000, 0.000000, 4292.307617, 4135.384277, 4207.179199, 4198.974121, 4219.487305, 4217.436035, 4221.025391, 4235.384277, 4207.692383, 4231.281738, 4219.487305, 4212.307617, 4235.897461, 4200.512695, 3082.000000, 8219.000000, 8095.000000, 0.000000, 0.000000, 0.000000, 25213.000000, 870.769226, 4.000000, 4.000000, 4.000000, 4.000000, 4.000000, 4.000000, 4.000000, 4.000000, 4.000000, 4.000000, 4.000000, 4.000000, 4.000000, 4.000000, 4.000000, 4.000000
65.000000, 0.000000, 4281.025391, 4136.410156, 4203.589844, 4197.436035, 4220.000000, 4213.846191, 4211.281738, 4216.922852, 4204.102539, 4231.794922, 4217.436035, 4211.794922, 4233.333008, 4196.922852, 3534.000000, 8183.000000, 8121.000000, 0.000000, 0.000000, 0.000000, 25213.000000, 878.461487, 4.000000, 4.000000, 4.000000, 4.000000, 4.000000, 4.000000, 4.000000, 4.000000, 4.000000, 4.000000, 4.000000, 4.000000, 4.000000, 4.000000, 4.000000, 4.000000
66.000000, 0.000000, 4277.436035, 4137.436035, 4198.974121, 4201.025391, 4222.051270, 4214.358887, 4209.743652, 4217.948730, 4205.127930, 4230.769043, 4216.410156, 4206.153809, 4232.820313, 4189.230469, 3545.000000, 8183.000000, 8121.000000, 0.000000, 0.000000, 0.000000, 25213.000000, 886.153809, 4.000000, 4.000000, 4.000000, 4.000000, 4.000000, 4.000000, 4.000000, 4.000000, 4.000000, 4.000000, 4.000000, 4.000000, 4.000000, 4.000000, 4.000000, 4.000000
67.000000, 0.000000, 4274.358887, 4130.256348, 4196.922852, 4194.871582, 4219.487305, 4217.436035, 4213.846191, 4217.948730, 4206.153809, 4225.127930, 4208.205078, 4199.487305, 4229.743652, 4183.589844, 2211.000000, 8181.000000, 8134.000000, 0.000000, 0.000000, 0.000000, 25213.000000, 893.846130, 4.000000, 4.000000, 4.000000, 4.000000, 4.000000, 4.000000, 4.000000, 4.000000, 4.000000, 4.000000, 4.000000, 4.000000, 4.000000, 4.000000, 4.000000, 4.000000
68.000000, 0.000000, 4266.153809, 4127.179199, 4202.051270, 4188.717773, 4214.358887, 4215.897461, 4204.102539, 4202.563965, 4204.615234, 4215.897461, 4201.025391, 4200.000000, 4221.538574, 4182.051270, 3539.000000, 8181.000000, 8134.000000, 0.000000, 0.000000, 0.000000, 25213.000000, 901.538452, 4.000000, 4.000000, 4.000000, 4.000000, 4.000000, 4.000000, 4.000000, 4.000000, 4.000000, 4.000000, 4.000000, 4.000000, 4.000000, 4.000000, 4.000000, 4.000000
69.000000, 0.000000, 4260.512695, 4133.846191, 4201.538574, 4193.846191, 4213.846191, 4212.307617, 4200.512695, 4200.512695, 4202.051270, 4212.307617, 4196.410156, 4198.461426, 4215.897461, 4180.512695, 3577.000000, 8184.000000, 8149.000000, 0.000000, 0.000000, 0.000000, 25213.000000, 909.743591, 4.000000, 4.000000, 4.000000, 4.000000, 4.000000, 4.000000, 4.000000, 4.000000, 4.000000, 4.000000, 4.000000, 4.000000, 4.000000, 4.000000, 4.000000, 4.000000
70.000000, 0.000000, 4265.641113, 4139.487305, 4194.871582, 4201.538574, 4215.384277, 4215.897461, 4214.871582, 4222.051270, 4205.641113, 4221.025391, 4200.512695, 4198.974121, 4223.076660, 4184.615234, 3441.000000, 8184.000000, 8149.000000, 0.000000, 0.000000, 0.000000, 25213.000000, 917.435852, 4.000000, 4.000000, 4.000000, 4.000000, 4.000000, 4.000000, 4.000000, 4.000000, 4.000000, 4.000000, 4.000000, 4.000000, 4.000000, 4.000000, 4.000000, 4.000000
71.000000, 0.000000, 4275.897461, 4147.692383, 4201.025391, 4209.230469, 4215.897461, 4219.487305, 4224.615234, 4235.897461, 4213.333008, 4234.871582, 4212.820313, 4212.307617, 4235.384277, 4196.922852, 3485.000000, 8189.000000, 8149.000000, 0.000000, 0.000000, 0.000000, 25213.000000, 925.128174, 4.000000, 4.000000, 4.000000, 4.000000, 4.000000, 4.000000, 4.000000, 4.000000, 4.000000, 4.000000, 4.000000, 4.000000, 4.000000, 4.000000, 4.000000, 4.000000
72.000000, 0.000000, 4282.051270, 4153.333008, 4207.692383, 4217.436035, 4216.410156, 4216.410156, 4215.897461, 4233.333008, 4214.358887, 4239.487305, 4221.025391, 4220.000000, 4239.487305, 4204.102539, 773.000000, 8189.000000, 8149.000000, 0.000000, 0.000000, 0.000000, 25213.000000, 932.820496, 4.000000, 4.000000, 4.000000, 4.000000, 4.000000, 4.000000, 4.000000, 4.000000, 4.000000, 4.000000, 4.000000, 4.000000, 4.000000, 4.000000, 4.000000, 4.000000
73.000000, 0.000000, 4279.487305, 4150.256348, 4209.230469, 4218.461426, 4216.922852, 4213.333008, 4205.127930, 4229.743652, 4206.666504, 4233.333008, 4213.846191, 4216.922852, 4230.769043, 4197.948730, 2953.000000, 8192.000000, 8141.000000, 0.000000, 0.000000, 0.000000, 25213.000000, 940.512817, 4.000000, 4.000000, 4.000000, 4.000000, 4.000000, 4.000000, 4.000000, 4.000000, 4.000000, 4.000000, 4.000000, 4.000000, 4.000000, 4.000000, 4.000000, 4.000000
74.000000, 0.000000, 4271.794922, 4142.563965, 4211.794922, 4217.948730, 4218.461426, 4215.384277, 4202.051270, 4216.922852, 4201.538574, 4232.307617, 4204.102539, 4216.410156, 4218.974121, 4188.717773, 3579.000000, 8192.000000, 8141.000000, 0.000000, 0.000000, 0.000000, 25213.000000, 948.717896, 4.000000, 4.000000, 4.000000, 4.000000, 4.000000, 4.000000, 4.000000, 4.000000, 4.000000, 4.000000, 4.000000, 4.000000, 4.000000, 4.000000, 4.000000, 4.000000
75.000000, 0.000000, 4266.666504, 4132.820313, 4211.281738, 4217.948730, 4216.922852, 4217.948730, 4204.102539, 4200.512695, 4203.589844, 4230.256348, 4202.051270, 4212.820313, 4217.436035, 4185.641113, 3591.000000, 8208.000000, 8130.000000, 0.000000, 0.000000, 0.000000, 25213.000000, 956.410217, 4.000000, 4.000000, 4.000000, 4.000000, 4.000000, 4.000000, 4.000000, 4.000000, 4.000000, 4.000000, 4.000000, 4.000000, 4.000000, 4.000000, 4.000000, 4.000000
76.000000, 0.000000, 4259.487305, 4121.025391, 4203.076660, 4206.666504, 4205.641113, 4212.820313, 4205.641113, 4195.384277, 4202.563965, 4217.948730, 4196.410156, 4201.025391, 4213.333008, 4182.051270, 3533.000000, 8208.000000, 8130.000000, 0.000000, 0.000000, 0.000000, 25213.000000, 964.102539, 4.000000, 4.000000, 4.000000, 4.000000, 4.000000, 4.000000, 4.000000, 4.000000, 4.000000, 4.000000, 4.000000, 4.000000, 4.000000, 4.000000, 4.000000, 4.000000
77.000000, 0.000000, 4257.436035, 4111.281738, 4197.436035, 4202.563965, 4197.436035, 4203.076660, 4202.051270, 4197.436035, 4200.000000, 4212.820313, 4192.820313, 4197.948730, 4204.102539, 4178.974121, 3454.000000, 8211.000000, 8124.000000, 0.000000, 0.000000, 0.000000, 25213.000000, 971.794861, 4.000000, 4.000000, 4.000000, 4.000000, 4.000000, 4.000000, 4.000000, 4.000000, 4.000000, 4.000000, 4.000000, 4.000000, 4.000000, 4.000000, 4.000000, 4.000000
78.000000, 0.000000, 4261.025391, 4104.615234, 4204.615234, 4214.358887, 4197.948730, 4198.461426, 4199.487305, 4197.436035, 4201.538574, 4215.384277, 4196.410156, 4208.205078, 4205.641113, 4184.102539, 3579.000000, 8211.000000, 8124.000000, 0.000000, 0.000000, 0.000000, 25213.000000, 979.487183, 4.000000, 4.000000, 4.000000, 4.000000, 4.000000, 4.000000, 4.000000, 4.000000, 4.000000, 4.000000, 4.000000, 4.000000, 4.000000, 4.000000, 4.000000, 4.000000
79.000000, 0.000000, 4265.641113, 4100.000000, 4215.897461, 4221.025391, 4196.922852, 4199.487305, 4201.538574, 4199.487305, 4204.615234, 4213.846191, 4199.487305, 4217.948730, 4214.358887, 4191.794922, 3591.000000, 8222.000000, 8121.000000, 0.000000, 0.000000, 0.000000, 25213.000000, 987.692261, 4.000000, 4.000000, 4.000000, 4.000000, 4.000000, 4.000000, 4.000000, 4.000000, 4.000000, 4.000000, 4.000000, 4.000000, 4.000000, 4.000000, 4.000000, 4.000000
80.000000, 0.000000, 4271.281738, 4094.358887, 4219.487305, 4218.461426, 4197.948730, 4200.512695, 4199.487305, 4208.717773, 4205.641113, 4221.025391, 4207.692383, 4225.641113, 4224.615234, 4202.563965, 3533.000000, 8222.000000, 8121.000000, 0.000000, 0.000000, 0.000000, 25213.000000, 995.384583, 4.000000, 4.000000, 4.000000, 4.000000, 4.000000, 4.000000, 4.000000, 4.000000, 4.000000, 4.000000, 4.000000, 4.000000, 4.000000, 4.000000, 4.000000, 4.000000
81.000000, 0.000000, 4271.794922, 4086.153809, 4220.000000, 4217.436035, 4201.538574, 4199.487305, 4199.487305, 4217.948730, 4206.153809, 4233.333008, 4218.974121, 4232.307617, 4232.307617, 4208.717773, 3454.000000, 8220.000000, 8115.000000, 0.000000, 0.000000, 0.000000, 25214.000000, 3.076923, 4.000000, 4.000000, 4.000000, 4.000000, 4.000000, 4.000000, 4.000000, 4.000000, 4.000000, 4.000000, 4.000000, 4.000000, 4.000000, 4.000000, 4.000000, 4.000000
82.000000, 0.000000, 4266.666504, 4076.410156, 4222.051270, 4224.102539, 4202.563965, 4199.487305, 4199.487305, 4221.025391, 4205.641113, 4234.871582, 4222.051270, 4231.794922, 4233.333008, 4208.717773, 3579.000000, 8220.000000, 8115.000000, 0.000000, 0.000000, 0.000000, 25214.000000, 10.769231, 4.000000, 4.000000, 4.000000, 4.000000, 4.000000, 4.000000, 4.000000, 4.000000, 4.000000, 4.000000, 4.000000, 4.000000, 4.000000, 4.000000, 4.000000, 4.000000
83.000000, 0.000000, 4268.205078, 4070.769043, 4225.641113, 4231.281738, 4205.641113, 4199.487305, 4191.281738, 4217.948730, 4204.102539, 4233.333008, 4218.974121, 4232.307617, 4233.333008, 4209.230469, 3591.000000, 8217.000000, 8112.000000, 0.000000, 0.000000, 0.000000, 25214.000000, 18.461538, 4.000000, 4.000000, 4.000000, 4.000000, 4.000000, 4.000000, 4.000000, 4.000000, 4.000000, 4.000000, 4.000000, 4.000000, 4.000000, 4.000000, 4.000000, 4.000000
84.000000, 0.000000, 4269.230469, 4064.102539, 4225.641113, 4225.127930, 4207.179199, 4199.487305, 4188.717773, 4213.846191, 4204.102539, 4231.794922, 4217.436035, 4230.256348, 4232.307617, 4208.717773, 3533.000000, 8217.000000, 8112.000000, 0.000000, 0.000000, 0.000000, 25214.000000, 26.153845, 4.000000, 4.000000, 4.000000, 4.000000, 4.000000, 4.000000, 4.000000, 4.000000, 4.000000, 4.000000, 4.000000, 4.000000, 4.000000, 4.000000, 4.000000, 4.000000
85.000000, 0.000000, 4256.922852, 4047.692139, 4215.897461, 4214.358887, 4203.076660, 4198.974121, 4200.000000, 4216.410156, 4203.589844, 4222.563965, 4209.743652, 4220.000000, 4223.589844, 4203.589844, 3454.000000, 8212.000000, 8124.000000, 0.000000, 0.000000, 0.000000, 25214.000000, 34.358974, 4.000000, 4.000000, 4.000000, 4.000000, 4.000000, 4.000000, 4.000000, 4.000000, 4.000000, 4.000000, 4.000000, 4.000000, 4.000000, 4.000000, 4.000000, 4.000000
86.000000, 0.000000, 4245.641113, 4031.794678, 4208.205078, 4210.769043, 4202.051270, 4202.563965, 4209.743652, 4217.948730, 4201.538574, 4213.333008, 4197.436035, 4213.846191, 4211.281738, 4194.871582, 3579.000000, 8212.000000, 8124.000000, 0.000000, 0.000000, 0.000000, 25214.000000, 42.051281, 4.000000, 4.000000, 4.000000, 4.000000, 4.000000, 4.000000, 4.000000, 4.000000, 4.000000, 4.000000, 4.000000, 4.000000, 4.000000, 4.000000, 4.000000, 4.000000
87.000000, 0.000000, 4242.051270, 4021.025635, 4211.794922, 4207.179199, 4205.127930, 4208.205078, 4213.846191, 4216.410156, 4203.589844, 4213.333008, 4187.179199, 4213.846191, 4205.127930, 4186.153809, 3591.000000, 8212.000000, 8126.000000, 0.000000, 0.000000, 0.000000, 25214.000000, 49.743587, 4.000000, 4.000000, 4.000000, 4.000000, 4.000000, 4.000000, 4.000000, 4.000000, 4.000000, 4.000000, 4.000000, 4.000000, 4.000000, 4.000000, 4.000000, 4.000000
88.000000, 0.000000, 4235.897461, 4013.845947, 4213.846191, 4203.076660, 4201.538574, 4209.743652, 4217.948730, 4224.102539, 4206.153809, 4215.384277, 4184.615234, 4207.692383, 4201.538574, 4182.563965, 3533.000000, 8212.000000, 8126.000000, 0.000000, 0.000000, 0.000000, 25214.000000, 57.435898, 4.000000, 4.000000, 4.000000, 4.000000, 4.000000, 4.000000, 4.000000, 4.000000, 4.000000, 4.000000, 4.000000, 4.000000, 4.000000, 4.000000, 4.000000, 4.000000
89.000000, 0.000000, 4232.820313, 4007.692139, 4211.281738, 4204.102539, 4197.948730, 4208.717773, 4217.436035, 4228.717773, 4204.615234, 4215.384277, 4190.256348, 4202.563965, 4201.538574, 4183.589844, 3454.000000, 8199.000000, 8141.000000, 0.000000, 0.000000, 0.000000, 25214.000000, 65.128204, 4.000000, 4.000000, 4.000000, 4.000000, 4.000000, 4.000000, 4.000000, 4.000000, 4.000000, 4.000000, 4.000000, 4.000000, 4.000000, 4.000000, 4.000000, 4.000000
90.000000, 0.000000, 4233.846191, 3998.974365, 4210.769043, 4202.563965, 4199.487305, 4208.717773, 4215.384277, 4220.000000, 4202.563965, 4217.436035, 4197.436035, 4205.641113, 4208.205078, 4186.153809, 3579.000000, 8199.000000, 8141.000000, 0.000000, 0.000000, 0.000000, 25214.000000, 72.820511, 4.000000, 4.000000, 4.000000, 4.000000, 4.000000, 4.000000, 4.000000, 4.000000, 4.000000, 4.000000, 4.000000, 4.000000, 4.000000, 4.000000, 4.000000, 4.000000
91.000000, 0.000000, 4231.794922, 3993.333252, 4208.717773, 4198.974121, 4201.025391, 4212.307617, 4219.487305, 4217.436035, 4204.102539, 4220.000000, 4200.000000, 4206.153809, 4214.358887, 4184.615234, 3591.000000, 8195.000000, 8147.000000, 0.000000, 0.000000, 0.000000, 25214.000000, 81.025642, 4.000000, 4.000000, 4.000000, 4.000000, 4.000000, 4.000000, 4.000000, 4.000000, 4.000000, 4.000000, 4.000000, 4.000000, 4.000000, 4.000000, 4.000000, 4.000000
92.000000, 0.000000, 4229.743652, 3991.281982, 4204.102539, 4202.051270, 4201.538574, 4210.769043, 4220.000000, 4221.025391, 4205.641113, 4217.948730, 4200.000000, 4205.127930, 4214.871582, 4185.127930, 3533.000000, 8195.000000, 8147.000000, 0.000000, 0.000000, 0.000000, 25214.000000, 88.717949, 4.000000, 4.000000, 4.000000, 4.000000, 4.000000, 4.000000, 4.000000, 4.000000, 4.000000, 4.000000, 4.000000, 4.000000, 4.000000, 4.000000, 4.000000, 4.000000
93.000000, 0.000000, 4231.794922, 3983.589600, 4207.179199, 4204.102539, 4203.076660, 4203.076660, 4216.410156, 4215.384277, 4203.076660, 4215.897461, 4201.538574, 4213.846191, 4216.922852, 4192.820313, 3454.000000, 8183.000000, 8157.000000, 0.000000, 0.000000, 0.000000, 25214.000000, 96.410255, 4.000000, 4.000000, 4.000000, 4.000000, 4.000000, 4.000000, 4.000000, 4.000000, 4.000000, 4.000000, 4.000000, 4.000000, 4.000000, 4.000000, 4.000000, 4.000000
94.000000, 0.000000, 4237.436035, 3976.923096, 4217.948730, 4202.563965, 4203.076660, 4202.051270, 4216.410156, 4214.358887, 4202.051270, 4218.461426, 4204.102539, 4223.589844, 4217.436035, 4201.538574, 3579.000000, 8183.000000, 8157.000000, 0.000000, 0.000000, 0.000000, 25214.000000, 104.102562, 4.000000, 4.000000, 4.000000, 4.000000, 4.000000, 4.000000, 4.000000, 4.000000, 4.000000, 4.000000, 4.000000, 4.000000, 4.000000, 4.000000, 4.000000, 4.000000
95.000000, 0.000000, 4244.102539, 3983.589600, 4220.512695, 4207.179199, 4201.538574, 4200.512695, 4213.333008, 4218.461426, 4205.127930, 4215.897461, 4201.025391, 4216.410156, 4209.230469, 4198.974121, 3591.000000, 8170.000000, 8169.000000, 0.000000, 0.000000, 0.000000, 25214.000000, 111.794868, 4.000000, 4.000000, 4.000000, 4.000000, 4.000000, 4.000000, 4.000000, 4.000000, 4.000000, 4.000000, 4.000000, 4.000000, 4.000000, 4.000000, 4.000000, 4.000000
96.000000, 0.000000, 4250.769043, 3998.974365, 4220.512695, 4219.487305, 4205.127930, 4191.794922, 4201.025391, 4213.846191, 4205.641113, 4214.871582, 4198.461426, 4214.358887, 4207.179199, 4198.974121, 3533.000000, 8170.000000, 8169.000000, 0.000000, 0.000000, 0.000000, 25214.000000, 119.487175, 4.000000, 4.000000, 4.000000, 4.000000, 4.000000, 4.000000, 4.000000, 4.000000, 4.000000, 4.000000, 4.000000, 4.000000, 4.000000, 4.000000, 4.000000, 4.000000
97.000000, 0.000000, 4258.461426, 4005.128174, 4225.641113, 4227.692383, 4212.820313, 4190.769043, 4195.897461, 4212.307617, 4203.589844, 4224.615234, 4208.205078, 4226.666504, 4216.410156, 4209.743652, 3454.000000, 8161.000000, 8171.000000, 0.000000, 0.000000, 0.000000, 25214.000000, 127.692307, 4.000000, 4.000000, 4.000000, 4.000000, 4.000000, 4.000000, 4.000000, 4.000000, 4.000000, 4.000000, 4.000000, 4.000000, 4.000000, 4.000000, 4.000000, 4.000000
98.000000, 0.000000, 4263.589844, 4006.153809, 4227.179199, 4230.256348, 4217.948730, 4202.051270, 4203.589844, 4209.743652, 4203.076660, 4225.641113, 4214.871582, 4227.179199, 4220.000000, 4212.307617, 3579.000000, 8161.000000, 8171.000000, 0.000000, 0.000000, 0.000000, 25214.000000, 135.384613, 4.000000, 4.000000, 4.000000, 4.000000, 4.000000, 4.000000, 4.000000, 4.000000, 4.000000, 4.000000, 4.000000, 4.000000, 4.000000, 4.000000, 4.000000, 4.000000
99.000000, 0.000000, 4263.076660, 4015.384521, 4222.563965, 4234.358887, 4215.384277, 4197.436035, 4205.127930, 4203.076660, 4203.076660, 4217.948730, 4207.179199, 4218.461426, 4214.871582, 4207.692383, 3591.000000, 8161.000000, 8170.000000, 0.000000, 0.000000, 0.000000, 25214.000000, 143.076920, 4.000000, 4.000000, 4.000000, 4.000000, 4.000000, 4.000000, 4.000000, 4.000000, 4.000000, 4.000000, 4.000000, 4.000000, 4.000000, 4.000000, 4.000000, 4.000000
100.000000, 0.000000, 4256.410156, 4015.897217, 4214.871582, 4231.794922, 4206.666504, 4187.692383, 4196.922852, 4200.512695, 4203.076660, 4213.846191, 4196.410156, 4215.384277, 4207.692383, 4201.025391, 3533.000000, 8161.000000, 8170.000000, 0.000000, 0.000000, 0.000000, 25214.000000, 150.769226, 4.000000, 4.000000, 4.000000, 4.000000, 4.000000, 4.000000, 4.000000, 4.000000, 4.000000, 4.000000, 4.000000, 4.000000, 4.000000, 4.000000, 4.000000, 4.000000
101.000000, 0.000000, 4243.589844, 4005.640869, 4210.256348, 4219.487305, 4201.538574, 4190.769043, 4192.820313, 4191.794922, 4202.051270, 4207.692383, 4188.205078, 4207.179199, 4197.436035, 4188.717773, 3454.000000, 8160.000000, 8166.000000, 0.000000, 0.000000, 0.000000, 25214.000000, 158.461533, 4.000000, 4.000000, 4.000000, 4.000000, 4.000000, 4.000000, 4.000000, 4.000000, 4.000000, 4.000000, 4.000000, 4.000000, 4.000000, 4.000000, 4.000000, 4.000000
102.000000, 0.000000, 4236.410156, 4003.589600, 4211.794922, 4216.922852, 4210.769043, 4199.487305, 4198.974121, 4181.538574, 4201.025391, 4198.974121, 4183.076660, 4199.487305, 4190.256348, 4183.589844, 3579.000000, 8160.000000, 8166.000000, 0.000000, 0.000000, 0.000000, 25214.000000, 166.153839, 4.000000, 4.000000, 4.000000, 4.000000, 4.000000, 4.000000, 4.000000, 4.000000, 4.000000, 4.000000, 4.000000, 4.000000, 4.000000, 4.000000, 4.000000, 4.000000
103.000000, 0.000000, 4231.281738, 4003.076904, 4211.281738, 4216.410156, 4217.948730, 4208.717773, 4208.717773, 4192.307617, 4203.076660, 4192.307617, 4176.922852, 4202.051270, 4181.538574, 4180.000000, 3591.000000, 8159.000000, 8155.000000, 0.000000, 0.000000, 0.000000, 25214.000000, 174.358963, 4.000000, 4.000000, 4.000000, 4.000000, 4.000000, 4.000000, 4.000000, 4.000000, 4.000000, 4.000000, 4.000000, 4.000000, 4.000000, 4.000000, 4.000000, 4.000000
104.000000, 0.000000, 4216.922852, 3995.897217, 4205.641113, 4204.615234, 4207.692383, 4215.897461, 4213.846191, 4203.076660, 4204.615234, 4186.666504, 4167.179199, 4198.974121, 4170.256348, 4167.179199, 3533.000000, 8159.000000, 8155.000000, 0.000000, 0.000000, 0.000000, 25214.000000, 182.051285, 4.000000, 4.000000, 4.000000, 4.000000, 4.000000, 4.000000, 4.000000, 4.000000, 4.000000, 4.000000, 4.000000, 4.000000, 4.000000, 4.000000, 4.000000, 4.000000
105.000000, 0.000000, 4206.666504, 3990.256348, 4201.025391, 4201.025391, 4200.000000, 4213.333008, 4217.436035, 4199.487305, 4204.102539, 4190.256348, 4168.717773, 4194.871582, 4171.281738, 4163.076660, 3454.000000, 8169.000000, 8142.000000, 0.000000, 0.000000, 0.000000, 25214.000000, 189.743591, 4.000000, 4.000000, 4.000000, 4.000000, 4.000000, 4.000000, 4.000000, 4.000000, 4.000000, 4.000000, 4.000000, 4.000000, 4.000000, 4.000000, 4.000000, 4.000000
106.000000, 0.000000, 4212.820313, 3999.487061, 4204.102539, 4210.256348, 4208.205078, 4205.641113, 4215.384277, 4209.230469, 4205.641113, 4205.127930, 4184.102539, 4201.025391, 4183.589844, 4176.410156, 3579.000000, 8169.000000, 8142.000000, 0.000000, 0.000000, 0.000000, 25214.000000, 197.435898, 4.000000, 4.000000, 4.000000, 4.000000, 4.000000, 4.000000, 4.000000, 4.000000, 4.000000, 4.000000, 4.000000, 4.000000, 4.000000, 4.000000, 4.000000, 4.000000
107.000000, 0.000000, 4223.076660, 4013.845947, 4209.230469, 4216.410156, 4213.333008, 4200.512695, 4201.538574, 4217.948730, 4206.153809, 4215.384277, 4193.846191, 4206.153809, 4194.871582, 4185.127930, 3591.000000, 8176.000000, 8129.000000, 0.000000, 0.000000, 0.000000, 25214.000000, 205.128204, 4.000000, 4.000000, 4.000000, 4.000000, 4.000000, 4.000000, 4.000000, 4.000000, 4.000000, 4.000000, 4.000000, 4.000000, 4.000000, 4.000000, 4.000000, 4.000000
108.000000, 0.000000, 4232.307617, 4018.461426, 4214.358887, 4224.615234, 4208.717773, 4200.512695, 4195.897461, 4206.153809, 4203.076660, 4213.846191, 4193.333008, 4211.281738, 4202.051270, 4188.205078, 3533.000000, 8176.000000, 8129.000000, 0.000000, 0.000000, 0.000000, 25214.000000, 212.820511, 4.000000, 4.000000, 4.000000, 4.000000, 4.000000, 4.000000, 4.000000, 4.000000, 4.000000, 4.000000, 4.000000, 4.000000, 4.000000, 4.000000, 4.000000, 4.000000
109.000000, 0.000000, 4231.794922, 4018.461426, 4216.922852, 4228.717773, 4203.589844, 4201.025391, 4203.589844, 4202.563965, 4202.563965, 4205.127930, 4189.230469, 4213.333008, 4196.410156, 4187.692383, 3454.000000, 8185.000000, 8117.000000, 0.000000, 0.000000, 0.000000, 25214.000000, 221.025635, 4.000000, 4.000000, 4.000000, 4.000000, 4.000000, 4.000000, 4.000000, 4.000000, 4.000000, 4.000000, 4.000000, 4.000000, 4.000000, 4.000000, 4.000000, 4.000000
110.000000, 0.000000, 4221.538574, 4018.974365, 4213.333008, 4218.974121, 4200.512695, 4196.922852, 4201.538574, 4206.153809, 4204.615234, 4196.922852, 4181.025391, 4205.127930, 4185.641113, 4178.461426, 3579.000000, 8185.000000, 8117.000000, 0.000000, 0.000000, 0.000000, 25214.000000, 228.717941, 4.000000, 4.000000, 4.000000, 4.000000, 4.000000, 4.000000, 4.000000, 4.000000, 4.000000, 4.000000, 4.000000, 4.000000, 4.000000, 4.000000, 4.000000, 4.000000
111.000000, 0.000000, 4223.076660, 4018.974365, 4217.436035, 4217.948730, 4200.512695, 4193.846191, 4194.358887, 4200.000000, 4203.589844, 4198.974121, 4180.512695, 4201.538574, 4184.615234, 4176.922852, 3591.000000, 8186.000000, 8105.000000, 0.000000, 0.000000, 0.000000, 25214.000000, 236.410248, 4.000000, 4.000000, 4.000000, 4.000000, 4.000000, 4.000000, 4.000000, 4.000000, 4.000000, 4.000000, 4.000000, 4.000000, 4.000000, 4.000000, 4.000000, 4.000000
112.000000, 0.000000, 4230.769043, 4018.461426, 4223.076660, 4223.076660, 4201.538574, 4197.436035, 4200.000000, 4205.127930, 4203.076660, 4200.512695, 4184.102539, 4205.127930, 4186.666504, 4184.102539, 3533.000000, 8186.000000, 8105.000000, 0.000000, 0.000000, 0.000000, 25214.000000, 244.102554, 4.000000, 4.000000, 4.000000, 4.000000, 4.000000, 4.000000, 4.000000, 4.000000, 4.000000, 4.000000, 4.000000, 4.000000, 4.000000, 4.000000, 4.000000, 4.000000
113.000000, 0.000000, 4231.281738, 4021.025635, 4215.897461, 4217.436035, 4202.051270, 4200.512695, 4202.563965, 4218.461426, 4203.076660, 4200.000000, 4186.153809, 4207.179199, 4190.256348, 4188.205078, 3454.000000, 8185.000000, 8070.000000, 0.000000, 0.000000, 0.000000, 25214.000000, 251.794861, 4.000000, 4.000000, 4.000000, 4.000000, 4.000000, 4.000000, 4.000000, 4.000000, 4.000000, 4.000000, 4.000000, 4.000000, 4.000000, 4.000000, 4.000000, 4.000000
114.000000, 0.000000, 4232.307617, 4028.205078, 4216.922852, 4220.512695, 4205.127930, 4197.436035, 4200.512695, 4221.538574, 4205.127930, 4208.205078, 4193.333008, 4212.307617, 4200.000000, 4193.333008, 3579.000000, 8185.000000, 8070.000000, 0.000000, 0.000000, 0.000000, 25214.000000, 259.487183, 4.000000, 4.000000, 4.000000, 4.000000, 4.000000, 4.000000, 4.000000, 4.000000, 4.000000, 4.000000, 4.000000, 4.000000, 4.000000, 4.000000, 4.000000, 4.000000
115.000000, 0.000000, 4235.384277, 4030.256348, 4228.717773, 4229.230469, 4206.666504, 4197.436035, 4209.230469, 4220.512695, 4208.205078, 4217.948730, 4199.487305, 4217.948730, 4201.538574, 4196.922852, 3591.000000, 8188.000000, 8063.000000, 0.000000, 0.000000, 0.000000, 25214.000000, 267.692291, 4.000000, 4.000000, 4.000000, 4.000000, 4.000000, 4.000000, 4.000000, 4.000000, 4.000000, 4.000000, 4.000000, 4.000000, 4.000000, 4.000000, 4.000000, 4.000000
116.000000, 0.000000, 4234.358887, 4030.769043, 4229.743652, 4225.127930, 4205.127930, 4202.051270, 4217.436035, 4221.025391, 4204.615234, 4215.897461, 4194.358887, 4212.307617, 4191.794922, 4191.794922, 3533.000000, 8188.000000, 8063.000000, 0.000000, 0.000000, 0.000000, 25214.000000, 275.384613, 4.000000, 4.000000, 4.000000, 4.000000, 4.000000, 4.000000, 4.000000, 4.000000, 4.000000, 4.000000, 4.000000, 4.000000, 4.000000, 4.000000, 4.000000, 4.000000
117.000000, 0.000000, 4231.794922, 4032.307617, 4221.025391, 4217.436035, 4204.615234, 4203.589844, 4218.461426, 4215.897461, 4198.974121, 4205.127930, 4182.051270, 4204.102539, 4184.615234, 4180.000000, 3454.000000, 8188.000000, 8064.000000, 0.000000, 0.000000, 0.000000, 25214.000000, 283.076904, 4.000000, 4.000000, 4.000000, 4.000000, 4.000000, 4.000000, 4.000000, 4.000000, 4.000000, 4.000000, 4.000000, 4.000000, 4.000000, 4.000000, 4.000000, 4.000000
118.000000, 0.000000, 4230.256348, 4032.307617, 4215.897461, 4218.974121, 4209.743652, 4203.589844, 4220.000000, 4205.127930, 4201.538574, 4196.410156, 4171.281738, 4200.512695, 4183.076660, 4172.307617, 3579.000000, 8188.000000, 8064.000000, 0.000000, 0.000000, 0.000000, 25214.000000, 290.769226, 4.000000, 4.000000, 4.000000, 4.000000, 4.000000, 4.000000, 4.000000, 4.000000, 4.000000, 4.000000, 4.000000, 4.000000, 4.000000, 4.000000, 4.000000, 4.000000
119.000000, 0.000000, 4227.692383, 4036.923096, 4214.871582, 4221.025391, 4215.897461, 4204.615234, 4218.461426, 4200.512695, 4207.692383, 4197.436035, 4174.871582, 4194.871582, 4185.127930, 4174.358887, 3591.000000, 8181.000000, 8082.000000, 0.000000, 0.000000, 0.000000, 25214.000000, 298.974365, 4.000000, 4.000000, 4.000000, 4.000000, 4.000000, 4.000000, 4.000000, 4.000000, 4.000000, 4.000000, 4.000000, 4.000000, 4.000000, 4.000000, 4.000000, 4.000000
120.000000, 0.000000, 4222.563965, 4040.512695, 4209.743652, 4217.948730, 4216.922852, 4205.127930, 4214.358887, 4210.256348, 4207.179199, 4202.563965, 4181.025391, 4188.205078, 4187.692383, 4175.897461, 3533.000000, 8181.000000, 8082.000000, 0.000000, 0.000000, 0.000000, 25214.000000, 306.666656, 4.000000, 4.000000, 4.000000, 4.000000, 4.000000, 4.000000, 4.000000, 4.000000, 4.000000, 4.000000, 4.000000, 4.000000, 4.000000, 4.000000, 4.000000, 4.000000
121.000000, 0.000000, 4215.384277, 4038.461426, 4202.563965, 4213.846191, 4215.384277, 4202.563965, 4211.281738, 4212.307617, 4203.076660, 4202.051270, 4175.384277, 4185.127930, 4187.179199, 4170.256348, 3454.000000, 8180.000000, 8090.000000, 0.000000, 0.000000, 0.000000, 25214.000000, 314.358978, 4.000000, 4.000000, 4.000000, 4.000000, 4.000000, 4.000000, 4.000000, 4.000000, 4.000000, 4.000000, 4.000000, 4.000000, 4.000000, 4.000000, 4.000000, 4.000000
122.000000, 0.000000, 4215.897461, 4043.076904, 4205.641113, 4214.358887, 4214.871582, 4200.512695, 4208.717773, 4200.000000, 4200.512695, 4199.487305, 4174.871582, 4185.641113, 4186.666504, 4168.205078, 3579.000000, 8180.000000, 8090.000000, 0.000000, 0.000000, 0.000000, 25214.000000, 322.051270, 4.000000, 4.000000, 4.000000, 4.000000, 4.000000, 4.000000, 4.000000, 4.000000, 4.000000, 4.000000, 4.000000, 4.000000, 4.000000, 4.000000, 4.000000, 4.000000
123.000000, 0.000000, 4222.563965, 4050.769043, 4209.230469, 4217.436035, 4217.436035, 4204.102539, 4207.179199, 4193.333008, 4202.563965, 4198.461426, 4183.589844, 4187.179199, 4187.179199, 4174.358887, 3591.000000, 8177.000000, 8097.000000, 0.000000, 0.000000, 0.000000, 25214.000000, 329.743591, 4.000000, 4.000000, 4.000000, 4.000000, 4.000000, 4.000000, 4.000000, 4.000000, 4.000000, 4.000000, 4.000000, 4.000000, 4.000000, 4.000000, 4.000000, 4.000000
124.000000, 0.000000, 4230.769043, 4054.871582, 4211.281738, 4218.974121, 4225.641113, 4207.179199, 4206.153809, 4200.512695, 4206.666504, 4198.461426, 4181.025391, 4194.358887, 4185.641113, 4177.436035, 3533.000000, 8177.000000, 8097.000000, 0.000000, 0.000000, 0.000000, 25214.000000, 337.948700, 4.000000, 4.000000, 4.000000, 4.000000, 4.000000, 4.000000, 4.000000, 4.000000, 4.000000, 4.000000, 4.000000, 4.000000, 4.000000, 4.000000, 4.000000, 4.000000
125.000000, 0.000000, 4233.846191, 4055.897217, 4211.281738, 4222.051270, 4230.769043, 4206.153809, 4202.563965, 4209.743652, 4205.641113, 4204.615234, 4174.871582, 4196.922852, 4181.538574, 4176.922852, 3454.000000, 8182.000000, 8097.000000, 0.000000, 0.000000, 0.000000, 25214.000000, 345.641022, 4.000000, 4.000000, 4.000000, 4.000000, 4.000000, 4.000000, 4.000000, 4.000000, 4.000000, 4.000000, 4.000000, 4.000000, 4.000000, 4.000000, 4.000000, 4.000000
126.000000, 0.000000, 4223.589844, 4054.358887, 4202.051270, 4215.384277, 4221.538574, 4199.487305, 4195.384277, 4196.410156, 4201.025391, 4200.512695, 4173.333008, 4186.666504, 4173.333008, 4172.820313, 3579.000000, 8182.000000, 8097.000000, 0.000000, 0.000000, 0.000000, 25214.000000, 353.333313, 4.000000, 4.000000, 4.000000, 4.000000, 4.000000, 4.000000, 4.000000, 4.000000, 4.000000, 4.000000, 4.000000, 4.000000, 4.000000, 4.000000, 4.000000, 4.000000
127.000000, 0.000000, 4213.846191, 4052.307617, 4194.871582, 4202.051270, 4213.846191, 4195.384277, 4190.769043, 4177.436035, 4201.025391, 4184.615234, 4167.179199, 4182.051270, 4167.692383, 4167.179199, 57.000000, 8190.000000, 8090.000000, 0.000000, 0.000000, 0.000000, 25214.000000, 361.025635, 4.000000, 4.000000, 4.000000, 4.000000, 4.000000, 4.000000, 4.000000, 4.000000, 4.000000, 4.000000, 4.000000, 4.000000, 4.000000, 4.000000, 4.000000, 4.000000
0.000000, 0.000000, 4222.051270, 4052.307617, 4198.461426, 4205.641113, 4219.487305, 4200.000000, 4196.410156, 4191.281738, 4203.589844, 4188.205078, 4169.743652, 4185.641113, 4171.281738, 4169.743652, 3086.000000, 8190.000000, 8090.000000, 0.000000, 0.000000, 0.000000, 25214.000000, 368.717926, 4.000000, 4.000000, 4.000000, 4.000000, 4.000000, 4.000000, 4.000000, 4.000000, 4.000000, 4.000000, 4.000000, 4.000000, 4.000000, 4.000000, 4.000000, 4.000000
1.000000, 0.000000, 4233.846191, 4056.923096, 4208.717773, 4216.410156, 4222.563965, 4204.615234, 4205.641113, 4207.179199, 4203.076660, 4200.512695, 4176.410156, 4188.205078, 4175.384277, 4173.846191, 3534.000000, 8202.000000, 8078.000000, 0.000000, 0.000000, 0.000000, 25214.000000, 376.410248, 4.000000, 4.000000, 4.000000, 4.000000, 4.000000, 4.000000, 4.000000, 4.000000, 4.000000, 4.000000, 4.000000, 4.000000, 4.000000, 4.000000, 4.000000, 4.000000
2.000000, 0.000000, 4232.307617, 4060.512695, 4215.897461, 4217.948730, 4221.025391, 4203.589844, 4205.641113, 4190.256348, 4201.538574, 4194.871582, 4174.871582, 4194.358887, 4178.461426, 4175.384277, 3547.000000, 8202.000000, 8078.000000, 0.000000, 0.000000, 0.000000, 25214.000000, 384.615387, 4.000000, 4.000000, 4.000000, 4.000000, 4.000000, 4.000000, 4.000000, 4.000000, 4.000000, 4.000000, 4.000000, 4.000000, 4.000000, 4.000000, 4.000000, 4.000000
3.000000, 0.000000, 4229.230469, 4059.487061, 4215.897461, 4213.333008, 4218.974121, 4205.127930, 4202.051270, 4183.589844, 4202.563965, 4191.794922, 4177.436035, 4201.025391, 4183.076660, 4179.487305, 2220.000000, 8208.000000, 8069.000000, 0.000000, 0.000000, 0.000000, 25214.000000, 392.307678, 4.000000, 4.000000, 4.000000, 4.000000, 4.000000, 4.000000, 4.000000, 4.000000, 4.000000, 4.000000, 4.000000, 4.000000, 4.000000, 4.000000, 4.000000, 4.000000
4.000000, 0.000000, 4229.743652, 4060.000000, 4209.230469, 4206.153809, 4214.358887, 4206.666504, 4203.589844, 4193.333008, 4203.589844, 4198.461426, 4182.563965, 4198.461426, 4184.102539, 4179.487305, 3539.000000, 8208.000000, 8069.000000, 0.000000, 0.000000, 0.000000, 25214.000000, 400.000000, 4.000000, 4.000000, 4.000000, 4.000000, 4.000000, 4.000000, 4.000000, 4.000000, 4.000000, 4.000000, 4.000000, 4.000000, 4.000000, 4.000000, 4.000000, 4.000000
5.000000, 0.000000, 4231.281738, 4066.153809, 4207.692383, 4206.666504, 4215.897461, 4204.615234, 4202.563965, 4183.589844, 4201.538574, 4197.436035, 4183.589844, 4196.410156, 4185.127930, 4182.051270, 3579.000000, 8216.000000, 8065.000000, 0.000000, 0.000000, 0.000000, 25214.000000, 408.205109, 4.000000, 4.000000, 4.000000, 4.000000, 4.000000, 4.000000, 4.000000, 4.000000, 4.000000, 4.000000, 4.000000, 4.000000, 4.000000, 4.000000, 4.000000, 4.000000
6.000000, 0.000000, 4234.358887, 4068.205078, 4218.461426, 4213.333008, 4215.897461, 4202.051270, 4196.922852, 4178.974121, 4201.025391, 4195.384277, 4180.000000, 4202.051270, 4182.563965, 4184.102539, 3447.000000, 8216.000000, 8065.000000, 0.000000, 0.000000, 0.000000, 25214.000000, 415.897430, 4.000000, 4.000000, 4.000000, 4.000000, 4.000000, 4.000000, 4.000000, 4.000000, 4.000000, 4.000000, 4.000000, 4.000000, 4.000000, 4.000000, 4.000000, 4.000000
7.000000, 0.000000, 4230.769043, 4060.512695, 4217.436035, 4205.127930, 4206.153809, 4200.000000, 4191.794922, 4189.743652, 4201.538574, 4194.871582, 4172.307617, 4201.538574, 4172.820313, 4172.820313, 3492.000000, 8223.000000, 8066.000000, 0.000000, 0.000000, 0.000000, 25214.000000, 423.589722, 4.000000, 4.000000, 4.000000, 4.000000, 4.000000, 4.000000, 4.000000, 4.000000, 4.000000, 4.000000, 4.000000, 4.000000, 4.000000, 4.000000, 4.000000, 4.000000
8.000000, 0.000000, 4228.717773, 4064.615234, 4211.794922, 4200.000000, 4204.102539, 4198.461426, 4196.410156, 4188.717773, 4200.512695, 4191.281738, 4171.794922, 4195.384277, 4171.794922, 4171.281738, 773.000000, 8223.000000, 8066.000000, 0.000000, 0.000000, 0.000000, 25214.000000, 431.282043, 4.000000, 4.000000, 4.000000, 4.000000, 4.000000, 4.000000, 4.000000, 4.000000, 4.000000, 4.000000, 4.000000, 4.000000, 4.000000, 4.000000, 4.000000, 4.000000
9.000000, 0.000000, 4238.461426, 4081.025635, 4221.025391, 4213.333008, 4213.333008, 4201.538574, 4207.179199, 4189.230469, 4202.051270, 4194.871582, 4180.512695, 4198.974121, 4185.641113, 4185.641113, 2953.000000, 8228.000000, 8071.000000, 0.000000, 0.000000, 0.000000, 25214.000000, 438.974335, 4.000000, 4.000000, 4.000000, 4.000000, 4.000000, 4.000000, 4.000000, 4.000000, 4.000000, 4.000000, 4.000000, 4.000000, 4.000000, 4.000000, 4.000000, 4.000000
10.000000, 0.000000, 4247.179199, 4085.640869, 4227.179199, 4220.512695, 4217.436035, 4205.127930, 4207.692383, 4202.563965, 4205.127930, 4208.205078, 4188.205078, 4210.256348, 4196.410156, 4191.794922, 3582.000000, 8228.000000, 8071.000000, 0.000000, 0.000000, 0.000000, 25214.000000, 447.179474, 4.000000, 4.000000, 4.000000, 4.000000, 4.000000, 4.000000, 4.000000, 4.000000, 4.000000, 4.000000, 4.000000, 4.000000, 4.000000, 4.000000, 4.000000, 4.000000
11.000000, 0.000000, 4247.692383, 4088.717773, 4219.487305, 4218.974121, 4217.436035, 4203.589844, 4199.487305, 4204.615234, 4205.127930, 4217.948730, 4196.922852, 4210.256348, 4202.051270, 4193.333008, 3592.000000, 8229.000000, 8080.000000, 0.000000, 0.000000, 0.000000, 25214.000000, 454.871796, 4.000000, 4.000000, 4.000000, 4.000000, 4.000000, 4.000000, 4.000000, 4.000000, 4.000000, 4.000000, 4.000000, 4.000000, 4.000000, 4.000000, 4.000000, 4.000000
12.000000, 0.000000, 4247.692383, 4097.948730, 4211.281738, 4221.538574, 4218.974121, 4201.025391, 4197.436035, 4193.846191, 4203.076660, 4218.461426, 4201.538574, 4201.025391, 4206.153809, 4196.922852, 3533.000000, 8229.000000, 8080.000000, 0.000000, 0.000000, 0.000000, 25214.000000, 462.564087, 4.000000, 4.000000, 4.000000, 4.000000, 4.000000, 4.000000, 4.000000, 4.000000, 4.000000, 4.000000, 4.000000, 4.000000, 4.000000, 4.000000, 4.000000, 4.000000
13.000000, 0.000000, 4245.641113, 4100.000000, 4207.692383, 4217.948730, 4217.436035, 4202.563965, 4200.000000, 4190.256348, 4203.076660, 4213.333008, 4190.769043, 4194.358887, 4203.076660, 4188.717773, 3453.000000, 8233.000000, 8089.000000, 0.000000, 0.000000, 0.000000, 25214.000000, 470.256409, 4.000000, 4.000000, 4.000000, 4.000000, 4.000000, 4.000000, 4.000000, 4.000000, 4.000000, 4.000000, 4.000000, 4.000000, 4.000000, 4.000000, 4.000000, 4.000000
14.000000, 0.000000, 4243.589844, 4103.076660, 4207.692383, 4212.820313, 4214.871582, 4203.589844, 4202.051270, 4195.897461, 4203.589844, 4212.820313, 4188.205078, 4198.974121, 4201.025391, 4182.563965, 3582.000000, 8233.000000, 8089.000000, 0.000000, 0.000000, 0.000000, 25214.000000, 477.948700, 4.000000, 4.000000, 4.000000, 4.000000, 4.000000, 4.000000, 4.000000, 4.000000, 4.000000, 4.000000, 4.000000, 4.000000, 4.000000, 4.000000, 4.000000, 4.000000
15.000000, 0.000000, 4246.153809, 4109.230469, 4212.307617, 4216.922852, 4212.820313, 4202.563965, 4203.076660, 4202.563965, 4204.615234, 4218.974121, 4202.051270, 4210.256348, 4205.127930, 4188.717773, 3592.000000, 8237.000000, 8106.000000, 0.000000, 0.000000, 0.000000, 25214.000000, 486.153839, 4.000000, 4.000000, 4.000000, 4.000000, 4.000000, 4.000000, 4.000000, 4.000000, 4.000000, 4.000000, 4.000000, 4.000000, 4.000000, 4.000000, 4.000000, 4.000000
16.000000, 0.000000, 4244.615234, 4110.769043, 4212.820313, 4217.436035, 4210.769043, 4200.512695, 4202.563965, 4203.589844, 4201.538574, 4221.025391, 4204.102539, 4213.333008, 4206.666504, 4189.230469, 0.000000, 8237.000000, 8106.000000, 0.000000, 0.000000, 0.000000, 25214.000000, 493.846130, 4.000000, 4.000000, 4.000000, 4.000000, 4.000000, 4.000000, 4.000000, 4.000000, 4.000000, 4.000000, 4.000000, 4.000000, 4.000000, 4.000000, 4.000000, 4.000000
17.000000, 0.000000, 4242.563965, 4117.436035, 4209.743652, 4214.871582, 4213.846191, 4202.563965, 4201.025391, 4198.461426, 4203.589844, 4218.974121, 4198.974121, 4207.692383, 4207.179199, 4189.230469, 0.000000, 8237.000000, 8116.000000, 0.000000, 0.000000, 0.000000, 25214.000000, 501.538452, 4.000000, 4.000000, 4.000000, 4.000000, 4.000000, 4.000000, 4.000000, 4.000000, 4.000000, 4.000000, 4.000000, 4.000000, 4.000000, 4.000000, 4.000000, 4.000000
18.000000, 0.000000, 4249.230469, 4129.230469, 4214.358887, 4221.025391, 4219.487305, 4211.281738, 4204.615234, 4205.641113, 4211.794922, 4220.512695, 4203.076660, 4209.743652, 4213.846191, 4199.487305, 0.000000, 8237.000000, 8116.000000, 0.000000, 0.000000, 0.000000, 25214.000000, 509.230743, 4.000000, 4.000000, 4.000000, 4.000000, 4.000000, 4.000000, 4.000000, 4.000000, 4.000000, 4.000000, 4.000000, 4.000000, 4.000000, 4.000000, 4.000000, 4.000000
19.000000, 0.000000, 4253.846191, 4138.974121, 4222.051270, 4229.743652, 4221.025391, 4211.281738, 4206.153809, 4211.794922, 4210.256348, 4222.051270, 4204.615234, 4218.461426, 4220.000000, 4203.076660, 0.000000, 8236.000000, 8117.000000, 0.000000, 0.000000, 0.000000, 25214.000000, 517.435913, 4.000000, 4.000000, 4.000000, 4.000000, 4.000000, 4.000000, 4.000000, 4.000000, 4.000000, 4.000000, 4.000000, 4.000000, 4.000000, 4.000000, 4.000000, 4.000000
20.000000, 0.000000, 4251.281738, 4142.051270, 4224.615234, 4229.743652, 4217.436035, 4202.563965, 4202.051270, 4206.153809, 4201.025391, 4218.461426, 4203.589844, 4217.436035, 4215.384277, 4201.025391, 0.000000, 8236.000000, 8117.000000, 0.000000, 0.000000, 0.000000, 25214.000000, 525.128174, 4.000000, 4.000000, 4.000000, 4.000000, 4.000000, 4.000000, 4.000000, 4.000000, 4.000000, 4.000000, 4.000000, 4.000000, 4.000000, 4.000000, 4.000000, 4.000000
21.000000, 0.000000, 4249.743652, 4146.153809, 4225.641113, 4223.076660, 4211.794922, 4201.025391, 4201.538574, 4200.000000, 4202.051270, 4214.358887, 4198.974121, 4210.256348, 4205.127930, 4199.487305, 0.000000, 8236.000000, 8123.000000, 0.000000, 0.000000, 0.000000, 25214.000000, 532.820496, 4.000000, 4.000000, 4.000000, 4.000000, 4.000000, 4.000000, 4.000000, 4.000000, 4.000000, 4.000000, 4.000000, 4.000000, 4.000000, 4.000000, 4.000000, 4.000000
22.000000, 0.000000, 4250.256348, 4152.307617, 4221.025391, 4217.948730, 4204.102539, 4196.922852, 4197.948730, 4188.717773, 4204.102539, 4210.256348, 4188.205078, 4203.589844, 4197.436035, 4194.358887, 0.000000, 8236.000000, 8123.000000, 0.000000, 0.000000, 0.000000, 25214.000000, 540.512817, 4.000000, 4.000000, 4.000000, 4.000000, 4.000000, 4.000000, 4.000000, 4.000000, 4.000000, 4.000000, 4.000000, 4.000000, 4.000000, 4.000000, 4.000000, 4.000000
23.000000, 0.000000, 4247.692383, 4155.384277, 4213.846191, 4216.410156, 4200.000000, 4185.641113, 4184.102539, 4182.563965, 4198.974121, 4208.205078, 4185.641113, 4198.461426, 4198.461426, 4191.794922, 0.000000, 8227.000000, 8128.000000, 0.000000, 0.000000, 0.000000, 25214.000000, 548.717957, 4.000000, 4.000000, 4.000000, 4.000000, 4.000000, 4.000000, 4.000000, 4.000000, 4.000000, 4.000000, 4.000000, 4.000000, 4.000000, 4.000000, 4.000000, 4.000000
24.000000, 0.000000, 4247.179199, 4161.538574, 4218.974121, 4216.922852, 4202.051270, 4188.717773, 4179.487305, 4198.461426, 4207.179199, 4216.410156, 4197.948730, 4202.051270, 4208.717773, 4199.487305, 0.000000, 8227.000000, 8128.000000, 0.000000, 0.000000, 0.000000, 25214.000000, 556.410217, 4.000000, 4.000000, 4.000000, 4.000000, 4.000000, 4.000000, 4.000000, 4.000000, 4.000000, 4.000000, 4.000000, 4.000000, 4.000000, 4.000000, 4.000000, 4.000000
25.000000, 0.000000, 4247.692383, 4170.769043, 4222.563965, 4216.410156, 4204.102539, 4201.025391, 4192.820313, 4209.230469, 4216.410156, 4226.666504, 4205.127930, 4204.615234, 4214.871582, 4205.127930, 0.000000, 8222.000000, 8135.000000, 0.000000, 0.000000, 0.000000, 25214.000000, 564.102539, 4.000000, 4.000000, 4.000000, 4.000000, 4.000000, 4.000000, 4.000000, 4.000000, 4.000000, 4.000000, 4.000000, 4.000000, 4.000000, 4.000000, 4.000000, 4.000000
26.000000, 0.000000, 4246.666504, 4180.512695, 4216.410156, 4214.358887, 4202.563965, 4202.051270, 4202.051270, 4198.974121, 4207.692383, 4224.102539, 4200.512695, 4205.127930, 4215.384277, 4202.563965, 0.000000, 8222.000000, 8135.000000, 0.000000, 0.000000, 0.000000, 25214.000000, 572.307678, 4.000000, 4.000000, 4.000000, 4.000000, 4.000000, 4.000000, 4.000000, 4.000000, 4.000000, 4.000000, 4.000000, 4.000000, 4.000000, 4.000000, 4.000000, 4.000000
27.000000, 0.000000, 4247.692383, 4190.256348, 4221.025391, 4216.922852, 4201.025391, 4201.538574, 4196.922852, 4195.384277, 4202.563965, 4218.461426, 4201.025391, 4208.717773, 4212.820313, 4204.615234, 0.000000, 8217.000000, 8133.000000, 0.000000, 0.000000, 0.000000, 25214.000000, 580.000000, 4.000000, 4.000000, 4.000000, 4.000000, 4.000000, 4.000000, 4.000000, 4.000000, 4.000000, 4.000000, 4.000000, 4.000000, 4.000000, 4.000000, 4.000000, 4.000000
28.000000, 0.000000, 4247.692383, 4194.871582, 4228.205078, 4216.922852, 4202.051270, 4203.076660, 4195.384277, 4200.000000, 4206.153809, 4211.794922, 4198.461426, 4208.717773, 4201.538574, 4203.076660, 0.000000, 8217.000000, 8133.000000, 0.000000, 0.000000, 0.000000, 25214.000000, 587.692322, 4.000000, 4.000000, 4.000000, 4.000000, 4.000000, 4.000000, 4.000000, 4.000000, 4.000000, 4.000000, 4.000000, 4.000000, 4.000000, 4.000000, 4.000000, 4.000000
29.000000, 0.000000, 4244.102539, 4197.948730, 4225.127930, 4210.769043, 4201.538574, 4202.051270, 4207.179199, 4200.000000, 4203.076660, 4205.127930, 4186.666504, 4200.000000, 4189.743652, 4189.743652, 0.000000, 8211.000000, 8140.000000, 0.000000, 0.000000, 0.000000, 25214.000000, 595.897400, 4.000000, 4.000000, 4.000000, 4.000000, 4.000000, 4.000000, 4.000000, 4.000000, 4.000000, 4.000000, 4.000000, 4.000000, 4.000000, 4.000000, 4.000000, 4.000000
30.000000, 0.000000, 4242.563965, 4203.589844, 4219.487305, 4209.743652, 4201.025391, 4206.153809, 4218.974121, 4203.076660, 4201.538574, 4207.179199, 4186.666504, 4195.897461, 4194.358887, 4188.205078, 0.000000, 8211.000000, 8140.000000, 0.000000, 0.000000, 0.000000, 25214.000000, 603.589722, 4.000000, 4.000000, 4.000000, 4.000000, 4.000000, 4.000000, 4.000000, 4.000000, 4.000000, 4.000000, 4.000000, 4.000000, 4.000000, 4.000000, 4.000000, 4.000000
31.000000, 0.000000, 4247.692383, 4217.436035, 4220.512695, 4216.410156, 4205.641113, 4215.897461, 4220.512695, 4208.205078, 4207.179199, 4218.461426, 4200.512695, 4206.153809, 4210.256348, 4202.051270, 0.000000, 8206.000000, 8148.000000, 0.000000, 0.000000, 0.000000, 25214.000000, 611.282043, 4.000000, 4.000000, 4.000000, 4.000000, 4.000000, 4.000000, 4.000000, 4.000000, 4.000000, 4.000000, 4.000000, 4.000000, 4.000000, 4.000000, 4.000000, 4.000000
32.000000, 0.000000, 4250.769043, 4228.205078, 4225.127930, 4218.461426, 4209.743652, 4215.897461, 4217.436035, 4215.384277, 4206.666504, 4227.692383, 4209.230469, 4217.948730, 4216.410156, 4211.794922, 0.000000, 8206.000000, 8148.000000, 0.000000, 0.000000, 0.000000, 25214.000000, 618.974365, 4.000000, 4.000000, 4.000000, 4.000000, 4.000000, 4.000000, 4.000000, 4.000000, 4.000000, 4.000000, 4.000000, 4.000000, 4.000000, 4.000000, 4.000000, 4.000000
33.000000, 0.000000, 4250.769043, 4229.230469, 4224.102539, 4215.897461, 4206.153809, 4206.666504, 4216.922852, 4221.025391, 4203.589844, 4232.820313, 4211.794922, 4218.974121, 4217.436035, 4216.410156, 0.000000, 8207.000000, 8166.000000, 0.000000, 0.000000, 0.000000, 25214.000000, 627.179443, 4.000000, 4.000000, 4.000000, 4.000000, 4.000000, 4.000000, 4.000000, 4.000000, 4.000000, 4.000000, 4.000000, 4.000000, 4.000000, 4.000000, 4.000000, 4.000000
34.000000, 0.000000, 4249.743652, 4235.384277, 4221.538574, 4215.384277, 4202.563965, 4202.051270, 4215.897461, 4212.820313, 4203.589844, 4234.871582, 4212.820313, 4218.461426, 4218.974121, 4218.974121, 0.000000, 8207.000000, 8166.000000, 0.000000, 0.000000, 0.000000, 25214.000000, 634.871765, 4.000000, 4.000000, 4.000000, 4.000000, 4.000000, 4.000000, 4.000000, 4.000000, 4.000000, 4.000000, 4.000000, 4.000000, 4.000000, 4.000000, 4.000000, 4.000000
35.000000, 0.000000, 4240.512695, 4237.948730, 4216.410156, 4208.717773, 4202.051270, 4204.102539, 4210.769043, 4200.000000, 4202.051270, 4224.615234, 4201.538574, 4214.871582, 4207.179199, 4204.102539, 0.000000, 8213.000000, 8178.000000, 0.000000, 0.000000, 0.000000, 25214.000000, 642.564087, 4.000000, 4.000000, 4.000000, 4.000000, 4.000000, 4.000000, 4.000000, 4.000000, 4.000000, 4.000000, 4.000000, 4.000000, 4.000000, 4.000000, 4.000000, 4.000000
36.000000, 0.000000, 4228.717773, 4234.358887, 4210.769043, 4198.461426, 4198.974121, 4202.563965, 4204.102539, 4198.461426, 4202.051270, 4213.846191, 4186.153809, 4200.512695, 4187.179199, 4183.076660, 0.000000, 8213.000000, 8178.000000, 0.000000, 0.000000, 0.000000, 25214.000000, 650.769226, 4.000000, 4.000000, 4.000000, 4.000000, 4.000000, 4.000000, 4.000000, 4.000000, 4.000000, 4.000000, 4.000000, 4.000000, 4.000000, 4.000000, 4.000000, 4.000000
37.000000, 0.000000, 4227.179199, 4241.025391, 4212.820313, 4200.000000, 4194.871582, 4192.820313, 4199.487305, 4196.922852, 4202.051270, 4211.794922, 4182.563965, 4195.384277, 4182.563965, 4181.538574, 0.000000, 8210.000000, 8170.000000, 0.000000, 0.000000, 0.000000, 25214.000000, 658.461548, 4.000000, 4.000000, 4.000000, 4.000000, 4.000000, 4.000000, 4.000000, 4.000000, 4.000000, 4.000000, 4.000000, 4.000000, 4.000000, 4.000000, 4.000000, 4.000000
38.000000, 0.000000, 4231.281738, 4252.820313, 4214.358887, 4208.205078, 4194.871582, 4190.256348, 4199.487305, 4188.717773, 4201.538574, 4212.307617, 4187.179199, 4208.205078, 4192.307617, 4191.794922, 0.000000, 8210.000000, 8170.000000, 0.000000, 0.000000, 0.000000, 25214.000000, 666.153809, 4.000000, 4.000000, 4.000000, 4.000000, 4.000000, 4.000000, 4.000000, 4.000000, 4.000000, 4.000000, 4.000000, 4.000000, 4.000000, 4.000000, 4.000000, 4.000000
39.000000, 0.000000, 4238.974121, 4264.102539, 4212.307617, 4213.333008, 4197.948730, 4197.948730, 4198.974121, 4191.281738, 4203.589844, 4211.794922, 4194.871582, 4213.846191, 4193.846191, 4199.487305, 0.000000, 8219.000000, 8182.000000, 0.000000, 0.000000, 0.000000, 25214.000000, 673.846130, 4.000000, 4.000000, 4.000000, 4.000000, 4.000000, 4.000000, 4.000000, 4.000000, 4.000000, 4.000000, 4.000000, 4.000000, 4.000000, 4.000000, 4.000000, 4.000000
40.000000, 0.000000, 4244.615234, 4271.794922, 4212.307617, 4212.820313, 4201.025391, 4204.102539, 4201.538574, 4201.025391, 4205.127930, 4212.820313, 4196.922852, 4207.692383, 4189.743652, 4198.461426, 0.000000, 8219.000000, 8182.000000, 0.000000, 0.000000, 0.000000, 25214.000000, 682.051270, 4.000000, 4.000000, 4.000000, 4.000000, 4.000000, 4.000000, 4.000000, 4.000000, 4.000000, 4.000000, 4.000000, 4.000000, 4.000000, 4.000000, 4.000000, 4.000000
41.000000, 0.000000, 4240.000000, 4272.820313, 4212.307617, 4208.205078, 4203.076660, 4208.717773, 4213.333008, 4200.000000, 4204.615234, 4211.281738, 4188.717773, 4202.051270, 4189.743652, 4190.769043, 0.000000, 8216.000000, 8179.000000, 0.000000, 0.000000, 0.000000, 25214.000000, 689.743591, 4.000000, 4.000000, 4.000000, 4.000000, 4.000000, 4.000000, 4.000000, 4.000000, 4.000000, 4.000000, 4.000000, 4.000000, 4.000000, 4.000000, 4.000000, 4.000000
42.000000, 0.000000, 4230.769043, 4270.256348, 4209.230469, 4201.538574, 4201.538574, 4210.256348, 4218.461426, 4190.256348, 4204.615234, 4205.127930, 4181.538574, 4198.974121, 4180.000000, 4183.076660, 0.000000, 8216.000000, 8179.000000, 0.000000, 0.000000, 0.000000, 25214.000000, 697.435852, 4.000000, 4.000000, 4.000000, 4.000000, 4.000000, 4.000000, 4.000000, 4.000000, 4.000000, 4.000000, 4.000000, 4.000000, 4.000000, 4.000000, 4.000000, 4.000000
43.000000, 0.000000, 4229.743652, 4271.281738, 4211.794922, 4201.538574, 4202.051270, 4206.666504, 4208.717773, 4185.641113, 4205.641113, 4203.589844, 4183.589844, 4197.948730, 4171.281738, 4181.025391, 0.000000, 8215.000000, 8175.000000, 0.000000, 0.000000, 0.000000, 25214.000000, 705.640991, 4.000000, 4.000000, 4.000000, 4.000000, 4.000000, 4.000000, 4.000000, 4.000000, 4.000000, 4.000000, 4.000000, 4.000000, 4.000000, 4.000000, 4.000000, 4.000000
44.000000, 0.000000, 4235.897461, 4282.051270, 4215.384277, 4210.256348, 4209.230469, 4207.692383, 4202.051270, 4191.794922, 4205.641113, 4208.205078, 4186.666504, 4200.512695, 4179.487305, 4187.179199, 0.000000, 8215.000000, 8175.000000, 0.000000, 0.000000, 0.000000, 25214.000000, 713.333313, 4.000000, 4.000000, 4.000000, 4.000000, 4.000000, 4.000000, 4.000000, 4.000000, 4.000000, 4.000000, 4.000000, 4.000000, 4.000000, 4.000000, 4.000000, 4.000000
45.000000, 0.000000, 4238.974121, 4291.281738, 4212.307617, 4215.384277, 4212.307617, 4215.384277, 4204.102539, 4203.076660, 4207.179199, 4211.794922, 4185.641113, 4201.538574, 4190.256348, 4193.333008, 0.000000, 8216.000000, 8177.000000, 0.000000, 0.000000, 0.000000, 25214.000000, 721.025635, 4.000000, 4.000000, 4.000000, 4.000000, 4.000000, 4.000000, 4.000000, 4.000000, 4.000000, 4.000000, 4.000000, 4.000000, 4.000000, 4.000000, 4.000000, 4.000000
46.000000, 0.000000, 4236.410156, 4292.820313, 4207.179199, 4209.230469, 4210.769043, 4214.358887, 4204.102539, 4200.000000, 4206.666504, 4207.692383, 4186.153809, 4199.487305, 4188.205078, 4192.820313, 0.000000, 8216.000000, 8177.000000, 0.000000, 0.000000, 0.000000, 25214.000000, 728.717957, 4.000000, 4.000000, 4.000000, 4.000000, 4.000000, 4.000000, 4.000000, 4.000000, 4.000000, 4.000000, 4.000000, 4.000000, 4.000000, 4.000000, 4.000000, 4.000000
47.000000, 0.000000, 4235.384277, 4294.358887, 4207.692383, 4203.589844, 4209.230469, 4206.153809, 4201.025391, 4186.153809, 4202.563965, 4202.051270, 4188.205078, 4202.051270, 4186.666504, 4189.230469, 0.000000, 8215.000000, 8177.000000, 0.000000, 0.000000, 0.000000, 25214.000000, 736.923035, 4.000000, 4.000000, 4.000000, 4.000000, 4.000000, 4.000000, 4.000000, 4.000000, 4.000000, 4.000000, 4.000000, 4.000000, 4.000000, 4.000000, 4.000000, 4.000000
48.000000, 0.000000, 4230.769043, 4290.256348, 4204.102539, 4203.076660, 4203.589844, 4201.025391, 4198.974121, 4182.563965, 4201.025391, 4198.974121, 4181.538574, 4197.436035, 4181.025391, 4179.487305, 0.000000, 8215.000000, 8177.000000, 0.000000, 0.000000, 0.000000, 25214.000000, 744.615356, 4.000000, 4.000000, 4.000000, 4.000000, 4.000000, 4.000000, 4.000000, 4.000000, 4.000000, 4.000000, 4.000000, 4.000000, 4.000000, 4.000000, 4.000000, 4.000000
49.000000, 0.000000, 4216.922852, 4281.538574, 4198.974121, 4196.922852, 4196.410156, 4198.974121, 4196.410156, 4191.794922, 4200.512695, 4196.410156, 4170.256348, 4184.615234, 4166.666504, 4167.692383, 0.000000, 8211.000000, 8170.000000, 0.000000, 0.000000, 0.000000, 25214.000000, 752.307678, 4.000000, 4.000000, 4.000000, 4.000000, 4.000000, 4.000000, 4.000000, 4.000000, 4.000000, 4.000000, 4.000000, 4.000000, 4.000000, 4.000000, 4.000000, 4.000000
50.000000, 0.000000, 4217.948730, 4282.051270, 4203.076660, 4193.333008, 4196.922852, 4201.538574, 4198.461426, 4201.025391, 4203.589844, 4203.589844, 4174.871582, 4186.666504, 4172.820313, 4173.333008, 0.000000, 8211.000000, 8170.000000, 0.000000, 0.000000, 0.000000, 25214.000000, 760.000000, 4.000000, 4.000000, 4.000000, 4.000000, 4.000000, 4.000000, 4.000000, 4.000000, 4.000000, 4.000000, 4.000000, 4.000000, 4.000000, 4.000000, 4.000000, 4.000000
51.000000, 0.000000, 4233.846191, 4287.692383, 4207.692383, 4202.051270, 4200.000000, 4203.076660, 4207.179199, 4202.051270, 4207.179199, 4218.974121, 4191.281738, 4200.512695, 4191.281738, 4189.230469, 0.000000, 8212.000000, 8169.000000, 0.000000, 0.000000, 0.000000, 25214.000000, 768.205139, 4.000000, 4.000000, 4.000000, 4.000000, 4.000000, 4.000000, 4.000000, 4.000000, 4.000000, 4.000000, 4.000000, 4.000000, 4.000000, 4.000000, 4.000000, 4.000000
52.000000, 0.000000, 4236.410156, 4285.127930, 4207.179199, 4205.641113, 4198.974121, 4201.538574, 4212.307617, 4199.487305, 4206.666504, 4221.538574, 4195.384277, 4201.025391, 4191.281738, 4188.717773, 0.000000, 8212.000000, 8169.000000, 0.000000, 0.000000, 0.000000, 25214.000000, 775.897400, 4.000000, 4.000000, 4.000000, 4.000000, 4.000000, 4.000000, 4.000000, 4.000000, 4.000000, 4.000000, 4.000000, 4.000000, 4.000000, 4.000000, 4.000000, 4.000000
53.000000, 0.000000, 4230.256348, 4281.025391, 4203.589844, 4201.538574, 4198.974121, 4208.717773, 4217.436035, 4209.230469, 4207.179199, 4216.922852, 4192.820313, 4197.436035, 4185.641113, 4185.127930, 0.000000, 8211.000000, 8174.000000, 0.000000, 0.000000, 0.000000, 25214.000000, 783.589722, 4.000000, 4.000000, 4.000000, 4.000000, 4.000000, 4.000000, 4.000000, 4.000000, 4.000000, 4.000000, 4.000000, 4.000000, 4.000000, 4.000000, 4.000000, 4.000000
54.000000, 0.000000, 4232.820313, 4284.102539, 4202.051270, 4201.538574, 4201.538574, 4217.436035, 4227.179199, 4225.641113, 4210.769043, 4223.076660, 4197.436035, 4202.051270, 4190.769043, 4189.743652, 0.000000, 8211.000000, 8174.000000, 0.000000, 0.000000, 0.000000, 25214.000000, 791.282043, 4.000000, 4.000000, 4.000000, 4.000000, 4.000000, 4.000000, 4.000000, 4.000000, 4.000000, 4.000000, 4.000000, 4.000000, 4.000000, 4.000000, 4.000000, 4.000000
55.000000, 0.000000, 4233.846191, 4288.205078, 4204.615234, 4203.589844, 4205.641113, 4218.974121, 4228.205078, 4225.641113, 4212.820313, 4231.794922, 4201.538574, 4201.538574, 4198.461426, 4188.717773, 0.000000, 8212.000000, 8171.000000, 0.000000, 0.000000, 0.000000, 25214.000000, 799.487183, 4.000000, 4.000000, 4.000000, 4.000000, 4.000000, 4.000000, 4.000000, 4.000000, 4.000000, 4.000000, 4.000000, 4.000000, 4.000000, 4.000000, 4.000000, 4.000000
56.000000, 0.000000, 4232.820313, 4284.615234, 4205.641113, 4205.641113, 4208.717773, 4217.436035, 4216.410156, 4217.948730, 4209.230469, 4232.307617, 4205.641113, 4199.487305, 4201.025391, 4188.205078, 0.000000, 8212.000000, 8171.000000, 0.000000, 0.000000, 0.000000, 25214.000000, 807.179443, 4.000000, 4.000000, 4.000000, 4.000000, 4.000000, 4.000000, 4.000000, 4.000000, 4.000000, 4.000000, 4.000000, 4.000000, 4.000000, 4.000000, 4.000000, 4.000000
57.000000, 0.000000, 4228.205078, 4278.461426, 4202.563965, 4204.615234, 4204.102539, 4212.820313, 4211.281738, 4217.436035, 4205.127930, 4222.563965, 4201.538574, 4200.512695, 4193.846191, 4188.717773, 0.000000, 8214.000000, 8166.000000, 0.000000, 0.000000, 0.000000, 25214.000000, 814.871765, 4.000000, 4.000000, 4.000000, 4.000000, 4.000000, 4.000000, 4.000000, 4.000000, 4.000000, 4.000000, 4.000000, 4.000000, 4.000000, 4.000000, 4.000000, 4.000000
58.000000, 0.000000, 4221.025391, 4274.358887, 4195.384277, 4201.025391, 4198.461426, 4205.641113, 4215.897461, 4210.256348, 4203.076660, 4213.333008, 4188.717773, 4193.846191, 4183.589844, 4187.179199, 0.000000, 8214.000000, 8166.000000, 0.000000, 0.000000, 0.000000, 25214.000000, 822.564087, 4.000000, 4.000000, 4.000000, 4.000000, 4.000000, 4.000000, 4.000000, 4.000000, 4.000000, 4.000000, 4.000000, 4.000000, 4.000000, 4.000000, 4.000000, 4.000000
59.000000, 0.000000, 4218.461426, 4273.333008, 4191.281738, 4201.025391, 4199.487305, 4207.179199, 4215.384277, 4199.487305, 4202.563965, 4215.384277, 4187.692383, 4187.692383, 4185.127930, 4188.205078, 0.000000, 8222.000000, 8169.000000, 0.000000, 0.000000, 0.000000, 25214.000000, 830.769226, 4.000000, 4.000000, 4.000000, 4.000000, 4.000000, 4.000000, 4.000000, 4.000000, 4.000000, 4.000000, 4.000000, 4.000000, 4.000000, 4.000000, 4.000000, 4.000000
60.000000, 0.000000, 4218.974121, 4276.922852, 4194.871582, 4201.025391, 4203.589844, 4213.333008, 4211.794922, 4205.127930, 4207.179199, 4218.461426, 4196.410156, 4192.307617, 4189.230469, 4190.769043, 0.000000, 8222.000000, 8169.000000, 0.000000, 0.000000, 0.000000, 25214.000000, 838.461548, 4.000000, 4.000000, 4.000000, 4.000000, 4.000000, 4.000000, 4.000000, 4.000000, 4.000000, 4.000000, 4.000000, 4.000000, 4.000000, 4.000000, 4.000000, 4.000000
61.000000, 0.000000, 4225.641113, 4279.487305, 4202.563965, 4202.563965, 4205.641113, 4216.922852, 4215.897461, 4218.974121, 4209.230469, 4219.487305, 4201.025391, 4200.000000, 4193.846191, 4194.871582, 0.000000, 8228.000000, 8167.000000, 0.000000, 0.000000, 0.000000, 25214.000000, 846.153809, 4.000000, 4.000000, 4.000000, 4.000000, 4.000000, 4.000000, 4.000000, 4.000000, 4.000000, 4.000000, 4.000000, 4.000000, 4.000000, 4.000000, 4.000000, 4.000000
62.000000, 0.000000, 4233.333008, 4284.102539, 4210.769043, 4208.205078, 4205.641113, 4218.974121, 4221.538574, 4216.922852, 4204.615234, 4225.127930, 4204.102539, 4205.641113, 4202.563965, 4201.538574, 0.000000, 8228.000000, 8167.000000, 0.000000, 0.000000, 0.000000, 25214.000000, 853.846130, 4.000000, 4.000000, 4.000000, 4.000000, 4.000000, 4.000000, 4.000000, 4.000000, 4.000000, 4.000000, 4.000000, 4.000000, 4.000000, 4.000000, 4.000000, 4.000000
63.000000, 0.000000, 4229.230469, 4285.641113, 4208.205078, 4208.205078, 4204.615234, 4217.436035, 4221.025391, 4201.538574, 4200.000000, 4226.153809, 4202.051270, 4200.512695, 4201.025391, 4198.974121, 0.000000, 8238.000000, 8161.000000, 0.000000, 0.000000, 0.000000, 25214.000000, 862.051270, 4.000000, 4.000000, 4.000000, 4.000000, 4.000000, 4.000000, 4.000000, 4.000000, 4.000000, 4.000000, 4.000000, 4.000000, 4.000000, 4.000000, 4.000000, 4.000000
64.000000, 0.000000, 4216.922852, 4280.512695, 4200.512695, 4201.025391, 4201.538574, 4214.871582, 4215.897461, 4197.436035, 4202.563965, 4214.358887, 4190.769043, 4189.230469, 4186.666504, 4186.153809, 3086.000000, 8238.000000, 8161.000000, 0.000000, 0.000000, 0.000000, 25214.000000, 869.743591, 4.000000, 4.000000, 4.000000, 4.000000, 4.000000, 4.000000, 4.000000, 4.000000, 4.000000, 4.000000, 4.000000, 4.000000, 4.000000, 4.000000, 4.000000, 4.000000
65.000000, 0.000000, 4214.871582, 4274.871582, 4198.974121, 4199.487305, 4198.974121, 4216.410156, 4217.948730, 4200.000000, 4202.051270, 4203.589844, 4180.000000, 4184.615234, 4175.897461, 4175.897461, 3534.000000, 8251.000000, 8161.000000, 0.000000, 0.000000, 0.000000, 25214.000000, 877.435852, 4.000000, 4.000000, 4.000000, 4.000000, 4.000000, 4.000000, 4.000000, 4.000000, 4.000000, 4.000000, 4.000000, 4.000000, 4.000000, 4.000000, 4.000000, 4.000000
66.000000, 0.000000, 4218.974121, 4273.333008, 4196.922852, 4201.538574, 4199.487305, 4213.846191, 4216.922852, 4185.127930, 4197.436035, 4199.487305, 4178.974121, 4182.563965, 4172.820313, 4177.948730, 3547.000000, 8251.000000, 8161.000000, 0.000000, 0.000000, 0.000000, 25214.000000, 885.128174, 4.000000, 4.000000, 4.000000, 4.000000, 4.000000, 4.000000, 4.000000, 4.000000, 4.000000, 4.000000, 4.000000, 4.000000, 4.000000, 4.000000, 4.000000, 4.000000
67.000000, 0.000000, 4218.461426, 4280.512695, 4198.974121, 4202.051270, 4199.487305, 4204.615234, 4208.717773, 4175.897461, 4201.025391, 4199.487305, 4180.000000, 4182.563965, 4175.897461, 4182.563965, 2203.000000, 8257.000000, 8163.000000, 0.000000, 0.000000, 0.000000, 25214.000000, 893.333313, 4.000000, 4.000000, 4.000000, 4.000000, 4.000000, 4.000000, 4.000000, 4.000000, 4.000000, 4.000000, 4.000000, 4.000000, 4.000000, 4.000000, 4.000000, 4.000000
68.000000, 0.000000, 4222.051270, 4286.153809, 4208.717773, 4201.538574, 4198.974121, 4201.025391, 4203.589844, 4195.897461, 4204.102539, 4208.205078, 4182.051270, 4192.820313, 4181.538574, 4184.102539, 3539.000000, 8257.000000, 8163.000000, 0.000000, 0.000000, 0.000000, 25214.000000, 901.025635, 4.000000, 4.000000, 4.000000, 4.000000, 4.000000, 4.000000, 4.000000, 4.000000, 4.000000, 4.000000, 4.000000, 4.000000, 4.000000, 4.000000, 4.000000, 4.000000
69.000000, 0.000000, 4231.281738, 4287.179199, 4214.358887, 4204.102539, 4200.512695, 4204.102539, 4203.589844, 4216.922852, 4204.102539, 4217.948730, 4191.794922, 4202.051270, 4188.717773, 4192.820313, 3579.000000, 8268.000000, 8163.000000, 0.000000, 0.000000, 0.000000, 25214.000000, 908.717957, 4.000000, 4.000000, 4.000000, 4.000000, 4.000000, 4.000000, 4.000000, 4.000000, 4.000000, 4.000000, 4.000000, 4.000000, 4.000000, 4.000000, 4.000000, 4.000000
70.000000, 0.000000, 4236.410156, 4292.307617, 4213.846191, 4208.717773, 4195.384277, 4202.051270, 4210.256348, 4214.358887, 4204.615234, 4219.487305, 4198.974121, 4202.563965, 4194.358887, 4200.512695, 3447.000000, 8268.000000, 8163.000000, 0.000000, 0.000000, 0.000000, 25214.000000, 916.410217, 4.000000, 4.000000, 4.000000, 4.000000, 4.000000, 4.000000, 4.000000, 4.000000, 4.000000, 4.000000, 4.000000, 4.000000, 4.000000, 4.000000, 4.000000, 4.000000
71.000000, 0.000000, 4233.333008, 4297.436035, 4213.333008, 4208.205078, 4191.794922, 4197.948730, 4213.333008, 4210.256348, 4205.641113, 4216.922852, 4191.794922, 4202.051270, 4185.127930, 4190.256348, 3477.000000, 8272.000000, 8161.000000, 0.000000, 0.000000, 0.000000, 25214.000000, 924.615356, 4.000000, 4.000000, 4.000000, 4.000000, 4.000000, 4.000000, 4.000000, 4.000000, 4.000000, 4.000000, 4.000000, 4.000000, 4.000000, 4.000000, 4.000000, 4.000000
72.000000, 0.000000, 4231.794922, 4299.487305, 4212.820313, 4203.076660, 4194.358887, 4200.000000, 4206.153809, 4216.410156, 4204.615234, 4216.410156, 4184.615234, 4201.538574, 4176.410156, 4183.076660, 773.000000, 8272.000000, 8161.000000, 0.000000, 0.000000, 0.000000, 25214.000000, 932.307678, 4.000000, 4.000000, 4.000000, 4.000000, 4.000000, 4.000000, 4.000000, 4.000000, 4.000000, 4.000000, 4.000000, 4.000000, 4.000000, 4.000000, 4.000000, 4.000000
73.000000, 0.000000, 4233.333008, 4300.512695, 4206.153809, 4201.538574, 4191.281738, 4200.512695, 4200.512695, 4215.897461, 4203.589844, 4215.384277, 4191.794922, 4201.025391, 4185.127930, 4193.333008, 2953.000000, 8278.000000, 8163.000000, 0.000000, 0.000000, 0.000000, 25214.000000, 940.000000, 4.000000, 4.000000, 4.000000, 4.000000, 4.000000, 4.000000, 4.000000, 4.000000, 4.000000, 4.000000, 4.000000, 4.000000, 4.000000, 4.000000, 4.000000, 4.000000
74.000000, 0.000000, 4223.589844, 4298.974121, 4196.410156, 4197.948730, 4184.102539, 4198.974121, 4204.615234, 4202.563965, 4203.589844, 4206.153809, 4189.230469, 4197.948730, 4189.230469, 4194.358887, 3582.000000, 8278.000000, 8163.000000, 0.000000, 0.000000, 0.000000, 25214.000000, 947.692261, 4.000000, 4.000000, 4.000000, 4.000000, 4.000000, 4.000000, 4.000000, 4.000000, 4.000000, 4.000000, 4.000000, 4.000000, 4.000000, 4.000000, 4.000000, 4.000000
75.000000, 0.000000, 4215.384277, 4296.410156, 4193.333008, 4192.307617, 4185.641113, 4200.512695, 4206.153809, 4196.410156, 4204.615234, 4200.512695, 4178.974121, 4189.743652, 4185.127930, 4190.256348, 3592.000000, 8286.000000, 8160.000000, 0.000000, 0.000000, 0.000000, 25214.000000, 955.897400, 4.000000, 4.000000, 4.000000, 4.000000, 4.000000, 4.000000, 4.000000, 4.000000, 4.000000, 4.000000, 4.000000, 4.000000, 4.000000, 4.000000, 4.000000, 4.000000
76.000000, 0.000000, 4222.563965, 4296.410156, 4196.922852, 4197.948730, 4187.692383, 4198.974121, 4201.538574, 4202.563965, 4204.102539, 4208.205078, 4189.743652, 4192.307617, 4196.410156, 4202.563965, 3533.000000, 8286.000000, 8160.000000, 0.000000, 0.000000, 0.000000, 25214.000000, 963.589722, 4.000000, 4.000000, 4.000000, 4.000000, 4.000000, 4.000000, 4.000000, 4.000000, 4.000000, 4.000000, 4.000000, 4.000000, 4.000000, 4.000000, 4.000000, 4.000000
77.000000, 0.000000, 4232.820313, 4301.538574, 4204.615234, 4205.127930, 4184.615234, 4194.871582, 4202.563965, 4203.076660, 4202.563965, 4218.461426, 4210.256348, 4208.717773, 4216.410156, 4216.922852, 3453.000000, 8281.000000, 8162.000000, 0.000000, 0.000000, 0.000000, 25214.000000, 971.282043, 4.000000, 4.000000, 4.000000, 4.000000, 4.000000, 4.000000, 4.000000, 4.000000, 4.000000, 4.000000, 4.000000, 4.000000, 4.000000, 4.000000, 4.000000, 4.000000
78.000000, 0.000000, 4238.974121, 4310.256348, 4214.358887, 4206.153809, 4190.769043, 4196.410156, 4201.025391, 4200.000000, 4202.051270, 4221.025391, 4219.487305, 4220.000000, 4230.256348, 4230.256348, 3582.000000, 8281.000000, 8162.000000, 0.000000, 0.000000, 0.000000, 25214.000000, 979.487183, 4.000000, 4.000000, 4.000000, 4.000000, 4.000000, 4.000000, 4.000000, 4.000000, 4.000000, 4.000000, 4.000000, 4.000000, 4.000000, 4.000000, 4.000000, 4.000000
79.000000, 0.000000, 4241.025391, 4313.333008, 4215.384277, 4204.615234, 4196.410156, 4203.589844, 4200.512695, 4208.205078, 4203.589844, 4218.974121, 4220.512695, 4222.051270, 4235.384277, 4236.922852, 3592.000000, 8281.000000, 8165.000000, 0.000000, 0.000000, 0.000000, 25214.000000, 987.179443, 4.000000, 4.000000, 4.000000, 4.000000, 4.000000, 4.000000, 4.000000, 4.000000, 4.000000, 4.000000, 4.000000, 4.000000, 4.000000, 4.000000, 4.000000, 4.000000
80.000000, 0.000000, 4232.307617, 4304.615234, 4208.205078, 4197.436035, 4189.743652, 4205.127930, 4209.230469, 4215.897461, 4204.102539, 4214.358887, 4211.794922, 4215.897461, 4223.589844, 4224.615234, 3533.000000, 8281.000000, 8165.000000, 0.000000, 0.000000, 0.000000, 25214.000000, 994.871765, 4.000000, 4.000000, 4.000000, 4.000000, 4.000000, 4.000000, 4.000000, 4.000000, 4.000000, 4.000000, 4.000000, 4.000000, 4.000000, 4.000000, 4.000000, 4.000000
81.000000, 0.000000, 4218.974121, 4294.358887, 4207.179199, 4186.666504, 4184.102539, 4204.615234, 4221.025391, 4217.436035, 4204.615234, 4214.871582, 4202.051270, 4202.563965, 4212.307617, 4211.281738, 3453.000000, 8272.000000, 8170.000000, 0.000000, 0.000000, 0.000000, 25215.000000, 3.076923, 4.000000, 4.000000, 4.000000, 4.000000, 4.000000, 4.000000, 4.000000, 4.000000, 4.000000, 4.000000, 4.000000, 4.000000, 4.000000, 4.000000, 4.000000, 4.000000
82.000000, 0.000000, 4216.922852, 4297.948730, 4213.846191, 4184.102539, 4184.615234, 4203.076660, 4217.948730, 4217.948730, 4205.127930, 4224.615234, 4205.127930, 4203.076660, 4214.871582, 4213.333008, 3582.000000, 8272.000000, 8170.000000, 0.000000, 0.000000, 0.000000, 25215.000000, 10.769231, 4.000000, 4.000000, 4.000000, 4.000000, 4.000000, 4.000000, 4.000000, 4.000000, 4.000000, 4.000000, 4.000000, 4.000000, 4.000000, 4.000000, 4.000000, 4.000000
83.000000, 0.000000, 4225.127930, 4307.692383, 4217.948730, 4189.743652, 4182.051270, 4193.846191, 4202.563965, 4213.333008, 4204.102539, 4226.666504, 4213.333008, 4213.333008, 4218.974121, 4217.948730, 3592.000000, 8268.000000, 8173.000000, 0.000000, 0.000000, 0.000000, 25215.000000, 18.461538, 4.000000, 4.000000, 4.000000, 4.000000, 4.000000, 4.000000, 4.000000, 4.000000, 4.000000, 4.000000, 4.000000, 4.000000, 4.000000, 4.000000, 4.000000, 4.000000
84.000000, 0.000000, 4238.974121, 4313.333008, 4221.538574, 4201.025391, 4183.589844, 4189.743652, 4200.000000, 4205.641113, 4203.589844, 4228.205078, 4218.461426, 4219.487305, 4225.641113, 4226.153809, 3533.000000, 8268.000000, 8173.000000, 0.000000, 0.000000, 0.000000, 25215.000000, 26.666666, 4.000000, 4.000000, 4.000000, 4.000000, 4.000000, 4.000000, 4.000000, 4.000000, 4.000000, 4.000000, 4.000000, 4.000000, 4.000000, 4.000000, 4.000000, 4.000000
85.000000, 0.000000, 4246.153809, 4322.051270, 4229.230469, 4209.743652, 4192.820313, 4197.948730, 4204.615234, 4202.051270, 4203.589844, 4233.333008, 4225.127930, 4224.102539, 4229.743652, 4232.307617, 3453.000000, 8265.000000, 8177.000000, 0.000000, 0.000000, 0.000000, 25215.000000, 34.358974, 4.000000, 4.000000, 4.000000, 4.000000, 4.000000, 4.000000, 4.000000, 4.000000, 4.000000, 4.000000, 4.000000, 4.000000, 4.000000, 4.000000, 4.000000, 4.000000
86.000000, 0.000000, 4231.794922, 4320.512695, 4223.076660, 4204.615234, 4192.307617, 4203.589844, 4203.076660, 4200.512695, 4201.538574, 4224.615234, 4220.000000, 4220.512695, 4221.025391, 4223.589844, 3582.000000, 8265.000000, 8177.000000, 0.000000, 0.000000, 0.000000, 25215.000000, 42.051281, 4.000000, 4.000000, 4.000000, 4.000000, 4.000000, 4.000000, 4.000000, 4.000000, 4.000000, 4.000000, 4.000000, 4.000000, 4.000000, 4.000000, 4.000000, 4.000000
87.000000, 0.000000, 4214.358887, 4312.820313, 4208.205078, 4195.897461, 4184.615234, 4200.000000, 4200.000000, 4200.000000, 4201.538574, 4211.794922, 4202.563965, 4204.615234, 4207.179199, 4207.179199, 3592.000000, 8252.000000, 8187.000000, 0.000000, 0.000000, 0.000000, 25215.000000, 50.256409, 4.000000, 4.000000, 4.000000, 4.000000, 4.000000, 4.000000, 4.000000, 4.000000, 4.000000, 4.000000, 4.000000, 4.000000, 4.000000, 4.000000, 4.000000, 4.000000
88.000000, 0.000000, 4213.846191, 4315.897461, 4209.230469, 4198.974121, 4185.127930, 4200.512695, 4202.051270, 4197.948730, 4203.589844, 4211.794922, 4198.461426, 4199.487305, 4204.615234, 4204.615234, 3533.000000, 8252.000000, 8187.000000, 0.000000, 0.000000, 0.000000, 25215.000000, 57.948715, 4.000000, 4.000000, 4.000000, 4.000000, 4.000000, 4.000000, 4.000000, 4.000000, 4.000000, 4.000000, 4.000000, 4.000000, 4.000000, 4.000000, 4.000000, 4.000000
89.000000, 0.000000, 4218.974121, 4319.487305, 4214.358887, 4200.512695, 4186.153809, 4204.102539, 4204.102539, 4187.692383, 4203.076660, 4209.743652, 4203.589844, 4204.102539, 4205.127930, 4210.769043, 3453.000000, 8247.000000, 8179.000000, 0.000000, 0.000000, 0.000000, 25215.000000, 66.153847, 4.000000, 4.000000, 4.000000, 4.000000, 4.000000, 4.000000, 4.000000, 4.000000, 4.000000, 4.000000, 4.000000, 4.000000, 4.000000, 4.000000, 4.000000, 4.000000
90.000000, 0.000000, 4212.307617, 4314.358887, 4212.307617, 4188.717773, 4176.922852, 4195.384277, 4200.512695, 4186.153809, 4200.000000, 4201.025391, 4200.000000, 4203.589844, 4200.512695, 4210.256348, 3582.000000, 8247.000000, 8179.000000, 0.000000, 0.000000, 0.000000, 25215.000000, 73.846153, 4.000000, 4.000000, 4.000000, 4.000000, 4.000000, 4.000000, 4.000000, 4.000000, 4.000000, 4.000000, 4.000000, 4.000000, 4.000000, 4.000000, 4.000000, 4.000000
91.000000, 0.000000, 4207.179199, 4307.179199, 4207.179199, 4181.025391, 4168.205078, 4185.641113, 4202.051270, 4197.948730, 4202.051270, 4203.589844, 4196.922852, 4206.153809, 4198.461426, 4205.641113, 3592.000000, 8242.000000, 8166.000000, 0.000000, 0.000000, 0.000000, 25215.000000, 81.538460, 4.000000, 4.000000, 4.000000, 4.000000, 4.000000, 4.000000, 4.000000, 4.000000, 4.000000, 4.000000, 4.000000, 4.000000, 4.000000, 4.000000, 4.000000, 4.000000
92.000000, 0.000000, 4212.820313, 4306.153809, 4206.666504, 4185.127930, 4173.846191, 4188.717773, 4211.281738, 4202.051270, 4204.615234, 4211.794922, 4203.589844, 4213.333008, 4200.512695, 4210.769043, 3533.000000, 8242.000000, 8166.000000, 0.000000, 0.000000, 0.000000, 25215.000000, 89.743591, 4.000000, 4.000000, 4.000000, 4.000000, 4.000000, 4.000000, 4.000000, 4.000000, 4.000000, 4.000000, 4.000000, 4.000000, 4.000000, 4.000000, 4.000000, 4.000000
93.000000, 0.000000, 4215.897461, 4312.307617, 4209.743652, 4188.205078, 4184.102539, 4198.461426, 4217.436035, 4200.000000, 4203.076660, 4214.358887, 4210.256348, 4215.384277, 4203.076660, 4218.461426, 3453.000000, 8233.000000, 8160.000000, 0.000000, 0.000000, 0.000000, 25215.000000, 97.435898, 4.000000, 4.000000, 4.000000, 4.000000, 4.000000, 4.000000, 4.000000, 4.000000, 4.000000, 4.000000, 4.000000, 4.000000, 4.000000, 4.000000, 4.000000, 4.000000
94.000000, 0.000000, 4215.384277, 4316.922852, 4210.769043, 4190.256348, 4186.666504, 4202.051270, 4218.461426, 4203.076660, 4203.589844, 4215.897461, 4211.794922, 4215.897461, 4208.205078, 4219.487305, 3582.000000, 8233.000000, 8160.000000, 0.000000, 0.000000, 0.000000, 25215.000000, 105.128204, 4.000000, 4.000000, 4.000000, 4.000000, 4.000000, 4.000000, 4.000000, 4.000000, 4.000000, 4.000000, 4.000000, 4.000000, 4.000000, 4.000000, 4.000000, 4.000000
95.000000, 0.000000, 4217.436035, 4318.974121, 4213.333008, 4197.948730, 4187.179199, 4202.563965, 4216.410156, 4204.102539, 4202.563965, 4215.897461, 4212.820313, 4218.974121, 4214.871582, 4224.102539, 3592.000000, 8222.000000, 8166.000000, 0.000000, 0.000000, 0.000000, 25215.000000, 113.333328, 4.000000, 4.000000, 4.000000, 4.000000, 4.000000, 4.000000, 4.000000, 4.000000, 4.000000, 4.000000, 4.000000, 4.000000, 4.000000, 4.000000, 4.000000, 4.000000
96.000000, 0.000000, 4220.512695, 4319.487305, 4214.358887, 4202.563965, 4189.743652, 4205.127930, 4209.230469, 4209.743652, 4202.563965, 4218.461426, 4216.410156, 4218.974121, 4216.410156, 4231.281738, 3533.000000, 8222.000000, 8166.000000, 0.000000, 0.000000, 0.000000, 25215.000000, 121.025635, 4.000000, 4.000000, 4.000000, 4.000000, 4.000000, 4.000000, 4.000000, 4.000000, 4.000000, 4.000000, 4.000000, 4.000000, 4.000000, 4.000000, 4.000000, 4.000000
97.000000, 0.000000, 4218.974121, 4320.000000, 4213.846191, 4197.436035, 4186.666504, 4200.000000, 4202.563965, 4224.102539, 4208.205078, 4223.589844, 4218.461426, 4218.461426, 4215.384277, 4232.307617, 3453.000000, 8217.000000, 8171.000000, 0.000000, 0.000000, 0.000000, 25215.000000, 129.230759, 4.000000, 4.000000, 4.000000, 4.000000, 4.000000, 4.000000, 4.000000, 4.000000, 4.000000, 4.000000, 4.000000, 4.000000, 4.000000, 4.000000, 4.000000, 4.000000
98.000000, 0.000000, 4215.897461, 4323.076660, 4214.871582, 4192.820313, 4183.589844, 4189.230469, 4194.871582, 4221.025391, 4208.205078, 4223.076660, 4218.461426, 4221.025391, 4213.333008, 4229.230469, 3582.000000, 8217.000000, 8171.000000, 0.000000, 0.000000, 0.000000, 25215.000000, 136.923080, 4.000000, 4.000000, 4.000000, 4.000000, 4.000000, 4.000000, 4.000000, 4.000000, 4.000000, 4.000000, 4.000000, 4.000000, 4.000000, 4.000000, 4.000000, 4.000000
99.000000, 0.000000, 4218.461426, 4323.589844, 4213.333008, 4197.948730, 4188.205078, 4185.641113, 4190.256348, 4202.051270, 4202.563965, 4219.487305, 4215.384277, 4218.461426, 4209.230469, 4224.615234, 3592.000000, 8210.000000, 8179.000000, 0.000000, 0.000000, 0.000000, 25215.000000, 144.615387, 4.000000, 4.000000, 4.000000, 4.000000, 4.000000, 4.000000, 4.000000, 4.000000, 4.000000, 4.000000, 4.000000, 4.000000, 4.000000, 4.000000, 4.000000, 4.000000
100.000000, 0.000000, 4215.384277, 4320.512695, 4208.205078, 4197.948730, 4187.692383, 4189.743652, 4196.410156, 4198.974121, 4202.563965, 4213.846191, 4206.666504, 4208.205078, 4200.000000, 4213.846191, 3533.000000, 8210.000000, 8179.000000, 0.000000, 0.000000, 0.000000, 25215.000000, 152.820511, 4.000000, 4.000000, 4.000000, 4.000000, 4.000000, 4.000000, 4.000000, 4.000000, 4.000000, 4.000000, 4.000000, 4.000000, 4.000000, 4.000000, 4.000000, 4.000000
101.000000, 0.000000, 4197.948730, 4314.358887, 4200.512695, 4186.666504, 4185.641113, 4189.743652, 4202.563965, 4199.487305, 4205.641113, 4203.589844, 4195.897461, 4196.922852, 4182.563965, 4195.897461, 3453.000000, 8215.000000, 8187.000000, 0.000000, 0.000000, 0.000000, 25215.000000, 160.512817, 4.000000, 4.000000, 4.000000, 4.000000, 4.000000, 4.000000, 4.000000, 4.000000, 4.000000, 4.000000, 4.000000, 4.000000, 4.000000, 4.000000, 4.000000, 4.000000
102.000000, 0.000000, 4193.846191, 4317.948730, 4201.538574, 4187.692383, 4195.384277, 4190.769043, 4199.487305, 4192.820313, 4203.589844, 4204.102539, 4196.922852, 4201.025391, 4182.051270, 4195.384277, 3582.000000, 8215.000000, 8187.000000, 0.000000, 0.000000, 0.000000, 25215.000000, 168.717941, 4.000000, 4.000000, 4.000000, 4.000000, 4.000000, 4.000000, 4.000000, 4.000000, 4.000000, 4.000000, 4.000000, 4.000000, 4.000000, 4.000000, 4.000000, 4.000000
103.000000, 0.000000, 4214.871582, 4331.281738, 4210.769043, 4203.589844, 4204.615234, 4198.461426, 4200.512695, 4193.846191, 4203.589844, 4215.897461, 4211.281738, 4210.256348, 4204.615234, 4212.307617, 3592.000000, 8210.000000, 8192.000000, 0.000000, 0.000000, 0.000000, 25215.000000, 176.410248, 4.000000, 4.000000, 4.000000, 4.000000, 4.000000, 4.000000, 4.000000, 4.000000, 4.000000, 4.000000, 4.000000, 4.000000, 4.000000, 4.000000, 4.000000, 4.000000
104.000000, 0.000000, 4218.461426, 4327.692383, 4208.205078, 4201.538574, 4201.025391, 4200.000000, 4203.589844, 4200.512695, 4205.127930, 4217.948730, 4216.922852, 4206.666504, 4214.871582, 4218.461426, 3533.000000, 8210.000000, 8192.000000, 0.000000, 0.000000, 0.000000, 25215.000000, 184.102554, 4.000000, 4.000000, 4.000000, 4.000000, 4.000000, 4.000000, 4.000000, 4.000000, 4.000000, 4.000000, 4.000000, 4.000000, 4.000000, 4.000000, 4.000000, 4.000000
105.000000, 0.000000, 4205.127930, 4318.974121, 4203.076660, 4186.666504, 4198.974121, 4197.948730, 4205.127930, 4198.974121, 4202.563965, 4212.820313, 4214.358887, 4205.127930, 4211.794922, 4213.846191, 3453.000000, 8212.000000, 8191.000000, 0.000000, 0.000000, 0.000000, 25215.000000, 192.307693, 4.000000, 4.000000, 4.000000, 4.000000, 4.000000, 4.000000, 4.000000, 4.000000, 4.000000, 4.000000, 4.000000, 4.000000, 4.000000, 4.000000, 4.000000, 4.000000
106.000000, 0.000000, 4209.230469, 4322.563965, 4205.641113, 4188.717773, 4204.102539, 4202.051270, 4212.307617, 4198.461426, 4202.563965, 4217.436035, 4217.436035, 4213.333008, 4216.410156, 4216.922852, 3582.000000, 8212.000000, 8191.000000, 0.000000, 0.000000, 0.000000, 25215.000000, 200.000000, 4.000000, 4.000000, 4.000000, 4.000000, 4.000000, 4.000000, 4.000000, 4.000000, 4.000000, 4.000000, 4.000000, 4.000000, 4.000000, 4.000000, 4.000000, 4.000000
107.000000, 0.000000, 4217.436035, 4323.589844, 4205.127930, 4199.487305, 4203.076660, 4204.615234, 4219.487305, 4212.820313, 4205.127930, 4224.102539, 4221.538574, 4217.436035, 4221.025391, 4221.025391, 3592.000000, 8207.000000, 8190.000000, 0.000000, 0.000000, 0.000000, 25215.000000, 208.205124, 4.000000, 4.000000, 4.000000, 4.000000, 4.000000, 4.000000, 4.000000, 4.000000, 4.000000, 4.000000, 4.000000, 4.000000, 4.000000, 4.000000, 4.000000, 4.000000
108.000000, 0.000000, 4216.410156, 4320.000000, 4205.641113, 4200.512695, 4202.563965, 4201.538574, 4214.871582, 4224.102539, 4205.127930, 4226.153809, 4223.589844, 4215.897461, 4223.076660, 4222.051270, 3533.000000, 8207.000000, 8190.000000, 0.000000, 0.000000, 0.000000, 25215.000000, 215.897430, 4.000000, 4.000000, 4.000000, 4.000000, 4.000000, 4.000000, 4.000000, 4.000000, 4.000000, 4.000000, 4.000000, 4.000000, 4.000000, 4.000000, 4.000000, 4.000000
109.000000, 0.000000, 4220.000000, 4320.000000, 4207.692383, 4197.436035, 4208.205078, 4202.051270, 4206.153809, 4210.256348, 4202.051270, 4220.512695, 4226.666504, 4215.384277, 4224.615234, 4227.692383, 3453.000000, 8205.000000, 8188.000000, 0.000000, 0.000000, 0.000000, 25215.000000, 223.589737, 4.000000, 4.000000, 4.000000, 4.000000, 4.000000, 4.000000, 4.000000, 4.000000, 4.000000, 4.000000, 4.000000, 4.000000, 4.000000, 4.000000, 4.000000, 4.000000
110.000000, 0.000000, 4223.589844, 4320.512695, 4207.692383, 4197.948730, 4206.666504, 4204.615234, 4201.538574, 4195.897461, 4204.102539, 4216.410156, 4224.615234, 4215.384277, 4220.000000, 4230.769043, 3582.000000, 8205.000000, 8188.000000, 0.000000, 0.000000, 0.000000, 25215.000000, 231.282043, 4.000000, 4.000000, 4.000000, 4.000000, 4.000000, 4.000000, 4.000000, 4.000000, 4.000000, 4.000000, 4.000000, 4.000000, 4.000000, 4.000000, 4.000000, 4.000000
111.000000, 0.000000, 4220.000000, 4315.384277, 4209.743652, 4201.538574, 4202.051270, 4205.127930, 4203.076660, 4211.281738, 4208.717773, 4224.102539, 4218.974121, 4217.436035, 4218.974121, 4226.666504, 3592.000000, 8198.000000, 8188.000000, 0.000000, 0.000000, 0.000000, 25215.000000, 239.487167, 4.000000, 4.000000, 4.000000, 4.000000, 4.000000, 4.000000, 4.000000, 4.000000, 4.000000, 4.000000, 4.000000, 4.000000, 4.000000, 4.000000, 4.000000, 4.000000
112.000000, 0.000000, 4216.922852, 4312.820313, 4209.230469, 4196.410156, 4201.538574, 4202.563965, 4209.743652, 4222.563965, 4206.153809, 4225.127930, 4216.410156, 4213.333008, 4218.974121, 4218.461426, 3533.000000, 8198.000000, 8188.000000, 0.000000, 0.000000, 0.000000, 25215.000000, 247.179474, 4.000000, 4.000000, 4.000000, 4.000000, 4.000000, 4.000000, 4.000000, 4.000000, 4.000000, 4.000000, 4.000000, 4.000000, 4.000000, 4.000000, 4.000000, 4.000000
113.000000, 0.000000, 4214.358887, 4313.333008, 4202.563965, 4191.281738, 4201.025391, 4202.563965, 4213.846191, 4205.127930, 4202.563965, 4215.384277, 4214.358887, 4203.076660, 4210.769043, 4210.769043, 3453.000000, 8194.000000, 8189.000000, 0.000000, 0.000000, 0.000000, 25215.000000, 255.384613, 4.000000, 4.000000, 4.000000, 4.000000, 4.000000, 4.000000, 4.000000, 4.000000, 4.000000, 4.000000, 4.000000, 4.000000, 4.000000, 4.000000, 4.000000, 4.000000
114.000000, 0.000000, 4216.922852, 4310.256348, 4200.000000, 4196.922852, 4201.538574, 4209.743652, 4213.846191, 4194.358887, 4203.076660, 4213.333008, 4213.333008, 4205.641113, 4212.820313, 4216.922852, 3582.000000, 8194.000000, 8189.000000, 0.000000, 0.000000, 0.000000, 25215.000000, 263.076904, 4.000000, 4.000000, 4.000000, 4.000000, 4.000000, 4.000000, 4.000000, 4.000000, 4.000000, 4.000000, 4.000000, 4.000000, 4.000000, 4.000000, 4.000000, 4.000000
115.000000, 0.000000, 4226.153809, 4308.205078, 4206.666504, 4202.051270, 4205.641113, 4217.948730, 4215.897461, 4210.256348, 4204.102539, 4217.948730, 4216.410156, 4215.384277, 4225.641113, 4230.769043, 3592.000000, 8188.000000, 8193.000000, 0.000000, 0.000000, 0.000000, 25215.000000, 271.282043, 4.000000, 4.000000, 4.000000, 4.000000, 4.000000, 4.000000, 4.000000, 4.000000, 4.000000, 4.000000, 4.000000, 4.000000, 4.000000, 4.000000, 4.000000, 4.000000
116.000000, 0.000000, 4231.281738, 4308.717773, 4211.794922, 4198.461426, 4206.153809, 4212.307617, 4220.000000, 4229.743652, 4207.179199, 4219.487305, 4222.563965, 4218.974121, 4229.743652, 4236.410156, 3533.000000, 8188.000000, 8193.000000, 0.000000, 0.000000, 0.000000, 25215.000000, 278.974365, 4.000000, 4.000000, 4.000000, 4.000000, 4.000000, 4.000000, 4.000000, 4.000000, 4.000000, 4.000000, 4.000000, 4.000000, 4.000000, 4.000000, 4.000000, 4.000000
117.000000, 0.000000, 4231.281738, 4305.641113, 4211.281738, 4198.461426, 4202.051270, 4202.563965, 4216.410156, 4225.641113, 4206.153809, 4218.461426, 4228.205078, 4224.615234, 4229.230469, 4235.897461, 3453.000000, 8186.000000, 8194.000000, 0.000000, 0.000000, 0.000000, 25215.000000, 287.179474, 4.000000, 4.000000, 4.000000, 4.000000, 4.000000, 4.000000, 4.000000, 4.000000, 4.000000, 4.000000, 4.000000, 4.000000, 4.000000, 4.000000, 4.000000, 4.000000
118.000000, 0.000000, 4232.820313, 4304.615234, 4215.384277, 4202.563965, 4200.512695, 4203.589844, 4218.461426, 4212.307617, 4204.615234, 4216.922852, 4229.230469, 4232.307617, 4231.794922, 4234.871582, 3582.000000, 8186.000000, 8194.000000, 0.000000, 0.000000, 0.000000, 25215.000000, 294.871796, 4.000000, 4.000000, 4.000000, 4.000000, 4.000000, 4.000000, 4.000000, 4.000000, 4.000000, 4.000000, 4.000000, 4.000000, 4.000000, 4.000000, 4.000000, 4.000000
119.000000, 0.000000, 4234.358887, 4303.076660, 4220.512695, 4200.512695, 4198.974121, 4204.615234, 4225.127930, 4215.384277, 4209.230469, 4221.025391, 4229.743652, 4234.871582, 4233.333008, 4236.410156, 3592.000000, 8182.000000, 8195.000000, 0.000000, 0.000000, 0.000000, 25215.000000, 303.076904, 4.000000, 4.000000, 4.000000, 4.000000, 4.000000, 4.000000, 4.000000, 4.000000, 4.000000, 4.000000, 4.000000, 4.000000, 4.000000, 4.000000, 4.000000, 4.000000
120.000000, 0.000000, 4234.358887, 4300.512695, 4219.487305, 4199.487305, 4196.922852, 4200.512695, 4217.948730, 4221.025391, 4209.230469, 4228.717773, 4232.307617, 4234.871582, 4232.820313, 4236.410156, 3533.000000, 8182.000000, 8195.000000, 0.000000, 0.000000, 0.000000, 25215.000000, 310.769226, 4.000000, 4.000000, 4.000000, 4.000000, 4.000000, 4.000000, 4.000000, 4.000000, 4.000000, 4.000000, 4.000000, 4.000000, 4.000000, 4.000000, 4.000000, 4.000000
121.000000, 0.000000, 4234.871582, 4301.025391, 4215.897461, 4201.025391, 4200.000000, 4208.205078, 4218.974121, 4215.384277, 4201.025391, 4227.179199, 4231.794922, 4233.333008, 4229.743652, 4234.871582, 3453.000000, 8176.000000, 8196.000000, 0.000000, 0.000000, 0.000000, 25215.000000, 318.974365, 4.000000, 4.000000, 4.000000, 4.000000, 4.000000, 4.000000, 4.000000, 4.000000, 4.000000, 4.000000, 4.000000, 4.000000, 4.000000, 4.000000, 4.000000, 4.000000
122.000000, 0.000000, 4233.846191, 4301.538574, 4213.846191, 4200.000000, 4204.102539, 4215.384277, 4229.230469, 4214.871582, 4202.051270, 4220.000000, 4229.743652, 4231.281738, 4222.051270, 4231.281738, 3582.000000, 8176.000000, 8196.000000, 0.000000, 0.000000, 0.000000, 25215.000000, 326.666656, 4.000000, 4.000000, 4.000000, 4.000000, 4.000000, 4.000000, 4.000000, 4.000000, 4.000000, 4.000000, 4.000000, 4.000000, 4.000000, 4.000000, 4.000000, 4.000000
123.000000, 0.000000, 4230.769043, 4301.025391, 4214.358887, 4198.461426, 4203.076660, 4208.717773, 4223.076660, 4219.487305, 4205.641113, 4220.000000, 4225.127930, 4229.230469, 4216.410156, 4224.102539, 3592.000000, 8178.000000, 8191.000000, 0.000000, 0.000000, 0.000000, 25215.000000, 334.871796, 4.000000, 4.000000, 4.000000, 4.000000, 4.000000, 4.000000, 4.000000, 4.000000, 4.000000, 4.000000, 4.000000, 4.000000, 4.000000, 4.000000, 4.000000, 4.000000
124.000000, 0.000000, 4228.205078, 4301.538574, 4212.820313, 4201.025391, 4206.153809, 4211.281738, 4212.820313, 4219.487305, 4202.563965, 4227.179199, 4219.487305, 4222.051270, 4215.897461, 4216.922852, 3533.000000, 8178.000000, 8191.000000, 0.000000, 0.000000, 0.000000, 25215.000000, 342.564087, 4.000000, 4.000000, 4.000000, 4.000000, 4.000000, 4.000000, 4.000000, 4.000000, 4.000000, 4.000000, 4.000000, 4.000000, 4.000000, 4.000000, 4.000000, 4.000000
125.000000, 0.000000, 4228.717773, 4303.076660, 4211.794922, 4205.641113, 4212.307617, 4219.487305, 4217.948730, 4214.871582, 4202.563965, 4228.717773, 4218.974121, 4215.384277, 4214.358887, 4215.384277, 3453.000000, 8179.000000, 8188.000000, 0.000000, 0.000000, 0.000000, 25215.000000, 350.769226, 4.000000, 4.000000, 4.000000, 4.000000, 4.000000, 4.000000, 4.000000, 4.000000, 4.000000, 4.000000, 4.000000, 4.000000, 4.000000, 4.000000, 4.000000, 4.000000
126.000000, 0.000000, 4229.230469, 4304.102539, 4211.281738, 4204.102539, 4207.179199, 4210.769043, 4218.461426, 4205.641113, 4204.615234, 4221.538574, 4217.436035, 4213.846191, 4211.794922, 4213.333008, 3582.000000, 8179.000000, 8188.000000, 0.000000, 0.000000, 0.000000, 25215.000000, 358.461517, 4.000000, 4.000000, 4.000000, 4.000000, 4.000000, 4.000000, 4.000000, 4.000000, 4.000000, 4.000000, 4.000000, 4.000000, 4.000000, 4.000000, 4.000000, 4.000000
127.000000, 0.000000, 4228.717773, 4303.589844, 4211.281738, 4201.538574, 4201.025391, 4204.615234, 4211.794922, 4209.230469, 4204.615234, 4221.025391, 4216.410156, 4214.358887, 4212.307617, 4210.769043, 57.000000, 8179.000000, 8190.000000, 0.000000, 0.000000, 0.000000, 25215.000000, 366.666656, 4.000000, 4.000000, 4.000000, 4.000000, 4.000000, 4.000000, 4.000000, 4.000000, 4.000000, 4.000000, 4.000000, 4.000000, 4.000000, 4.000000, 4.000000, 4.000000
0.000000, 0.000000, 4234.358887, 4308.717773, 4216.922852, 4208.717773, 4205.127930, 4213.846191, 4214.871582, 4218.974121, 4204.102539, 4230.769043, 4221.538574, 4215.897461, 4215.384277, 4214.358887, 3083.000000, 8179.000000, 8190.000000, 0.000000, 0.000000, 0.000000, 25215.000000, 374.358978, 4.000000, 4.000000, 4.000000, 4.000000, 4.000000, 4.000000, 4.000000, 4.000000, 4.000000, 4.000000, 4.000000, 4.000000, 4.000000, 4.000000, 4.000000, 4.000000
1.000000, 0.000000, 4236.410156, 4311.281738, 4222.563965, 4218.461426, 4206.666504, 4213.333008, 4221.025391, 4216.922852, 4203.589844, 4231.794922, 4225.641113, 4220.512695, 4217.436035, 4215.897461, 3534.000000, 8185.000000, 8183.000000, 0.000000, 0.000000, 0.000000, 25215.000000, 382.564087, 4.000000, 4.000000, 4.000000, 4.000000, 4.000000, 4.000000, 4.000000, 4.000000, 4.000000, 4.000000, 4.000000, 4.000000, 4.000000, 4.000000, 4.000000, 4.000000
2.000000, 0.000000, 4235.897461, 4310.769043, 4223.589844, 4216.410156, 4202.051270, 4202.051270, 4216.410156, 4211.794922, 4203.589844, 4223.076660, 4223.076660, 4227.692383, 4218.974121, 4216.410156, 3547.000000, 8185.000000, 8183.000000, 0.000000, 0.000000, 0.000000, 25215.000000, 390.256409, 4.000000, 4.000000, 4.000000, 4.000000, 4.000000, 4.000000, 4.000000, 4.000000, 4.000000, 4.000000, 4.000000, 4.000000, 4.000000, 4.000000, 4.000000, 4.000000
3.000000, 0.000000, 4237.436035, 4308.717773, 4220.512695, 4205.641113, 4196.410156, 4197.948730, 4204.615234, 4207.692383, 4203.076660, 4217.436035, 4219.487305, 4227.692383, 4216.922852, 4216.410156, 2197.000000, 8187.000000, 8177.000000, 0.000000, 0.000000, 0.000000, 25215.000000, 398.461517, 4.000000, 4.000000, 4.000000, 4.000000, 4.000000, 4.000000, 4.000000, 4.000000, 4.000000, 4.000000, 4.000000, 4.000000, 4.000000, 4.000000, 4.000000, 4.000000
4.000000, 0.000000, 4228.717773, 4302.563965, 4210.769043, 4198.461426, 4192.307617, 4198.461426, 4207.179199, 4201.538574, 4202.563965, 4217.436035, 4215.897461, 4218.974121, 4209.230469, 4206.666504, 3539.000000, 8187.000000, 8177.000000, 0.000000, 0.000000, 0.000000, 25215.000000, 406.153839, 4.000000, 4.000000, 4.000000, 4.000000, 4.000000, 4.000000, 4.000000, 4.000000, 4.000000, 4.000000, 4.000000, 4.000000, 4.000000, 4.000000, 4.000000, 4.000000
5.000000, 0.000000, 4214.871582, 4301.538574, 4203.589844, 4197.436035, 4195.384277, 4201.538574, 4220.000000, 4204.102539, 4203.589844, 4218.974121, 4214.871582, 4213.333008, 4206.153809, 4199.487305, 3578.000000, 8188.000000, 8182.000000, 0.000000, 0.000000, 0.000000, 25215.000000, 414.358978, 4.000000, 4.000000, 4.000000, 4.000000, 4.000000, 4.000000, 4.000000, 4.000000, 4.000000, 4.000000, 4.000000, 4.000000, 4.000000, 4.000000, 4.000000, 4.000000
6.000000, 0.000000, 4215.384277, 4302.051270, 4204.102539, 4197.948730, 4201.025391, 4211.281738, 4221.538574, 4213.333008, 4203.589844, 4218.974121, 4219.487305, 4216.410156, 4211.794922, 4207.179199, 3445.000000, 8188.000000, 8182.000000, 0.000000, 0.000000, 0.000000, 25215.000000, 422.051270, 4.000000, 4.000000, 4.000000, 4.000000, 4.000000, 4.000000, 4.000000, 4.000000, 4.000000, 4.000000, 4.000000, 4.000000, 4.000000, 4.000000, 4.000000, 4.000000
7.000000, 0.000000, 4218.974121, 4301.025391, 4204.102539, 4198.461426, 4199.487305, 4212.820313, 4218.974121, 4220.512695, 4204.615234, 4221.025391, 4218.974121, 4217.436035, 4214.871582, 4211.794922, 3658.000000, 8189.000000, 8179.000000, 0.000000, 0.000000, 0.000000, 25215.000000, 430.256409, 4.000000, 4.000000, 4.000000, 4.000000, 4.000000, 4.000000, 4.000000, 4.000000, 4.000000, 4.000000, 4.000000, 4.000000, 4.000000, 4.000000, 4.000000, 4.000000
8.000000, 0.000000, 4214.358887, 4306.153809, 4203.589844, 4199.487305, 4197.948730, 4205.127930, 4218.974121, 4216.922852, 4205.641113, 4226.666504, 4218.461426, 4215.897461, 4213.846191, 4208.717773, 774.000000, 8189.000000, 8179.000000, 0.000000, 0.000000, 0.000000, 25215.000000, 437.948700, 4.000000, 4.000000, 4.000000, 4.000000, 4.000000, 4.000000, 4.000000, 4.000000, 4.000000, 4.000000, 4.000000, 4.000000, 4.000000, 4.000000, 4.000000, 4.000000
9.000000, 0.000000, 4222.051270, 4313.333008, 4208.717773, 4201.538574, 4200.512695, 4203.076660, 4210.256348, 4207.692383, 4203.589844, 4229.743652, 4226.153809, 4221.025391, 4218.461426, 4213.846191, 3107.000000, 8189.000000, 8174.000000, 0.000000, 0.000000, 0.000000, 25215.000000, 446.153839, 4.000000, 4.000000, 4.000000, 4.000000, 4.000000, 4.000000, 4.000000, 4.000000, 4.000000, 4.000000, 4.000000, 4.000000, 4.000000, 4.000000, 4.000000, 4.000000
10.000000, 0.000000, 4235.384277, 4317.436035, 4218.974121, 4206.666504, 4202.051270, 4208.205078, 4206.666504, 4208.717773, 4201.025391, 4223.589844, 4229.230469, 4229.743652, 4219.487305, 4218.974121, 3581.000000, 8189.000000, 8174.000000, 0.000000, 0.000000, 0.000000, 25215.000000, 453.846130, 4.000000, 4.000000, 4.000000, 4.000000, 4.000000, 4.000000, 4.000000, 4.000000, 4.000000, 4.000000, 4.000000, 4.000000, 4.000000, 4.000000, 4.000000, 4.000000
11.000000, 0.000000, 4233.846191, 4320.000000, 4222.563965, 4213.333008, 4202.563965, 4213.333008, 4215.384277, 4209.230469, 4202.051270, 4215.897461, 4226.666504, 4231.794922, 4217.436035, 4220.000000, 3590.000000, 8195.000000, 8164.000000, 0.000000, 0.000000, 0.000000, 25215.000000, 461.538452, 4.000000, 4.000000, 4.000000, 4.000000, 4.000000, 4.000000, 4.000000, 4.000000, 4.000000, 4.000000, 4.000000, 4.000000, 4.000000, 4.000000, 4.000000, 4.000000
12.000000, 0.000000, 4239.487305, 4323.589844, 4222.563965, 4215.384277, 4203.076660, 4214.871582, 4215.384277, 4204.615234, 4204.102539, 4220.512695, 4231.281738, 4233.846191, 4224.615234, 4226.153809, 3680.000000, 8195.000000, 8164.000000, 0.000000, 0.000000, 0.000000, 25215.000000, 469.743591, 4.000000, 4.000000, 4.000000, 4.000000, 4.000000, 4.000000, 4.000000, 4.000000, 4.000000, 4.000000, 4.000000, 4.000000, 4.000000, 4.000000, 4.000000, 4.000000
13.000000, 0.000000, 4249.743652, 4326.153809, 4220.512695, 4215.384277, 4202.563965, 4214.358887, 4213.333008, 4211.281738, 4205.127930, 4228.717773, 4234.871582, 4239.487305, 4232.820313, 4232.820313, 3450.000000, 8192.000000, 8169.000000, 0.000000, 0.000000, 0.000000, 25215.000000, 477.948700, 4.000000, 4.000000, 4.000000, 4.000000, 4.000000, 4.000000, 4.000000, 4.000000, 4.000000, 4.000000, 4.000000, 4.000000, 4.000000, 4.000000, 4.000000, 4.000000
14.000000, 0.000000, 4242.051270, 4326.153809, 4214.358887, 4213.846191, 4204.615234, 4214.871582, 4220.512695, 4219.487305, 4203.589844, 4230.769043, 4232.820313, 4238.461426, 4230.769043, 4230.769043, 3581.000000, 8192.000000, 8169.000000, 0.000000, 0.000000, 0.000000, 25215.000000, 485.641022, 4.000000, 4.000000, 4.000000, 4.000000, 4.000000, 4.000000, 4.000000, 4.000000, 4.000000, 4.000000, 4.000000, 4.000000, 4.000000, 4.000000, 4.000000, 4.000000
15.000000, 0.000000, 4231.794922, 4330.256348, 4215.897461, 4212.307617, 4205.127930, 4210.769043, 4215.384277, 4216.922852, 4202.563965, 4227.179199, 4233.333008, 4233.333008, 4224.102539, 4226.666504, 3590.000000, 8189.000000, 8165.000000, 0.000000, 0.000000, 0.000000, 25215.000000, 493.333313, 4.000000, 4.000000, 4.000000, 4.000000, 4.000000, 4.000000, 4.000000, 4.000000, 4.000000, 4.000000, 4.000000, 4.000000, 4.000000, 4.000000, 4.000000, 4.000000
16.000000, 0.000000, 4233.333008, 4331.794922, 4217.948730, 4211.794922, 4201.025391, 4199.487305, 4203.076660, 4212.820313, 4202.563965, 4220.512695, 4227.692383, 4231.794922, 4213.333008, 4216.922852, 0.000000, 8189.000000, 8165.000000, 0.000000, 0.000000, 0.000000, 25215.000000, 501.538452, 4.000000, 4.000000, 4.000000, 4.000000, 4.000000, 4.000000, 4.000000, 4.000000, 4.000000, 4.000000, 4.000000, 4.000000, 4.000000, 4.000000, 4.000000, 4.000000
17.000000, 0.000000, 4234.358887, 4331.281738, 4215.897461, 4215.384277, 4207.692383, 4202.563965, 4211.281738, 4219.487305, 4202.563965, 4221.025391, 4222.051270, 4233.333008, 4208.717773, 4214.358887, 0.000000, 8193.000000, 8161.000000, 0.000000, 0.000000, 0.000000, 25215.000000, 509.230743, 4.000000, 4.000000, 4.000000, 4.000000, 4.000000, 4.000000, 4.000000, 4.000000, 4.000000, 4.000000, 4.000000, 4.000000, 4.000000, 4.000000, 4.000000, 4.000000
18.000000, 0.000000, 4235.384277, 4338.461426, 4224.615234, 4217.948730, 4214.871582, 4215.897461, 4223.076660, 4225.127930, 4202.563965, 4228.717773, 4232.307617, 4235.897461, 4221.538574, 4223.589844, 0.000000, 8193.000000, 8161.000000, 0.000000, 0.000000, 0.000000, 25215.000000, 517.435913, 4.000000, 4.000000, 4.000000, 4.000000, 4.000000, 4.000000, 4.000000, 4.000000, 4.000000, 4.000000, 4.000000, 4.000000, 4.000000, 4.000000, 4.000000, 4.000000
19.000000, 0.000000, 4235.897461, 4339.487305, 4227.692383, 4216.922852, 4204.615234, 4212.307617, 4217.436035, 4211.281738, 4202.563965, 4231.794922, 4236.410156, 4234.871582, 4231.281738, 4223.589844, 0.000000, 8193.000000, 8162.000000, 0.000000, 0.000000, 0.000000, 25215.000000, 525.128174, 4.000000, 4.000000, 4.000000, 4.000000, 4.000000, 4.000000, 4.000000, 4.000000, 4.000000, 4.000000, 4.000000, 4.000000, 4.000000, 4.000000, 4.000000, 4.000000
20.000000, 0.000000, 4232.820313, 4333.846191, 4218.461426, 4211.794922, 4196.410156, 4204.615234, 4209.743652, 4198.461426, 4203.076660, 4230.256348, 4232.307617, 4233.333008, 4228.205078, 4220.512695, 0.000000, 8193.000000, 8162.000000, 0.000000, 0.000000, 0.000000, 25215.000000, 533.333313, 4.000000, 4.000000, 4.000000, 4.000000, 4.000000, 4.000000, 4.000000, 4.000000, 4.000000, 4.000000, 4.000000, 4.000000, 4.000000, 4.000000, 4.000000, 4.000000
21.000000, 0.000000, 4234.871582, 4335.897461, 4217.948730, 4207.179199, 4203.076660, 4213.846191, 4216.410156, 4214.358887, 4203.589844, 4234.871582, 4237.948730, 4242.563965, 4229.230469, 4227.692383, 0.000000, 8193.000000, 8165.000000, 0.000000, 0.000000, 0.000000, 25215.000000, 541.025635, 4.000000, 4.000000, 4.000000, 4.000000, 4.000000, 4.000000, 4.000000, 4.000000, 4.000000, 4.000000, 4.000000, 4.000000, 4.000000, 4.000000, 4.000000, 4.000000
22.000000, 0.000000, 4231.794922, 4338.461426, 4212.820313, 4204.615234, 4206.153809, 4221.025391, 4225.641113, 4225.127930, 4203.076660, 4238.461426, 4242.563965, 4245.127930, 4228.205078, 4224.102539, 0.000000, 8193.000000, 8165.000000, 0.000000, 0.000000, 0.000000, 25215.000000, 548.717957, 4.000000, 4.000000, 4.000000, 4.000000, 4.000000, 4.000000, 4.000000, 4.000000, 4.000000, 4.000000, 4.000000, 4.000000, 4.000000, 4.000000, 4.000000, 4.000000
23.000000, 0.000000, 4214.358887, 4334.871582, 4197.436035, 4199.487305, 4198.974121, 4210.769043, 4224.102539, 4209.230469, 4201.538574, 4232.307617, 4229.230469, 4226.153809, 4212.820313, 4204.615234, 0.000000, 8193.000000, 8176.000000, 0.000000, 0.000000, 0.000000, 25215.000000, 556.923035, 4.000000, 4.000000, 4.000000, 4.000000, 4.000000, 4.000000, 4.000000, 4.000000, 4.000000, 4.000000, 4.000000, 4.000000, 4.000000, 4.000000, 4.000000, 4.000000
24.000000, 0.000000, 4203.589844, 4331.794922, 4196.410156, 4196.922852, 4197.436035, 4203.076660, 4216.410156, 4205.127930, 4202.051270, 4224.102539, 4217.948730, 4212.820313, 4203.589844, 4193.846191, 0.000000, 8193.000000, 8176.000000, 0.000000, 0.000000, 0.000000, 25215.000000, 564.615356, 4.000000, 4.000000, 4.000000, 4.000000, 4.000000, 4.000000, 4.000000, 4.000000, 4.000000, 4.000000, 4.000000, 4.000000, 4.000000, 4.000000, 4.000000, 4.000000
25.000000, 0.000000, 4210.769043, 4335.897461, 4208.205078, 4201.538574, 4200.000000, 4206.666504, 4215.897461, 4215.897461, 4203.589844, 4225.641113, 4223.076660, 4223.076660, 4210.256348, 4202.051270, 0.000000, 8193.000000, 8178.000000, 0.000000, 0.000000, 0.000000, 25215.000000, 572.820496, 4.000000, 4.000000, 4.000000, 4.000000, 4.000000, 4.000000, 4.000000, 4.000000, 4.000000, 4.000000, 4.000000, 4.000000, 4.000000, 4.000000, 4.000000, 4.000000
26.000000, 0.000000, 4220.000000, 4341.538574, 4215.897461, 4205.641113, 4202.051270, 4206.153809, 4215.384277, 4217.948730, 4203.076660, 4230.256348, 4231.281738, 4235.897461, 4216.410156, 4212.820313, 0.000000, 8193.000000, 8178.000000, 0.000000, 0.000000, 0.000000, 25215.000000, 580.512817, 4.000000, 4.000000, 4.000000, 4.000000, 4.000000, 4.000000, 4.000000, 4.000000, 4.000000, 4.000000, 4.000000, 4.000000, 4.000000, 4.000000, 4.000000, 4.000000
27.000000, 0.000000, 4215.384277, 4343.589844, 4214.871582, 4202.051270, 4202.563965, 4202.563965, 4205.127930, 4207.692383, 4201.538574, 4223.076660, 4227.692383, 4230.256348, 4212.307617, 4212.307617, 0.000000, 8189.000000, 8176.000000, 0.000000, 0.000000, 0.000000, 25215.000000, 588.205139, 4.000000, 4.000000, 4.000000, 4.000000, 4.000000, 4.000000, 4.000000, 4.000000, 4.000000, 4.000000, 4.000000, 4.000000, 4.000000, 4.000000, 4.000000, 4.000000
28.000000, 0.000000, 4204.102539, 4344.102539, 4208.717773, 4198.974121, 4197.948730, 4201.025391, 4195.897461, 4195.384277, 4201.538574, 4212.307617, 4220.000000, 4220.512695, 4204.615234, 4202.051270, 0.000000, 8189.000000, 8176.000000, 0.000000, 0.000000, 0.000000, 25215.000000, 596.410217, 4.000000, 4.000000, 4.000000, 4.000000, 4.000000, 4.000000, 4.000000, 4.000000, 4.000000, 4.000000, 4.000000, 4.000000, 4.000000, 4.000000, 4.000000, 4.000000
29.000000, 0.000000, 4202.051270, 4342.563965, 4198.974121, 4199.487305, 4192.820313, 4200.000000, 4197.436035, 4196.410156, 4203.076660, 4210.256348, 4214.871582, 4215.897461, 4200.512695, 4200.000000, 0.000000, 8192.000000, 8180.000000, 0.000000, 0.000000, 0.000000, 25215.000000, 604.615356, 4.000000, 4.000000, 4.000000, 4.000000, 4.000000, 4.000000, 4.000000, 4.000000, 4.000000, 4.000000, 4.000000, 4.000000, 4.000000, 4.000000, 4.000000, 4.000000
30.000000, 0.000000, 4199.487305, 4343.076660, 4192.820313, 4194.358887, 4195.897461, 4200.512695, 4206.153809, 4199.487305, 4202.563965, 4212.307617, 4207.692383, 4208.717773, 4197.948730, 4198.461426, 0.000000, 8192.000000, 8180.000000, 0.000000, 0.000000, 0.000000, 25215.000000, 612.307678, 4.000000, 4.000000, 4.000000, 4.000000, 4.000000, 4.000000, 4.000000, 4.000000, 4.000000, 4.000000, 4.000000, 4.000000, 4.000000, 4.000000, 4.000000, 4.000000
31.000000, 0.000000, 4190.256348, 4346.666504, 4188.205078, 4190.769043, 4203.076660, 4209.743652, 4215.384277, 4200.512695, 4203.589844, 4213.846191, 4206.666504, 4204.102539, 4197.436035, 4189.743652, 0.000000, 8185.000000, 8180.000000, 0.000000, 0.000000, 0.000000, 25215.000000, 620.000000, 4.000000, 4.000000, 4.000000, 4.000000, 4.000000, 4.000000, 4.000000, 4.000000, 4.000000, 4.000000, 4.000000, 4.000000, 4.000000, 4.000000, 4.000000, 4.000000
32.000000, 0.000000, 4190.256348, 4349.230469, 4183.076660, 4195.384277, 4202.051270, 4216.922852, 4218.974121, 4210.769043, 4208.205078, 4217.948730, 4217.436035, 4210.256348, 4199.487305, 4187.692383, 0.000000, 8185.000000, 8180.000000, 0.000000, 0.000000, 0.000000, 25215.000000, 628.205139, 4.000000, 4.000000, 4.000000, 4.000000, 4.000000, 4.000000, 4.000000, 4.000000, 4.000000, 4.000000, 4.000000, 4.000000, 4.000000, 4.000000, 4.000000, 4.000000
