title:neutral15, recorded:17.05.18 21.49.28, timestamp started:2018-05-12T20:28:52.032863+02:00            , sampling:128, subject:Noé, labels:COUNTER INTERPOLATED AF3 F7 F3 FC5 T7 P7 O1 O2 P8 T8 FC6 F4 F8 AF4 RAW_CQ GYROX GYROY MARKER MARKER_HARDWARE SYNC TIME_STAMP_s TIME_STAMP_ms CQ_AF3 CQ_F7 CQ_F3 CQ_FC5 CQ_T7 CQ_P7 CQ_O1 CQ_O2 CQ_P8 CQ_T8 CQ_FC6 CQ_F4 CQ_F8 CQ_AF4 CQ_CMS CQ_DRL, chan:40, samples:2750, units:emotiv
20.000000, 0.000000, 4187.179199, 4434.358887, 4201.538574, 4198.461426, 4216.922852, 4202.051270, 4200.512695, 4206.153809, 4214.358887, 4187.179199, 4211.281738, 4173.846191, 4275.384277, 4201.538574, 0.000000, 8045.000000, 7969.000000, 0.000000, 0.000000, 0.000000, -21916.000000, 684.102539, 4.000000, 4.000000, 4.000000, 4.000000, 4.000000, 4.000000, 4.000000, 4.000000, 4.000000, 4.000000, 4.000000, 4.000000, 4.000000, 4.000000, 4.000000, 4.000000
21.000000, 0.000000, 4188.205078, 4420.000000, 4207.692383, 4203.076660, 4215.897461, 4205.127930, 4203.076660, 4206.153809, 4210.769043, 4188.717773, 4213.846191, 4175.384277, 4276.922852, 4199.487305, 0.000000, 8051.000000, 7950.000000, 0.000000, 0.000000, 0.000000, -21916.000000, 692.307678, 4.000000, 4.000000, 4.000000, 4.000000, 4.000000, 4.000000, 4.000000, 4.000000, 4.000000, 4.000000, 4.000000, 4.000000, 4.000000, 4.000000, 4.000000, 4.000000
22.000000, 0.000000, 4192.307617, 4405.127930, 4217.948730, 4210.256348, 4218.461426, 4205.641113, 4201.025391, 4208.717773, 4215.384277, 4192.307617, 4216.922852, 4176.410156, 4279.487305, 4203.589844, 0.000000, 8051.000000, 7950.000000, 0.000000, 0.000000, 0.000000, -21916.000000, 700.000000, 4.000000, 4.000000, 4.000000, 4.000000, 4.000000, 4.000000, 4.000000, 4.000000, 4.000000, 4.000000, 4.000000, 4.000000, 4.000000, 4.000000, 4.000000, 4.000000
23.000000, 0.000000, 4192.820313, 4390.256348, 4217.948730, 4214.358887, 4221.538574, 4204.615234, 4205.127930, 4213.333008, 4216.410156, 4187.179199, 4215.897461, 4180.000000, 4276.410156, 4200.000000, 0.000000, 8064.000000, 7928.000000, 0.000000, 0.000000, 0.000000, -21916.000000, 707.692261, 4.000000, 4.000000, 4.000000, 4.000000, 4.000000, 4.000000, 4.000000, 4.000000, 4.000000, 4.000000, 4.000000, 4.000000, 4.000000, 4.000000, 4.000000, 4.000000
24.000000, 0.000000, 4190.769043, 4381.025391, 4215.384277, 4213.333008, 4219.487305, 4208.205078, 4210.769043, 4213.846191, 4214.358887, 4187.692383, 4216.922852, 4184.102539, 4276.922852, 4202.563965, 0.000000, 8064.000000, 7928.000000, 0.000000, 0.000000, 0.000000, -21916.000000, 715.384583, 4.000000, 4.000000, 4.000000, 4.000000, 4.000000, 4.000000, 4.000000, 4.000000, 4.000000, 4.000000, 4.000000, 4.000000, 4.000000, 4.000000, 4.000000, 4.000000
25.000000, 0.000000, 4192.307617, 4372.307617, 4216.922852, 4212.820313, 4221.538574, 4213.333008, 4215.897461, 4216.410156, 4225.127930, 4200.512695, 4223.589844, 4190.256348, 4278.974121, 4210.256348, 0.000000, 8076.000000, 7930.000000, 0.000000, 0.000000, 0.000000, -21916.000000, 723.589722, 4.000000, 4.000000, 4.000000, 4.000000, 4.000000, 4.000000, 4.000000, 4.000000, 4.000000, 4.000000, 4.000000, 4.000000, 4.000000, 4.000000, 4.000000, 4.000000
26.000000, 0.000000, 4193.333008, 4359.487305, 4218.974121, 4210.256348, 4215.384277, 4214.871582, 4214.358887, 4217.948730, 4228.717773, 4206.666504, 4227.692383, 4194.871582, 4276.410156, 4201.025391, 0.000000, 8076.000000, 7930.000000, 0.000000, 0.000000, 0.000000, -21916.000000, 731.282043, 4.000000, 4.000000, 4.000000, 4.000000, 4.000000, 4.000000, 4.000000, 4.000000, 4.000000, 4.000000, 4.000000, 4.000000, 4.000000, 4.000000, 4.000000, 4.000000
27.000000, 0.000000, 4190.769043, 4349.230469, 4220.000000, 4203.076660, 4199.487305, 4210.256348, 4208.205078, 4212.307617, 4214.871582, 4198.974121, 4217.948730, 4189.743652, 4264.615234, 4201.025391, 0.000000, 8084.000000, 7938.000000, 0.000000, 0.000000, 0.000000, -21916.000000, 739.487183, 4.000000, 4.000000, 4.000000, 4.000000, 4.000000, 4.000000, 4.000000, 4.000000, 4.000000, 4.000000, 4.000000, 4.000000, 4.000000, 4.000000, 4.000000, 4.000000
28.000000, 0.000000, 4188.205078, 4337.436035, 4212.820313, 4202.051270, 4206.153809, 4212.307617, 4208.205078, 4213.333008, 4214.871582, 4203.076660, 4212.820313, 4178.974121, 4252.820313, 4204.615234, 0.000000, 8084.000000, 7938.000000, 0.000000, 0.000000, 0.000000, -21916.000000, 747.179443, 4.000000, 4.000000, 4.000000, 4.000000, 4.000000, 4.000000, 4.000000, 4.000000, 4.000000, 4.000000, 4.000000, 4.000000, 4.000000, 4.000000, 4.000000, 4.000000
29.000000, 0.000000, 4190.769043, 4329.230469, 4204.615234, 4203.589844, 4221.538574, 4217.948730, 4213.846191, 4222.051270, 4224.102539, 4221.025391, 4217.436035, 4175.897461, 4248.717773, 4205.641113, 0.000000, 8120.000000, 7953.000000, 0.000000, 0.000000, 0.000000, -21916.000000, 754.871765, 4.000000, 4.000000, 4.000000, 4.000000, 4.000000, 4.000000, 4.000000, 4.000000, 4.000000, 4.000000, 4.000000, 4.000000, 4.000000, 4.000000, 4.000000, 4.000000
30.000000, 0.000000, 4193.333008, 4326.666504, 4206.666504, 4202.051270, 4212.307617, 4208.205078, 4216.410156, 4215.897461, 4217.948730, 4227.179199, 4212.307617, 4175.384277, 4243.589844, 4208.717773, 0.000000, 8120.000000, 7953.000000, 0.000000, 0.000000, 0.000000, -21916.000000, 762.564087, 4.000000, 4.000000, 4.000000, 4.000000, 4.000000, 4.000000, 4.000000, 4.000000, 4.000000, 4.000000, 4.000000, 4.000000, 4.000000, 4.000000, 4.000000, 4.000000
31.000000, 0.000000, 4193.333008, 4324.102539, 4207.179199, 4202.051270, 4207.179199, 4200.000000, 4210.769043, 4210.256348, 4214.871582, 4232.307617, 4201.538574, 4171.794922, 4235.384277, 4204.102539, 0.000000, 8139.000000, 7961.000000, 0.000000, 0.000000, 0.000000, -21916.000000, 770.769226, 4.000000, 4.000000, 4.000000, 4.000000, 4.000000, 4.000000, 4.000000, 4.000000, 4.000000, 4.000000, 4.000000, 4.000000, 4.000000, 4.000000, 4.000000, 4.000000
32.000000, 0.000000, 4191.794922, 4320.512695, 4201.538574, 4202.051270, 4217.436035, 4210.769043, 4211.281738, 4217.436035, 4221.025391, 4249.230469, 4200.512695, 4171.794922, 4229.743652, 4204.615234, 0.000000, 8139.000000, 7961.000000, 0.000000, 0.000000, 0.000000, -21916.000000, 778.974365, 4.000000, 4.000000, 4.000000, 4.000000, 4.000000, 4.000000, 4.000000, 4.000000, 4.000000, 4.000000, 4.000000, 4.000000, 4.000000, 4.000000, 4.000000, 4.000000
33.000000, 0.000000, 4190.256348, 4311.281738, 4194.358887, 4197.436035, 4207.692383, 4212.820313, 4206.666504, 4211.281738, 4214.358887, 4262.051270, 4196.410156, 4164.615234, 4218.974121, 4201.538574, 0.000000, 8202.000000, 7974.000000, 0.000000, 0.000000, 0.000000, -21916.000000, 786.666626, 4.000000, 4.000000, 4.000000, 4.000000, 4.000000, 4.000000, 4.000000, 4.000000, 4.000000, 4.000000, 4.000000, 4.000000, 4.000000, 4.000000, 4.000000, 4.000000
34.000000, 0.000000, 4196.922852, 4301.538574, 4194.871582, 4197.436035, 4198.974121, 4200.000000, 4201.538574, 4198.461426, 4209.743652, 4274.871582, 4192.307617, 4157.948730, 4215.384277, 4204.102539, 0.000000, 8202.000000, 7974.000000, 0.000000, 0.000000, 0.000000, -21916.000000, 794.358948, 4.000000, 4.000000, 4.000000, 4.000000, 4.000000, 4.000000, 4.000000, 4.000000, 4.000000, 4.000000, 4.000000, 4.000000, 4.000000, 4.000000, 4.000000, 4.000000
35.000000, 0.000000, 4206.666504, 4295.384277, 4202.051270, 4204.615234, 4217.948730, 4206.153809, 4214.358887, 4200.512695, 4215.384277, 4300.000000, 4199.487305, 4165.641113, 4226.666504, 4214.358887, 0.000000, 8236.000000, 7978.000000, 0.000000, 0.000000, 0.000000, -21916.000000, 802.564087, 4.000000, 4.000000, 4.000000, 4.000000, 4.000000, 4.000000, 4.000000, 4.000000, 4.000000, 4.000000, 4.000000, 4.000000, 4.000000, 4.000000, 4.000000, 4.000000
36.000000, 0.000000, 4208.717773, 4288.717773, 4204.615234, 4206.153809, 4218.461426, 4221.025391, 4217.948730, 4204.615234, 4209.743652, 4313.333008, 4199.487305, 4167.692383, 4226.666504, 4204.102539, 0.000000, 8236.000000, 7978.000000, 0.000000, 0.000000, 0.000000, -21916.000000, 810.256409, 4.000000, 4.000000, 4.000000, 4.000000, 4.000000, 4.000000, 4.000000, 4.000000, 4.000000, 4.000000, 4.000000, 4.000000, 4.000000, 4.000000, 4.000000, 4.000000
37.000000, 0.000000, 4206.153809, 4287.179199, 4200.512695, 4201.025391, 4197.948730, 4214.871582, 4206.153809, 4200.512695, 4205.127930, 4316.922852, 4192.307617, 4162.563965, 4216.922852, 4199.487305, 0.000000, 8265.000000, 7979.000000, 0.000000, 0.000000, 0.000000, -21916.000000, 818.461548, 4.000000, 4.000000, 4.000000, 4.000000, 4.000000, 4.000000, 4.000000, 4.000000, 4.000000, 4.000000, 4.000000, 4.000000, 4.000000, 4.000000, 4.000000, 4.000000
38.000000, 0.000000, 4207.179199, 4281.538574, 4198.461426, 4195.897461, 4204.615234, 4202.563965, 4200.000000, 4194.871582, 4210.256348, 4337.436035, 4192.820313, 4164.102539, 4214.871582, 4203.589844, 0.000000, 8265.000000, 7979.000000, 0.000000, 0.000000, 0.000000, -21916.000000, 826.153809, 4.000000, 4.000000, 4.000000, 4.000000, 4.000000, 4.000000, 4.000000, 4.000000, 4.000000, 4.000000, 4.000000, 4.000000, 4.000000, 4.000000, 4.000000, 4.000000
39.000000, 0.000000, 4218.461426, 4274.871582, 4203.076660, 4195.897461, 4222.051270, 4200.512695, 4202.051270, 4196.922852, 4212.820313, 4360.512695, 4197.436035, 4172.307617, 4218.974121, 4204.102539, 0.000000, 8313.000000, 7971.000000, 0.000000, 0.000000, 0.000000, -21916.000000, 834.358948, 4.000000, 4.000000, 4.000000, 4.000000, 4.000000, 4.000000, 4.000000, 4.000000, 4.000000, 4.000000, 4.000000, 4.000000, 4.000000, 4.000000, 4.000000, 4.000000
40.000000, 0.000000, 4229.230469, 4277.436035, 4204.102539, 4200.512695, 4213.333008, 4200.512695, 4197.948730, 4195.384277, 4208.205078, 4368.205078, 4201.538574, 4177.948730, 4226.153809, 4211.794922, 0.000000, 8313.000000, 7971.000000, 0.000000, 0.000000, 0.000000, -21916.000000, 842.051270, 4.000000, 4.000000, 4.000000, 4.000000, 4.000000, 4.000000, 4.000000, 4.000000, 4.000000, 4.000000, 4.000000, 4.000000, 4.000000, 4.000000, 4.000000, 4.000000
41.000000, 0.000000, 4226.666504, 4275.384277, 4201.538574, 4202.051270, 4202.051270, 4198.461426, 4194.358887, 4185.641113, 4203.589844, 4367.692383, 4195.384277, 4177.436035, 4215.897461, 4203.076660, 0.000000, 8327.000000, 7966.000000, 0.000000, 0.000000, 0.000000, -21916.000000, 850.256409, 4.000000, 4.000000, 4.000000, 4.000000, 4.000000, 4.000000, 4.000000, 4.000000, 4.000000, 4.000000, 4.000000, 4.000000, 4.000000, 4.000000, 4.000000, 4.000000
42.000000, 0.000000, 4222.563965, 4268.717773, 4202.563965, 4202.563965, 4210.769043, 4200.512695, 4203.076660, 4184.102539, 4203.589844, 4371.281738, 4184.615234, 4174.358887, 4198.461426, 4199.487305, 0.000000, 8327.000000, 7966.000000, 0.000000, 0.000000, 0.000000, -21916.000000, 857.948669, 4.000000, 4.000000, 4.000000, 4.000000, 4.000000, 4.000000, 4.000000, 4.000000, 4.000000, 4.000000, 4.000000, 4.000000, 4.000000, 4.000000, 4.000000, 4.000000
43.000000, 0.000000, 4226.666504, 4266.153809, 4198.974121, 4199.487305, 4217.436035, 4204.615234, 4204.102539, 4194.871582, 4207.179199, 4377.948730, 4191.794922, 4170.256348, 4214.871582, 4204.102539, 0.000000, 8357.000000, 7959.000000, 0.000000, 0.000000, 0.000000, -21916.000000, 865.640991, 4.000000, 4.000000, 4.000000, 4.000000, 4.000000, 4.000000, 4.000000, 4.000000, 4.000000, 4.000000, 4.000000, 4.000000, 4.000000, 4.000000, 4.000000, 4.000000
44.000000, 0.000000, 4229.230469, 4265.127930, 4186.153809, 4186.153809, 4210.769043, 4201.025391, 4195.897461, 4192.820313, 4202.051270, 4374.871582, 4196.922852, 4162.051270, 4229.743652, 4199.487305, 0.000000, 8357.000000, 7959.000000, 0.000000, 0.000000, 0.000000, -21916.000000, 873.333313, 4.000000, 4.000000, 4.000000, 4.000000, 4.000000, 4.000000, 4.000000, 4.000000, 4.000000, 4.000000, 4.000000, 4.000000, 4.000000, 4.000000, 4.000000, 4.000000
45.000000, 0.000000, 4229.743652, 4266.153809, 4188.205078, 4189.230469, 4200.512695, 4198.461426, 4195.897461, 4178.974121, 4194.358887, 4367.179199, 4183.589844, 4158.461426, 4213.333008, 4199.487305, 0.000000, 8364.000000, 7956.000000, 0.000000, 0.000000, 0.000000, -21916.000000, 881.538452, 4.000000, 4.000000, 4.000000, 4.000000, 4.000000, 4.000000, 4.000000, 4.000000, 4.000000, 4.000000, 4.000000, 4.000000, 4.000000, 4.000000, 4.000000, 4.000000
46.000000, 0.000000, 4236.410156, 4271.794922, 4200.000000, 4209.230469, 4201.025391, 4202.051270, 4199.487305, 4185.641113, 4206.153809, 4374.871582, 4186.666504, 4164.102539, 4215.384277, 4194.358887, 0.000000, 8364.000000, 7956.000000, 0.000000, 0.000000, 0.000000, -21916.000000, 889.230774, 4.000000, 4.000000, 4.000000, 4.000000, 4.000000, 4.000000, 4.000000, 4.000000, 4.000000, 4.000000, 4.000000, 4.000000, 4.000000, 4.000000, 4.000000, 4.000000
47.000000, 0.000000, 4243.076660, 4277.436035, 4192.307617, 4199.487305, 4212.820313, 4202.563965, 4195.897461, 4196.922852, 4220.512695, 4385.127930, 4202.563965, 4164.102539, 4234.358887, 4197.436035, 0.000000, 8369.000000, 7964.000000, 0.000000, 0.000000, 0.000000, -21916.000000, 897.435852, 4.000000, 4.000000, 4.000000, 4.000000, 4.000000, 4.000000, 4.000000, 4.000000, 4.000000, 4.000000, 4.000000, 4.000000, 4.000000, 4.000000, 4.000000, 4.000000
48.000000, 0.000000, 4242.563965, 4274.871582, 4186.153809, 4184.102539, 4215.384277, 4201.538574, 4193.846191, 4188.717773, 4211.281738, 4382.051270, 4200.000000, 4158.974121, 4232.820313, 4202.051270, 0.000000, 8369.000000, 7964.000000, 0.000000, 0.000000, 0.000000, -21916.000000, 905.128174, 4.000000, 4.000000, 4.000000, 4.000000, 4.000000, 4.000000, 4.000000, 4.000000, 4.000000, 4.000000, 4.000000, 4.000000, 4.000000, 4.000000, 4.000000, 4.000000
49.000000, 0.000000, 4251.281738, 4278.461426, 4204.102539, 4203.589844, 4205.641113, 4204.615234, 4201.025391, 4181.538574, 4204.102539, 4383.589844, 4202.051270, 4170.256348, 4236.410156, 4196.410156, 0.000000, 8363.000000, 7971.000000, 0.000000, 0.000000, 0.000000, -21916.000000, 912.820496, 4.000000, 4.000000, 4.000000, 4.000000, 4.000000, 4.000000, 4.000000, 4.000000, 4.000000, 4.000000, 4.000000, 4.000000, 4.000000, 4.000000, 4.000000, 4.000000
50.000000, 0.000000, 4261.538574, 4290.256348, 4210.256348, 4207.692383, 4203.076660, 4204.615234, 4203.076660, 4189.743652, 4210.256348, 4386.666504, 4205.641113, 4177.948730, 4238.461426, 4198.461426, 0.000000, 8363.000000, 7971.000000, 0.000000, 0.000000, 0.000000, -21916.000000, 921.025635, 4.000000, 4.000000, 4.000000, 4.000000, 4.000000, 4.000000, 4.000000, 4.000000, 4.000000, 4.000000, 4.000000, 4.000000, 4.000000, 4.000000, 4.000000, 4.000000
51.000000, 0.000000, 4255.384277, 4289.743652, 4195.897461, 4181.538574, 4208.205078, 4203.589844, 4200.000000, 4191.794922, 4210.769043, 4376.922852, 4194.358887, 4166.666504, 4226.153809, 4189.743652, 0.000000, 8361.000000, 7971.000000, 0.000000, 0.000000, 0.000000, -21916.000000, 928.717896, 4.000000, 4.000000, 4.000000, 4.000000, 4.000000, 4.000000, 4.000000, 4.000000, 4.000000, 4.000000, 4.000000, 4.000000, 4.000000, 4.000000, 4.000000, 4.000000
52.000000, 0.000000, 4253.846191, 4291.281738, 4197.436035, 4189.230469, 4204.615234, 4205.127930, 4199.487305, 4184.102539, 4200.512695, 4371.794922, 4194.871582, 4168.717773, 4236.922852, 4188.717773, 0.000000, 8361.000000, 7971.000000, 0.000000, 0.000000, 0.000000, -21916.000000, 936.410217, 4.000000, 4.000000, 4.000000, 4.000000, 4.000000, 4.000000, 4.000000, 4.000000, 4.000000, 4.000000, 4.000000, 4.000000, 4.000000, 4.000000, 4.000000, 4.000000
53.000000, 0.000000, 4255.897461, 4303.076660, 4205.127930, 4209.743652, 4201.025391, 4201.538574, 4193.846191, 4182.563965, 4197.948730, 4367.692383, 4199.487305, 4175.384277, 4247.692383, 4195.384277, 0.000000, 8357.000000, 7962.000000, 0.000000, 0.000000, 0.000000, -21916.000000, 944.615356, 4.000000, 4.000000, 4.000000, 4.000000, 4.000000, 4.000000, 4.000000, 4.000000, 4.000000, 4.000000, 4.000000, 4.000000, 4.000000, 4.000000, 4.000000, 4.000000
54.000000, 0.000000, 4254.871582, 4317.436035, 4194.871582, 4192.307617, 4203.589844, 4197.948730, 4193.333008, 4185.641113, 4200.000000, 4348.717773, 4187.179199, 4161.025391, 4229.743652, 4188.717773, 0.000000, 8357.000000, 7962.000000, 0.000000, 0.000000, 0.000000, -21916.000000, 952.307678, 4.000000, 4.000000, 4.000000, 4.000000, 4.000000, 4.000000, 4.000000, 4.000000, 4.000000, 4.000000, 4.000000, 4.000000, 4.000000, 4.000000, 4.000000, 4.000000
55.000000, 0.000000, 4257.948730, 4338.974121, 4192.307617, 4178.974121, 4204.615234, 4205.641113, 4207.179199, 4190.769043, 4199.487305, 4333.846191, 4184.615234, 4158.461426, 4228.717773, 4196.922852, 0.000000, 8354.000000, 7961.000000, 0.000000, 0.000000, 0.000000, -21916.000000, 960.000000, 4.000000, 4.000000, 4.000000, 4.000000, 4.000000, 4.000000, 4.000000, 4.000000, 4.000000, 4.000000, 4.000000, 4.000000, 4.000000, 4.000000, 4.000000, 4.000000
56.000000, 0.000000, 4265.127930, 4350.769043, 4204.615234, 4190.256348, 4210.256348, 4210.769043, 4206.153809, 4194.358887, 4204.102539, 4338.974121, 4201.538574, 4176.410156, 4253.846191, 4203.076660, 0.000000, 8354.000000, 7961.000000, 0.000000, 0.000000, 0.000000, -21916.000000, 968.205078, 4.000000, 4.000000, 4.000000, 4.000000, 4.000000, 4.000000, 4.000000, 4.000000, 4.000000, 4.000000, 4.000000, 4.000000, 4.000000, 4.000000, 4.000000, 4.000000
57.000000, 0.000000, 4265.641113, 4356.410156, 4207.179199, 4188.205078, 4213.846191, 4197.436035, 4187.692383, 4187.179199, 4205.641113, 4339.487305, 4205.641113, 4182.051270, 4260.000000, 4200.512695, 0.000000, 8346.000000, 7961.000000, 0.000000, 0.000000, 0.000000, -21916.000000, 975.897400, 4.000000, 4.000000, 4.000000, 4.000000, 4.000000, 4.000000, 4.000000, 4.000000, 4.000000, 4.000000, 4.000000, 4.000000, 4.000000, 4.000000, 4.000000, 4.000000
58.000000, 0.000000, 4259.487305, 4380.000000, 4198.974121, 4190.769043, 4202.563965, 4182.563965, 4185.127930, 4177.436035, 4193.846191, 4318.974121, 4188.205078, 4167.692383, 4245.127930, 4195.384277, 0.000000, 8346.000000, 7961.000000, 0.000000, 0.000000, 0.000000, -21916.000000, 983.589722, 4.000000, 4.000000, 4.000000, 4.000000, 4.000000, 4.000000, 4.000000, 4.000000, 4.000000, 4.000000, 4.000000, 4.000000, 4.000000, 4.000000, 4.000000, 4.000000
59.000000, 0.000000, 4263.589844, 4405.127930, 4196.410156, 4201.538574, 4197.948730, 4187.692383, 4195.384277, 4186.153809, 4197.436035, 4309.230469, 4181.025391, 4162.563965, 4247.179199, 4190.256348, 0.000000, 8339.000000, 7963.000000, 0.000000, 0.000000, 0.000000, -21916.000000, 991.794861, 4.000000, 4.000000, 4.000000, 4.000000, 4.000000, 4.000000, 4.000000, 4.000000, 4.000000, 4.000000, 4.000000, 4.000000, 4.000000, 4.000000, 4.000000, 4.000000
60.000000, 0.000000, 4265.127930, 4409.743652, 4195.384277, 4177.948730, 4202.563965, 4197.948730, 4196.410156, 4197.436035, 4209.743652, 4316.410156, 4190.769043, 4170.256348, 4262.051270, 4200.000000, 0.000000, 8339.000000, 7963.000000, 0.000000, 0.000000, 0.000000, -21916.000000, 999.487183, 4.000000, 4.000000, 4.000000, 4.000000, 4.000000, 4.000000, 4.000000, 4.000000, 4.000000, 4.000000, 4.000000, 4.000000, 4.000000, 4.000000, 4.000000, 4.000000
61.000000, 0.000000, 4258.461426, 4419.487305, 4192.820313, 4165.641113, 4201.025391, 4196.410156, 4193.333008, 4195.384277, 4203.076660, 4322.051270, 4195.384277, 4168.717773, 4268.717773, 4198.461426, 0.000000, 8338.000000, 7973.000000, 0.000000, 0.000000, 0.000000, -21915.000000, 7.692307, 4.000000, 4.000000, 4.000000, 4.000000, 4.000000, 4.000000, 4.000000, 4.000000, 4.000000, 4.000000, 4.000000, 4.000000, 4.000000, 4.000000, 4.000000, 4.000000
62.000000, 0.000000, 4268.205078, 4452.820313, 4202.051270, 4193.846191, 4204.615234, 4197.436035, 4202.051270, 4208.205078, 4209.230469, 4331.281738, 4203.589844, 4172.820313, 4283.589844, 4196.922852, 0.000000, 8338.000000, 7973.000000, 0.000000, 0.000000, 0.000000, -21915.000000, 15.384615, 4.000000, 4.000000, 4.000000, 4.000000, 4.000000, 4.000000, 4.000000, 4.000000, 4.000000, 4.000000, 4.000000, 4.000000, 4.000000, 4.000000, 4.000000, 4.000000
63.000000, 0.000000, 4269.743652, 4462.563965, 4200.512695, 4178.974121, 4199.487305, 4203.076660, 4210.769043, 4222.051270, 4227.179199, 4330.256348, 4203.589844, 4177.948730, 4288.205078, 4202.563965, 0.000000, 8326.000000, 8002.000000, 0.000000, 0.000000, 0.000000, -21915.000000, 23.076923, 4.000000, 4.000000, 4.000000, 4.000000, 4.000000, 4.000000, 4.000000, 4.000000, 4.000000, 4.000000, 4.000000, 4.000000, 4.000000, 4.000000, 4.000000, 4.000000
64.000000, 0.000000, 4253.846191, 4461.538574, 4184.615234, 4150.256348, 4182.051270, 4202.051270, 4205.641113, 4210.769043, 4223.589844, 4312.307617, 4178.974121, 4163.076660, 4264.102539, 4191.281738, 3348.000000, 8326.000000, 8002.000000, 0.000000, 0.000000, 0.000000, -21915.000000, 31.282051, 4.000000, 4.000000, 4.000000, 4.000000, 4.000000, 4.000000, 4.000000, 4.000000, 4.000000, 4.000000, 4.000000, 4.000000, 4.000000, 4.000000, 4.000000, 4.000000
65.000000, 0.000000, 4260.000000, 4489.743652, 4185.641113, 4176.410156, 4189.230469, 4201.025391, 4203.589844, 4199.487305, 4216.922852, 4313.846191, 4176.922852, 4160.512695, 4264.102539, 4196.922852, 3500.000000, 8320.000000, 8027.000000, 0.000000, 0.000000, 0.000000, -21915.000000, 38.974358, 4.000000, 4.000000, 4.000000, 4.000000, 4.000000, 4.000000, 4.000000, 4.000000, 4.000000, 4.000000, 4.000000, 4.000000, 4.000000, 4.000000, 4.000000, 4.000000
66.000000, 0.000000, 4270.256348, 4501.538574, 4191.281738, 4185.641113, 4214.871582, 4206.153809, 4207.179199, 4201.025391, 4216.922852, 4337.948730, 4199.487305, 4177.436035, 4285.127930, 4202.563965, 2740.000000, 8320.000000, 8027.000000, 0.000000, 0.000000, 0.000000, -21915.000000, 46.666664, 4.000000, 4.000000, 4.000000, 4.000000, 4.000000, 4.000000, 4.000000, 4.000000, 4.000000, 4.000000, 4.000000, 4.000000, 4.000000, 4.000000, 4.000000, 4.000000
67.000000, 0.000000, 4257.948730, 4491.794922, 4182.563965, 4160.000000, 4222.051270, 4208.205078, 4206.666504, 4200.512695, 4212.307617, 4352.820313, 4190.769043, 4172.820313, 4273.846191, 4188.717773, 1995.000000, 8311.000000, 8052.000000, 0.000000, 0.000000, 0.000000, -21915.000000, 54.871792, 4.000000, 4.000000, 4.000000, 4.000000, 4.000000, 4.000000, 4.000000, 4.000000, 4.000000, 4.000000, 4.000000, 4.000000, 4.000000, 4.000000, 4.000000, 4.000000
68.000000, 0.000000, 4249.743652, 4501.025391, 4177.948730, 4163.589844, 4208.717773, 4204.102539, 4201.538574, 4197.436035, 4208.717773, 4356.922852, 4171.281738, 4154.871582, 4253.333008, 4187.179199, 3545.000000, 8311.000000, 8052.000000, 0.000000, 0.000000, 0.000000, -21915.000000, 62.564102, 4.000000, 4.000000, 4.000000, 4.000000, 4.000000, 4.000000, 4.000000, 4.000000, 4.000000, 4.000000, 4.000000, 4.000000, 4.000000, 4.000000, 4.000000, 4.000000
69.000000, 0.000000, 4255.384277, 4514.871582, 4180.000000, 4173.846191, 4200.000000, 4200.000000, 4195.897461, 4191.281738, 4205.641113, 4370.256348, 4180.000000, 4158.974121, 4260.000000, 4187.179199, 3553.000000, 8310.000000, 8061.000000, 0.000000, 0.000000, 0.000000, -21915.000000, 70.769226, 4.000000, 4.000000, 4.000000, 4.000000, 4.000000, 4.000000, 4.000000, 4.000000, 4.000000, 4.000000, 4.000000, 4.000000, 4.000000, 4.000000, 4.000000, 4.000000
70.000000, 0.000000, 4259.487305, 4517.948730, 4180.000000, 4167.692383, 4208.205078, 4199.487305, 4197.436035, 4188.205078, 4204.102539, 4381.538574, 4186.666504, 4170.256348, 4268.205078, 4189.743652, 3065.000000, 8310.000000, 8061.000000, 0.000000, 0.000000, 0.000000, -21915.000000, 78.461540, 4.000000, 4.000000, 4.000000, 4.000000, 4.000000, 4.000000, 4.000000, 4.000000, 4.000000, 4.000000, 4.000000, 4.000000, 4.000000, 4.000000, 4.000000, 4.000000
71.000000, 0.000000, 4257.436035, 4522.051270, 4186.153809, 4176.922852, 4215.384277, 4201.538574, 4203.076660, 4195.897461, 4212.307617, 4382.563965, 4183.589844, 4173.333008, 4271.281738, 4185.641113, 3528.000000, 8308.000000, 8068.000000, 0.000000, 0.000000, 0.000000, -21915.000000, 86.153847, 4.000000, 4.000000, 4.000000, 4.000000, 4.000000, 4.000000, 4.000000, 4.000000, 4.000000, 4.000000, 4.000000, 4.000000, 4.000000, 4.000000, 4.000000, 4.000000
72.000000, 0.000000, 4260.000000, 4529.743652, 4187.179199, 4178.461426, 4204.615234, 4201.025391, 4204.615234, 4196.922852, 4209.743652, 4376.922852, 4185.127930, 4168.205078, 4270.769043, 4181.538574, 3535.000000, 8308.000000, 8068.000000, 0.000000, 0.000000, 0.000000, -21915.000000, 94.358971, 4.000000, 4.000000, 4.000000, 4.000000, 4.000000, 4.000000, 4.000000, 4.000000, 4.000000, 4.000000, 4.000000, 4.000000, 4.000000, 4.000000, 4.000000, 4.000000
73.000000, 0.000000, 4267.692383, 4537.948730, 4184.615234, 4167.692383, 4198.974121, 4200.000000, 4200.512695, 4183.589844, 4194.871582, 4374.871582, 4182.563965, 4166.153809, 4264.102539, 4196.410156, 3539.000000, 8305.000000, 8089.000000, 0.000000, 0.000000, 0.000000, -21915.000000, 102.051277, 4.000000, 4.000000, 4.000000, 4.000000, 4.000000, 4.000000, 4.000000, 4.000000, 4.000000, 4.000000, 4.000000, 4.000000, 4.000000, 4.000000, 4.000000, 4.000000
74.000000, 0.000000, 4269.230469, 4537.435547, 4192.820313, 4177.436035, 4204.102539, 4199.487305, 4197.948730, 4183.589844, 4200.000000, 4381.025391, 4184.102539, 4169.230469, 4263.076660, 4196.922852, 3553.000000, 8305.000000, 8089.000000, 0.000000, 0.000000, 0.000000, -21915.000000, 110.256409, 4.000000, 4.000000, 4.000000, 4.000000, 4.000000, 4.000000, 4.000000, 4.000000, 4.000000, 4.000000, 4.000000, 4.000000, 4.000000, 4.000000, 4.000000, 4.000000
75.000000, 0.000000, 4265.127930, 4537.948730, 4192.820313, 4189.743652, 4202.051270, 4199.487305, 4200.512695, 4193.333008, 4214.871582, 4377.435547, 4186.666504, 4165.127930, 4267.692383, 4194.358887, 1097.000000, 8309.000000, 8100.000000, 0.000000, 0.000000, 0.000000, -21915.000000, 117.948715, 4.000000, 4.000000, 4.000000, 4.000000, 4.000000, 4.000000, 4.000000, 4.000000, 4.000000, 4.000000, 4.000000, 4.000000, 4.000000, 4.000000, 4.000000, 4.000000
76.000000, 0.000000, 4268.205078, 4541.538574, 4184.615234, 4185.641113, 4211.281738, 4203.076660, 4201.538574, 4193.846191, 4215.897461, 4377.435547, 4185.127930, 4158.974121, 4275.384277, 4197.436035, 3498.000000, 8309.000000, 8100.000000, 0.000000, 0.000000, 0.000000, -21915.000000, 125.641022, 4.000000, 4.000000, 4.000000, 4.000000, 4.000000, 4.000000, 4.000000, 4.000000, 4.000000, 4.000000, 4.000000, 4.000000, 4.000000, 4.000000, 4.000000, 4.000000
77.000000, 0.000000, 4262.563965, 4526.153809, 4186.153809, 4171.794922, 4218.461426, 4207.179199, 4202.563965, 4190.256348, 4210.769043, 4395.897461, 4187.692383, 4164.615234, 4277.436035, 4194.358887, 3451.000000, 8310.000000, 8125.000000, 0.000000, 0.000000, 0.000000, -21915.000000, 133.846146, 4.000000, 4.000000, 4.000000, 4.000000, 4.000000, 4.000000, 4.000000, 4.000000, 4.000000, 4.000000, 4.000000, 4.000000, 4.000000, 4.000000, 4.000000, 4.000000
78.000000, 0.000000, 4248.717773, 4513.846191, 4189.743652, 4168.717773, 4203.076660, 4202.563965, 4205.127930, 4187.179199, 4206.666504, 4399.487305, 4187.692383, 4168.717773, 4271.794922, 4195.897461, 3553.000000, 8310.000000, 8125.000000, 0.000000, 0.000000, 0.000000, -21915.000000, 141.538452, 4.000000, 4.000000, 4.000000, 4.000000, 4.000000, 4.000000, 4.000000, 4.000000, 4.000000, 4.000000, 4.000000, 4.000000, 4.000000, 4.000000, 4.000000, 4.000000
79.000000, 0.000000, 4254.871582, 4528.717773, 4185.127930, 4183.589844, 4194.358887, 4190.769043, 4195.384277, 4178.974121, 4197.436035, 4384.615234, 4179.487305, 4162.563965, 4270.256348, 4192.820313, 1097.000000, 8311.000000, 8126.000000, 0.000000, 0.000000, 0.000000, -21915.000000, 149.230759, 4.000000, 4.000000, 4.000000, 4.000000, 4.000000, 4.000000, 4.000000, 4.000000, 4.000000, 4.000000, 4.000000, 4.000000, 4.000000, 4.000000, 4.000000, 4.000000
80.000000, 0.000000, 4265.641113, 4541.538574, 4185.127930, 4190.256348, 4202.563965, 4184.615234, 4181.538574, 4167.692383, 4184.615234, 4393.333008, 4175.384277, 4163.589844, 4269.230469, 4198.461426, 3498.000000, 8311.000000, 8126.000000, 0.000000, 0.000000, 0.000000, -21915.000000, 156.923080, 4.000000, 4.000000, 4.000000, 4.000000, 4.000000, 4.000000, 4.000000, 4.000000, 4.000000, 4.000000, 4.000000, 4.000000, 4.000000, 4.000000, 4.000000, 4.000000
81.000000, 0.000000, 4263.076660, 4537.948730, 4191.281738, 4184.615234, 4205.127930, 4187.179199, 4181.538574, 4164.102539, 4183.589844, 4415.384277, 4180.512695, 4169.743652, 4265.641113, 4202.563965, 3451.000000, 8307.000000, 8122.000000, 0.000000, 0.000000, 0.000000, -21915.000000, 165.128204, 4.000000, 4.000000, 4.000000, 4.000000, 4.000000, 4.000000, 4.000000, 4.000000, 4.000000, 4.000000, 4.000000, 4.000000, 4.000000, 4.000000, 4.000000, 4.000000
82.000000, 0.000000, 4264.615234, 4539.487305, 4189.230469, 4193.846191, 4203.589844, 4188.717773, 4182.563965, 4162.563965, 4186.153809, 4408.205078, 4177.948730, 4163.076660, 4260.512695, 4193.846191, 3553.000000, 8307.000000, 8122.000000, 0.000000, 0.000000, 0.000000, -21915.000000, 172.820511, 4.000000, 4.000000, 4.000000, 4.000000, 4.000000, 4.000000, 4.000000, 4.000000, 4.000000, 4.000000, 4.000000, 4.000000, 4.000000, 4.000000, 4.000000, 4.000000
83.000000, 0.000000, 4264.102539, 4544.615234, 4185.641113, 4201.025391, 4202.563965, 4184.615234, 4178.974121, 4153.333008, 4178.974121, 4397.435547, 4169.230469, 4154.358887, 4256.922852, 4197.948730, 1097.000000, 8311.000000, 8126.000000, 0.000000, 0.000000, 0.000000, -21915.000000, 181.025635, 4.000000, 4.000000, 4.000000, 4.000000, 4.000000, 4.000000, 4.000000, 4.000000, 4.000000, 4.000000, 4.000000, 4.000000, 4.000000, 4.000000, 4.000000, 4.000000
84.000000, 0.000000, 4258.461426, 4541.025391, 4191.281738, 4194.871582, 4204.102539, 4183.076660, 4175.897461, 4153.333008, 4177.948730, 4417.435547, 4167.692383, 4153.333008, 4256.922852, 4198.461426, 3498.000000, 8311.000000, 8126.000000, 0.000000, 0.000000, 0.000000, -21915.000000, 188.717941, 4.000000, 4.000000, 4.000000, 4.000000, 4.000000, 4.000000, 4.000000, 4.000000, 4.000000, 4.000000, 4.000000, 4.000000, 4.000000, 4.000000, 4.000000, 4.000000
85.000000, 0.000000, 4265.641113, 4543.076660, 4204.102539, 4201.025391, 4212.820313, 4187.179199, 4176.410156, 4160.000000, 4187.692383, 4443.589844, 4169.743652, 4158.974121, 4257.948730, 4198.974121, 3451.000000, 8308.000000, 8126.000000, 0.000000, 0.000000, 0.000000, -21915.000000, 196.410248, 4.000000, 4.000000, 4.000000, 4.000000, 4.000000, 4.000000, 4.000000, 4.000000, 4.000000, 4.000000, 4.000000, 4.000000, 4.000000, 4.000000, 4.000000, 4.000000
86.000000, 0.000000, 4260.512695, 4536.922852, 4203.589844, 4209.743652, 4211.281738, 4186.153809, 4180.512695, 4158.461426, 4184.102539, 4466.153809, 4167.179199, 4160.000000, 4250.256348, 4199.487305, 3553.000000, 8308.000000, 8126.000000, 0.000000, 0.000000, 0.000000, -21915.000000, 204.615387, 4.000000, 4.000000, 4.000000, 4.000000, 4.000000, 4.000000, 4.000000, 4.000000, 4.000000, 4.000000, 4.000000, 4.000000, 4.000000, 4.000000, 4.000000, 4.000000
87.000000, 0.000000, 4240.512695, 4518.974121, 4191.794922, 4203.589844, 4200.512695, 4180.000000, 4177.948730, 4153.846191, 4168.717773, 4505.641113, 4160.512695, 4154.871582, 4242.051270, 4191.794922, 1097.000000, 8289.000000, 8120.000000, 0.000000, 0.000000, 0.000000, -21915.000000, 212.307693, 4.000000, 4.000000, 4.000000, 4.000000, 4.000000, 4.000000, 4.000000, 4.000000, 4.000000, 4.000000, 4.000000, 4.000000, 4.000000, 4.000000, 4.000000, 4.000000
88.000000, 0.000000, 4235.384277, 4506.153809, 4193.846191, 4196.410156, 4203.589844, 4184.615234, 4179.487305, 4163.589844, 4171.281738, 4547.179199, 4158.974121, 4153.333008, 4240.000000, 4198.461426, 3498.000000, 8289.000000, 8120.000000, 0.000000, 0.000000, 0.000000, -21915.000000, 220.000000, 4.000000, 4.000000, 4.000000, 4.000000, 4.000000, 4.000000, 4.000000, 4.000000, 4.000000, 4.000000, 4.000000, 4.000000, 4.000000, 4.000000, 4.000000, 4.000000
89.000000, 0.000000, 4235.384277, 4492.307617, 4197.948730, 4200.000000, 4217.948730, 4200.512695, 4196.410156, 4181.538574, 4184.615234, 4563.076660, 4154.358887, 4148.717773, 4235.897461, 4195.897461, 3451.000000, 8274.000000, 8118.000000, 0.000000, 0.000000, 0.000000, -21915.000000, 228.205124, 4.000000, 4.000000, 4.000000, 4.000000, 4.000000, 4.000000, 4.000000, 4.000000, 4.000000, 4.000000, 4.000000, 4.000000, 4.000000, 4.000000, 4.000000, 4.000000
90.000000, 0.000000, 4223.076660, 4482.051270, 4189.743652, 4202.051270, 4222.051270, 4208.717773, 4206.666504, 4187.692383, 4185.641113, 4571.281738, 4152.307617, 4142.051270, 4231.794922, 4191.794922, 3553.000000, 8274.000000, 8118.000000, 0.000000, 0.000000, 0.000000, -21915.000000, 235.897430, 4.000000, 4.000000, 4.000000, 4.000000, 4.000000, 4.000000, 4.000000, 4.000000, 4.000000, 4.000000, 4.000000, 4.000000, 4.000000, 4.000000, 4.000000, 4.000000
91.000000, 0.000000, 4211.281738, 4472.820313, 4180.512695, 4191.794922, 4213.333008, 4202.563965, 4192.820313, 4182.051270, 4183.076660, 4594.871582, 4161.025391, 4143.076660, 4230.769043, 4197.948730, 1097.000000, 8240.000000, 8109.000000, 0.000000, 0.000000, 0.000000, -21915.000000, 243.589737, 4.000000, 4.000000, 4.000000, 4.000000, 4.000000, 4.000000, 4.000000, 4.000000, 4.000000, 4.000000, 4.000000, 4.000000, 4.000000, 4.000000, 4.000000, 4.000000
92.000000, 0.000000, 4212.307617, 4461.025391, 4183.589844, 4184.102539, 4205.641113, 4191.794922, 4179.487305, 4176.922852, 4191.794922, 4607.179199, 4166.666504, 4148.717773, 4232.307617, 4194.358887, 3498.000000, 8240.000000, 8109.000000, 0.000000, 0.000000, 0.000000, -21915.000000, 251.282043, 4.000000, 4.000000, 4.000000, 4.000000, 4.000000, 4.000000, 4.000000, 4.000000, 4.000000, 4.000000, 4.000000, 4.000000, 4.000000, 4.000000, 4.000000, 4.000000
93.000000, 0.000000, 4214.358887, 4458.974121, 4187.179199, 4193.333008, 4198.974121, 4183.589844, 4177.948730, 4172.307617, 4188.205078, 4591.281738, 4159.487305, 4149.743652, 4235.897461, 4198.974121, 3451.000000, 8223.000000, 8097.000000, 0.000000, 0.000000, 0.000000, -21915.000000, 259.487183, 4.000000, 4.000000, 4.000000, 4.000000, 4.000000, 4.000000, 4.000000, 4.000000, 4.000000, 4.000000, 4.000000, 4.000000, 4.000000, 4.000000, 4.000000, 4.000000
94.000000, 0.000000, 4207.692383, 4458.461426, 4183.076660, 4199.487305, 4196.922852, 4178.461426, 4170.769043, 4161.025391, 4168.205078, 4584.615234, 4152.820313, 4143.589844, 4234.358887, 4198.974121, 3553.000000, 8223.000000, 8097.000000, 0.000000, 0.000000, 0.000000, -21915.000000, 267.179474, 4.000000, 4.000000, 4.000000, 4.000000, 4.000000, 4.000000, 4.000000, 4.000000, 4.000000, 4.000000, 4.000000, 4.000000, 4.000000, 4.000000, 4.000000, 4.000000
95.000000, 0.000000, 4209.743652, 4456.410156, 4183.589844, 4196.410156, 4209.230469, 4183.076660, 4174.358887, 4163.589844, 4173.846191, 4599.487305, 4161.025391, 4147.179199, 4237.948730, 4199.487305, 1097.000000, 8205.000000, 8095.000000, 0.000000, 0.000000, 0.000000, -21915.000000, 274.871796, 4.000000, 4.000000, 4.000000, 4.000000, 4.000000, 4.000000, 4.000000, 4.000000, 4.000000, 4.000000, 4.000000, 4.000000, 4.000000, 4.000000, 4.000000, 4.000000
96.000000, 0.000000, 4214.871582, 4456.410156, 4190.256348, 4199.487305, 4213.333008, 4195.897461, 4192.307617, 4180.000000, 4194.871582, 4601.025391, 4168.205078, 4158.974121, 4243.589844, 4206.666504, 3498.000000, 8205.000000, 8095.000000, 0.000000, 0.000000, 0.000000, -21915.000000, 283.076904, 4.000000, 4.000000, 4.000000, 4.000000, 4.000000, 4.000000, 4.000000, 4.000000, 4.000000, 4.000000, 4.000000, 4.000000, 4.000000, 4.000000, 4.000000, 4.000000
97.000000, 0.000000, 4207.179199, 4449.230469, 4187.692383, 4200.000000, 4202.563965, 4198.461426, 4201.538574, 4193.333008, 4201.538574, 4594.871582, 4168.717773, 4162.563965, 4247.692383, 4198.974121, 3451.000000, 8167.000000, 8096.000000, 0.000000, 0.000000, 0.000000, -21915.000000, 290.769226, 4.000000, 4.000000, 4.000000, 4.000000, 4.000000, 4.000000, 4.000000, 4.000000, 4.000000, 4.000000, 4.000000, 4.000000, 4.000000, 4.000000, 4.000000, 4.000000
98.000000, 0.000000, 4204.102539, 4443.076660, 4187.692383, 4198.974121, 4203.589844, 4194.358887, 4204.615234, 4208.717773, 4210.769043, 4602.563965, 4172.820313, 4163.589844, 4258.974121, 4202.563965, 3553.000000, 8167.000000, 8096.000000, 0.000000, 0.000000, 0.000000, -21915.000000, 298.461517, 4.000000, 4.000000, 4.000000, 4.000000, 4.000000, 4.000000, 4.000000, 4.000000, 4.000000, 4.000000, 4.000000, 4.000000, 4.000000, 4.000000, 4.000000, 4.000000
99.000000, 0.000000, 4208.717773, 4438.974121, 4196.922852, 4200.000000, 4212.307617, 4195.384277, 4204.102539, 4214.871582, 4218.974121, 4600.000000, 4175.384277, 4164.615234, 4265.641113, 4202.563965, 1097.000000, 8157.000000, 8087.000000, 0.000000, 0.000000, 0.000000, -21915.000000, 306.666656, 4.000000, 4.000000, 4.000000, 4.000000, 4.000000, 4.000000, 4.000000, 4.000000, 4.000000, 4.000000, 4.000000, 4.000000, 4.000000, 4.000000, 4.000000, 4.000000
100.000000, 0.000000, 4198.461426, 4430.256348, 4193.333008, 4189.743652, 4202.563965, 4198.974121, 4203.076660, 4205.641113, 4207.692383, 4581.538574, 4168.205078, 4156.410156, 4248.717773, 4191.794922, 3498.000000, 8157.000000, 8087.000000, 0.000000, 0.000000, 0.000000, -21915.000000, 314.358978, 4.000000, 4.000000, 4.000000, 4.000000, 4.000000, 4.000000, 4.000000, 4.000000, 4.000000, 4.000000, 4.000000, 4.000000, 4.000000, 4.000000, 4.000000, 4.000000
101.000000, 0.000000, 4187.179199, 4427.179199, 4183.076660, 4187.692383, 4198.461426, 4205.127930, 4210.769043, 4208.205078, 4205.641113, 4572.820313, 4161.538574, 4146.153809, 4233.333008, 4196.922852, 3451.000000, 8134.000000, 8076.000000, 0.000000, 0.000000, 0.000000, -21915.000000, 322.564087, 4.000000, 4.000000, 4.000000, 4.000000, 4.000000, 4.000000, 4.000000, 4.000000, 4.000000, 4.000000, 4.000000, 4.000000, 4.000000, 4.000000, 4.000000, 4.000000
102.000000, 0.000000, 4195.897461, 4429.230469, 4187.179199, 4204.615234, 4215.897461, 4212.307617, 4215.897461, 4216.922852, 4216.922852, 4575.897461, 4164.615234, 4150.256348, 4243.589844, 4198.974121, 3553.000000, 8134.000000, 8076.000000, 0.000000, 0.000000, 0.000000, -21915.000000, 330.256409, 4.000000, 4.000000, 4.000000, 4.000000, 4.000000, 4.000000, 4.000000, 4.000000, 4.000000, 4.000000, 4.000000, 4.000000, 4.000000, 4.000000, 4.000000, 4.000000
103.000000, 0.000000, 4196.922852, 4425.127930, 4189.743652, 4206.666504, 4215.384277, 4204.615234, 4205.641113, 4205.127930, 4209.230469, 4572.307617, 4167.692383, 4157.948730, 4249.230469, 4201.025391, 1097.000000, 8137.000000, 8077.000000, 0.000000, 0.000000, 0.000000, -21915.000000, 338.461517, 4.000000, 4.000000, 4.000000, 4.000000, 4.000000, 4.000000, 4.000000, 4.000000, 4.000000, 4.000000, 4.000000, 4.000000, 4.000000, 4.000000, 4.000000, 4.000000
104.000000, 0.000000, 4178.461426, 4411.281738, 4181.538574, 4188.717773, 4198.974121, 4195.384277, 4195.384277, 4194.358887, 4197.436035, 4566.666504, 4161.025391, 4154.358887, 4235.384277, 4197.948730, 3498.000000, 8137.000000, 8077.000000, 0.000000, 0.000000, 0.000000, -21915.000000, 346.153839, 4.000000, 4.000000, 4.000000, 4.000000, 4.000000, 4.000000, 4.000000, 4.000000, 4.000000, 4.000000, 4.000000, 4.000000, 4.000000, 4.000000, 4.000000, 4.000000
105.000000, 0.000000, 4177.436035, 4407.692383, 4182.051270, 4186.153809, 4198.974121, 4201.025391, 4196.922852, 4193.846191, 4201.025391, 4574.871582, 4156.410156, 4150.256348, 4229.230469, 4192.820313, 3451.000000, 8145.000000, 8075.000000, 0.000000, 0.000000, 0.000000, -21915.000000, 353.846130, 4.000000, 4.000000, 4.000000, 4.000000, 4.000000, 4.000000, 4.000000, 4.000000, 4.000000, 4.000000, 4.000000, 4.000000, 4.000000, 4.000000, 4.000000, 4.000000
106.000000, 0.000000, 4185.127930, 4410.769043, 4186.153809, 4195.897461, 4202.051270, 4200.000000, 4200.000000, 4183.076660, 4195.897461, 4586.666504, 4155.897461, 4147.179199, 4231.794922, 4199.487305, 3553.000000, 8145.000000, 8075.000000, 0.000000, 0.000000, 0.000000, -21915.000000, 361.538452, 4.000000, 4.000000, 4.000000, 4.000000, 4.000000, 4.000000, 4.000000, 4.000000, 4.000000, 4.000000, 4.000000, 4.000000, 4.000000, 4.000000, 4.000000, 4.000000
107.000000, 0.000000, 4176.410156, 4398.974121, 4183.589844, 4197.948730, 4205.641113, 4194.358887, 4194.358887, 4181.025391, 4189.743652, 4590.256348, 4156.410156, 4149.230469, 4234.358887, 4192.307617, 1097.000000, 8148.000000, 8073.000000, 0.000000, 0.000000, 0.000000, -21915.000000, 369.743591, 4.000000, 4.000000, 4.000000, 4.000000, 4.000000, 4.000000, 4.000000, 4.000000, 4.000000, 4.000000, 4.000000, 4.000000, 4.000000, 4.000000, 4.000000, 4.000000
108.000000, 0.000000, 4173.333008, 4393.846191, 4185.127930, 4197.436035, 4214.871582, 4198.974121, 4194.871582, 4187.179199, 4192.820313, 4591.281738, 4163.076660, 4157.948730, 4235.897461, 4190.769043, 3498.000000, 8148.000000, 8073.000000, 0.000000, 0.000000, 0.000000, -21915.000000, 377.948700, 4.000000, 4.000000, 4.000000, 4.000000, 4.000000, 4.000000, 4.000000, 4.000000, 4.000000, 4.000000, 4.000000, 4.000000, 4.000000, 4.000000, 4.000000, 4.000000
109.000000, 0.000000, 4176.410156, 4395.384277, 4183.589844, 4195.384277, 4214.871582, 4200.000000, 4198.461426, 4180.000000, 4190.256348, 4586.153809, 4165.127930, 4153.846191, 4230.256348, 4193.333008, 3451.000000, 8154.000000, 8077.000000, 0.000000, 0.000000, 0.000000, -21915.000000, 385.641022, 4.000000, 4.000000, 4.000000, 4.000000, 4.000000, 4.000000, 4.000000, 4.000000, 4.000000, 4.000000, 4.000000, 4.000000, 4.000000, 4.000000, 4.000000, 4.000000
110.000000, 0.000000, 4177.948730, 4390.769043, 4182.563965, 4200.000000, 4210.256348, 4196.410156, 4191.281738, 4183.076660, 4195.384277, 4577.948730, 4168.717773, 4150.769043, 4233.846191, 4189.230469, 3553.000000, 8154.000000, 8077.000000, 0.000000, 0.000000, 0.000000, -21915.000000, 393.333313, 4.000000, 4.000000, 4.000000, 4.000000, 4.000000, 4.000000, 4.000000, 4.000000, 4.000000, 4.000000, 4.000000, 4.000000, 4.000000, 4.000000, 4.000000, 4.000000
111.000000, 0.000000, 4180.512695, 4387.692383, 4194.358887, 4209.743652, 4217.436035, 4197.948730, 4189.230469, 4186.153809, 4201.538574, 4569.230469, 4172.307617, 4165.127930, 4243.076660, 4194.871582, 1097.000000, 8158.000000, 8089.000000, 0.000000, 0.000000, 0.000000, -21915.000000, 401.538452, 4.000000, 4.000000, 4.000000, 4.000000, 4.000000, 4.000000, 4.000000, 4.000000, 4.000000, 4.000000, 4.000000, 4.000000, 4.000000, 4.000000, 4.000000, 4.000000
112.000000, 0.000000, 4181.025391, 4381.025391, 4198.461426, 4207.692383, 4215.897461, 4200.000000, 4194.358887, 4172.307617, 4194.871582, 4553.846191, 4168.205078, 4168.717773, 4236.410156, 4189.743652, 3498.000000, 8158.000000, 8089.000000, 0.000000, 0.000000, 0.000000, -21915.000000, 409.230774, 4.000000, 4.000000, 4.000000, 4.000000, 4.000000, 4.000000, 4.000000, 4.000000, 4.000000, 4.000000, 4.000000, 4.000000, 4.000000, 4.000000, 4.000000, 4.000000
113.000000, 0.000000, 4180.000000, 4372.307617, 4192.820313, 4198.461426, 4208.717773, 4197.436035, 4193.846191, 4173.333008, 4195.897461, 4540.000000, 4166.666504, 4162.563965, 4235.897461, 4190.256348, 3451.000000, 8159.000000, 8097.000000, 0.000000, 0.000000, 0.000000, -21915.000000, 416.923065, 4.000000, 4.000000, 4.000000, 4.000000, 4.000000, 4.000000, 4.000000, 4.000000, 4.000000, 4.000000, 4.000000, 4.000000, 4.000000, 4.000000, 4.000000, 4.000000
114.000000, 0.000000, 4180.000000, 4364.615234, 4195.384277, 4201.025391, 4215.384277, 4205.641113, 4198.974121, 4194.871582, 4207.692383, 4537.948730, 4171.281738, 4169.743652, 4247.179199, 4196.922852, 3553.000000, 8159.000000, 8097.000000, 0.000000, 0.000000, 0.000000, -21915.000000, 424.615387, 4.000000, 4.000000, 4.000000, 4.000000, 4.000000, 4.000000, 4.000000, 4.000000, 4.000000, 4.000000, 4.000000, 4.000000, 4.000000, 4.000000, 4.000000, 4.000000
115.000000, 0.000000, 4178.461426, 4351.794922, 4200.512695, 4204.102539, 4220.512695, 4214.358887, 4213.846191, 4211.281738, 4215.897461, 4536.410156, 4170.256348, 4176.922852, 4231.281738, 4188.717773, 1097.000000, 8161.000000, 8119.000000, 0.000000, 0.000000, 0.000000, -21915.000000, 432.820496, 4.000000, 4.000000, 4.000000, 4.000000, 4.000000, 4.000000, 4.000000, 4.000000, 4.000000, 4.000000, 4.000000, 4.000000, 4.000000, 4.000000, 4.000000, 4.000000
116.000000, 0.000000, 4168.717773, 4337.948730, 4200.512695, 4197.436035, 4213.846191, 4207.179199, 4209.230469, 4211.794922, 4213.846191, 4518.974121, 4165.127930, 4171.281738, 4210.769043, 4187.692383, 3498.000000, 8161.000000, 8119.000000, 0.000000, 0.000000, 0.000000, -21915.000000, 440.512817, 4.000000, 4.000000, 4.000000, 4.000000, 4.000000, 4.000000, 4.000000, 4.000000, 4.000000, 4.000000, 4.000000, 4.000000, 4.000000, 4.000000, 4.000000, 4.000000
117.000000, 0.000000, 4164.102539, 4331.281738, 4200.000000, 4198.974121, 4215.384277, 4197.948730, 4194.358887, 4201.538574, 4209.230469, 4500.000000, 4170.769043, 4168.205078, 4230.256348, 4190.256348, 3451.000000, 8152.000000, 8126.000000, 0.000000, 0.000000, 0.000000, -21915.000000, 448.717926, 4.000000, 4.000000, 4.000000, 4.000000, 4.000000, 4.000000, 4.000000, 4.000000, 4.000000, 4.000000, 4.000000, 4.000000, 4.000000, 4.000000, 4.000000, 4.000000
118.000000, 0.000000, 4167.179199, 4321.538574, 4195.384277, 4202.563965, 4215.384277, 4200.000000, 4200.512695, 4188.717773, 4202.563965, 4489.743652, 4174.358887, 4167.692383, 4252.820313, 4194.871582, 3553.000000, 8152.000000, 8126.000000, 0.000000, 0.000000, 0.000000, -21915.000000, 456.410248, 4.000000, 4.000000, 4.000000, 4.000000, 4.000000, 4.000000, 4.000000, 4.000000, 4.000000, 4.000000, 4.000000, 4.000000, 4.000000, 4.000000, 4.000000, 4.000000
119.000000, 0.000000, 4162.051270, 4298.974121, 4187.179199, 4189.230469, 4203.589844, 4201.025391, 4205.127930, 4191.794922, 4198.974121, 4477.948730, 4169.743652, 4163.589844, 4244.102539, 4194.871582, 1097.000000, 8147.000000, 8138.000000, 0.000000, 0.000000, 0.000000, -21915.000000, 464.615387, 4.000000, 4.000000, 4.000000, 4.000000, 4.000000, 4.000000, 4.000000, 4.000000, 4.000000, 4.000000, 4.000000, 4.000000, 4.000000, 4.000000, 4.000000, 4.000000
120.000000, 0.000000, 4156.410156, 4282.563965, 4186.666504, 4181.538574, 4203.589844, 4196.922852, 4194.871582, 4205.127930, 4206.666504, 4474.358887, 4171.281738, 4165.127930, 4241.025391, 4190.769043, 3498.000000, 8147.000000, 8138.000000, 0.000000, 0.000000, 0.000000, -21915.000000, 472.307678, 4.000000, 4.000000, 4.000000, 4.000000, 4.000000, 4.000000, 4.000000, 4.000000, 4.000000, 4.000000, 4.000000, 4.000000, 4.000000, 4.000000, 4.000000, 4.000000
121.000000, 0.000000, 4154.871582, 4279.487305, 4190.256348, 4194.358887, 4210.769043, 4195.897461, 4190.769043, 4203.076660, 4212.820313, 4475.384277, 4172.307617, 4164.102539, 4249.230469, 4200.000000, 3451.000000, 8128.000000, 8149.000000, 0.000000, 0.000000, 0.000000, -21915.000000, 480.000000, 4.000000, 4.000000, 4.000000, 4.000000, 4.000000, 4.000000, 4.000000, 4.000000, 4.000000, 4.000000, 4.000000, 4.000000, 4.000000, 4.000000, 4.000000, 4.000000
122.000000, 0.000000, 4149.743652, 4270.769043, 4187.692383, 4201.538574, 4210.256348, 4196.922852, 4196.410156, 4194.871582, 4203.589844, 4454.358887, 4164.615234, 4152.820313, 4244.615234, 4195.897461, 3553.000000, 8128.000000, 8149.000000, 0.000000, 0.000000, 0.000000, -21915.000000, 488.205109, 4.000000, 4.000000, 4.000000, 4.000000, 4.000000, 4.000000, 4.000000, 4.000000, 4.000000, 4.000000, 4.000000, 4.000000, 4.000000, 4.000000, 4.000000, 4.000000
123.000000, 0.000000, 4145.127930, 4262.051270, 4182.563965, 4191.281738, 4208.717773, 4200.512695, 4204.615234, 4199.487305, 4198.974121, 4434.358887, 4165.641113, 4150.256348, 4243.076660, 4192.820313, 1097.000000, 8119.000000, 8150.000000, 0.000000, 0.000000, 0.000000, -21915.000000, 495.897430, 4.000000, 4.000000, 4.000000, 4.000000, 4.000000, 4.000000, 4.000000, 4.000000, 4.000000, 4.000000, 4.000000, 4.000000, 4.000000, 4.000000, 4.000000, 4.000000
124.000000, 0.000000, 4140.512695, 4252.820313, 4178.974121, 4184.102539, 4207.692383, 4200.000000, 4205.127930, 4205.641113, 4204.615234, 4435.897461, 4169.743652, 4152.820313, 4244.615234, 4199.487305, 3498.000000, 8119.000000, 8150.000000, 0.000000, 0.000000, 0.000000, -21915.000000, 503.589722, 4.000000, 4.000000, 4.000000, 4.000000, 4.000000, 4.000000, 4.000000, 4.000000, 4.000000, 4.000000, 4.000000, 4.000000, 4.000000, 4.000000, 4.000000, 4.000000
125.000000, 0.000000, 4136.410156, 4243.589844, 4177.948730, 4186.666504, 4203.589844, 4197.436035, 4200.000000, 4205.641113, 4207.179199, 4437.948730, 4164.615234, 4147.179199, 4237.436035, 4192.820313, 3451.000000, 8121.000000, 8156.000000, 0.000000, 0.000000, 0.000000, -21915.000000, 511.794861, 4.000000, 4.000000, 4.000000, 4.000000, 4.000000, 4.000000, 4.000000, 4.000000, 4.000000, 4.000000, 4.000000, 4.000000, 4.000000, 4.000000, 4.000000, 4.000000
126.000000, 0.000000, 4138.974121, 4245.127930, 4181.025391, 4190.256348, 4202.563965, 4198.974121, 4201.538574, 4204.102539, 4211.281738, 4426.666504, 4165.127930, 4148.205078, 4242.051270, 4196.922852, 3553.000000, 8121.000000, 8156.000000, 0.000000, 0.000000, 0.000000, -21915.000000, 519.487183, 4.000000, 4.000000, 4.000000, 4.000000, 4.000000, 4.000000, 4.000000, 4.000000, 4.000000, 4.000000, 4.000000, 4.000000, 4.000000, 4.000000, 4.000000, 4.000000
127.000000, 0.000000, 4137.436035, 4236.922852, 4183.076660, 4189.230469, 4203.076660, 4198.461426, 4201.025391, 4203.076660, 4214.871582, 4415.384277, 4173.846191, 4155.897461, 4251.794922, 4197.948730, 54.000000, 8120.000000, 8159.000000, 0.000000, 0.000000, 0.000000, -21915.000000, 527.179504, 4.000000, 4.000000, 4.000000, 4.000000, 4.000000, 4.000000, 4.000000, 4.000000, 4.000000, 4.000000, 4.000000, 4.000000, 4.000000, 4.000000, 4.000000, 4.000000
0.000000, 0.000000, 4132.307617, 4218.461426, 4183.076660, 4186.666504, 4199.487305, 4196.410156, 4202.051270, 4201.025391, 4207.179199, 4408.205078, 4173.333008, 4156.922852, 4242.051270, 4194.358887, 3352.000000, 8120.000000, 8159.000000, 0.000000, 0.000000, 0.000000, -21915.000000, 535.384583, 4.000000, 4.000000, 4.000000, 4.000000, 4.000000, 4.000000, 4.000000, 4.000000, 4.000000, 4.000000, 4.000000, 4.000000, 4.000000, 4.000000, 4.000000, 4.000000
1.000000, 0.000000, 4130.256348, 4213.333008, 4185.127930, 4185.127930, 4198.461426, 4195.897461, 4209.230469, 4195.384277, 4197.436035, 4394.358887, 4165.641113, 4153.846191, 4229.230469, 4199.487305, 3497.000000, 8116.000000, 8165.000000, 0.000000, 0.000000, 0.000000, -21915.000000, 543.076904, 4.000000, 4.000000, 4.000000, 4.000000, 4.000000, 4.000000, 4.000000, 4.000000, 4.000000, 4.000000, 4.000000, 4.000000, 4.000000, 4.000000, 4.000000, 4.000000
2.000000, 0.000000, 4132.307617, 4214.871582, 4184.102539, 4189.743652, 4202.051270, 4191.794922, 4202.051270, 4189.230469, 4200.000000, 4375.897461, 4166.666504, 4152.307617, 4233.846191, 4197.436035, 2746.000000, 8116.000000, 8165.000000, 0.000000, 0.000000, 0.000000, -21915.000000, 550.769226, 4.000000, 4.000000, 4.000000, 4.000000, 4.000000, 4.000000, 4.000000, 4.000000, 4.000000, 4.000000, 4.000000, 4.000000, 4.000000, 4.000000, 4.000000, 4.000000
3.000000, 0.000000, 4133.846191, 4205.641113, 4180.512695, 4189.230469, 4196.922852, 4183.076660, 4191.281738, 4182.563965, 4206.153809, 4367.179199, 4168.717773, 4152.820313, 4238.974121, 4198.461426, 2013.000000, 8119.000000, 8178.000000, 0.000000, 0.000000, 0.000000, -21915.000000, 558.974365, 4.000000, 4.000000, 4.000000, 4.000000, 4.000000, 4.000000, 4.000000, 4.000000, 4.000000, 4.000000, 4.000000, 4.000000, 4.000000, 4.000000, 4.000000, 4.000000
4.000000, 0.000000, 4130.256348, 4193.846191, 4178.974121, 4185.641113, 4193.333008, 4185.641113, 4202.563965, 4180.000000, 4187.692383, 4368.717773, 4165.641113, 4148.205078, 4236.410156, 4198.461426, 3531.000000, 8119.000000, 8178.000000, 0.000000, 0.000000, 0.000000, -21915.000000, 566.666626, 4.000000, 4.000000, 4.000000, 4.000000, 4.000000, 4.000000, 4.000000, 4.000000, 4.000000, 4.000000, 4.000000, 4.000000, 4.000000, 4.000000, 4.000000, 4.000000
5.000000, 0.000000, 4133.846191, 4196.922852, 4185.127930, 4193.846191, 4202.563965, 4193.846191, 4214.358887, 4192.820313, 4170.769043, 4373.846191, 4175.897461, 4153.846191, 4246.666504, 4202.051270, 3544.000000, 8118.000000, 8183.000000, 0.000000, 0.000000, 0.000000, -21915.000000, 574.871765, 4.000000, 4.000000, 4.000000, 4.000000, 4.000000, 4.000000, 4.000000, 4.000000, 4.000000, 4.000000, 4.000000, 4.000000, 4.000000, 4.000000, 4.000000, 4.000000
6.000000, 0.000000, 4143.589844, 4199.487305, 4191.281738, 4204.102539, 4196.410156, 4188.717773, 4203.076660, 4203.589844, 4192.820313, 4370.256348, 4186.666504, 4167.692383, 4257.948730, 4208.205078, 3064.000000, 8118.000000, 8183.000000, 0.000000, 0.000000, 0.000000, -21915.000000, 582.564087, 4.000000, 4.000000, 4.000000, 4.000000, 4.000000, 4.000000, 4.000000, 4.000000, 4.000000, 4.000000, 4.000000, 4.000000, 4.000000, 4.000000, 4.000000, 4.000000
7.000000, 0.000000, 4142.563965, 4187.179199, 4187.179199, 4200.512695, 4181.538574, 4185.641113, 4192.820313, 4198.974121, 4229.743652, 4352.307617, 4178.974121, 4167.179199, 4252.307617, 4196.922852, 3516.000000, 8128.000000, 8183.000000, 0.000000, 0.000000, 0.000000, -21915.000000, 590.256409, 4.000000, 4.000000, 4.000000, 4.000000, 4.000000, 4.000000, 4.000000, 4.000000, 4.000000, 4.000000, 4.000000, 4.000000, 4.000000, 4.000000, 4.000000, 4.000000
8.000000, 0.000000, 4137.436035, 4180.512695, 4187.692383, 4196.922852, 4197.436035, 4193.846191, 4199.487305, 4193.846191, 4224.102539, 4340.000000, 4174.871582, 4164.615234, 4246.153809, 4198.461426, 3523.000000, 8128.000000, 8183.000000, 0.000000, 0.000000, 0.000000, -21915.000000, 598.461548, 4.000000, 4.000000, 4.000000, 4.000000, 4.000000, 4.000000, 4.000000, 4.000000, 4.000000, 4.000000, 4.000000, 4.000000, 4.000000, 4.000000, 4.000000, 4.000000
9.000000, 0.000000, 4140.000000, 4178.461426, 4197.436035, 4202.051270, 4216.410156, 4199.487305, 4208.205078, 4201.538574, 4190.256348, 4351.281738, 4185.641113, 4175.897461, 4251.281738, 4205.641113, 3519.000000, 8131.000000, 8181.000000, 0.000000, 0.000000, 0.000000, -21915.000000, 606.153809, 4.000000, 4.000000, 4.000000, 4.000000, 4.000000, 4.000000, 4.000000, 4.000000, 4.000000, 4.000000, 4.000000, 4.000000, 4.000000, 4.000000, 4.000000, 4.000000
10.000000, 0.000000, 4143.589844, 4171.281738, 4200.000000, 4202.563965, 4204.615234, 4196.922852, 4207.692383, 4212.820313, 4193.846191, 4356.922852, 4188.717773, 4181.025391, 4255.897461, 4200.000000, 3539.000000, 8131.000000, 8181.000000, 0.000000, 0.000000, 0.000000, -21915.000000, 613.846130, 4.000000, 4.000000, 4.000000, 4.000000, 4.000000, 4.000000, 4.000000, 4.000000, 4.000000, 4.000000, 4.000000, 4.000000, 4.000000, 4.000000, 4.000000, 4.000000
11.000000, 0.000000, 4140.000000, 4166.666504, 4195.897461, 4198.461426, 4194.358887, 4192.820313, 4204.615234, 4214.358887, 4226.153809, 4342.563965, 4183.589844, 4177.436035, 4255.384277, 4203.589844, 1094.000000, 8159.000000, 8185.000000, 0.000000, 0.000000, 0.000000, -21915.000000, 621.538452, 4.000000, 4.000000, 4.000000, 4.000000, 4.000000, 4.000000, 4.000000, 4.000000, 4.000000, 4.000000, 4.000000, 4.000000, 4.000000, 4.000000, 4.000000, 4.000000
12.000000, 0.000000, 4138.461426, 4164.102539, 4197.948730, 4198.461426, 4203.589844, 4194.871582, 4207.179199, 4210.769043, 4243.076660, 4335.384277, 4183.589844, 4180.000000, 4255.897461, 4203.589844, 3485.000000, 8159.000000, 8185.000000, 0.000000, 0.000000, 0.000000, -21915.000000, 629.743591, 4.000000, 4.000000, 4.000000, 4.000000, 4.000000, 4.000000, 4.000000, 4.000000, 4.000000, 4.000000, 4.000000, 4.000000, 4.000000, 4.000000, 4.000000, 4.000000
13.000000, 0.000000, 4137.436035, 4160.512695, 4198.461426, 4201.025391, 4206.666504, 4200.512695, 4210.769043, 4207.179199, 4226.153809, 4340.000000, 4181.538574, 4180.512695, 4251.794922, 4204.102539, 3440.000000, 8168.000000, 8185.000000, 0.000000, 0.000000, 0.000000, -21915.000000, 637.435852, 4.000000, 4.000000, 4.000000, 4.000000, 4.000000, 4.000000, 4.000000, 4.000000, 4.000000, 4.000000, 4.000000, 4.000000, 4.000000, 4.000000, 4.000000, 4.000000
14.000000, 0.000000, 4130.769043, 4150.256348, 4190.769043, 4198.461426, 4197.436035, 4201.025391, 4204.102539, 4200.000000, 4201.025391, 4338.974121, 4177.436035, 4172.307617, 4245.641113, 4200.000000, 3539.000000, 8168.000000, 8185.000000, 0.000000, 0.000000, 0.000000, -21915.000000, 645.128174, 4.000000, 4.000000, 4.000000, 4.000000, 4.000000, 4.000000, 4.000000, 4.000000, 4.000000, 4.000000, 4.000000, 4.000000, 4.000000, 4.000000, 4.000000, 4.000000
15.000000, 0.000000, 4128.717773, 4141.025391, 4185.127930, 4192.820313, 4194.871582, 4192.307617, 4196.410156, 4187.179199, 4195.384277, 4338.974121, 4175.384277, 4165.641113, 4244.102539, 4194.871582, 1094.000000, 8188.000000, 8179.000000, 0.000000, 0.000000, 0.000000, -21915.000000, 653.333313, 4.000000, 4.000000, 4.000000, 4.000000, 4.000000, 4.000000, 4.000000, 4.000000, 4.000000, 4.000000, 4.000000, 4.000000, 4.000000, 4.000000, 4.000000, 4.000000
16.000000, 0.000000, 4129.230469, 4137.948730, 4185.127930, 4192.820313, 4199.487305, 4185.641113, 4198.461426, 4180.512695, 4203.589844, 4341.538574, 4170.769043, 4165.127930, 4241.538574, 4203.076660, 0.000000, 8188.000000, 8179.000000, 0.000000, 0.000000, 0.000000, -21915.000000, 661.025635, 4.000000, 4.000000, 4.000000, 4.000000, 4.000000, 4.000000, 4.000000, 4.000000, 4.000000, 4.000000, 4.000000, 4.000000, 4.000000, 4.000000, 4.000000, 4.000000
17.000000, 0.000000, 4130.769043, 4135.384277, 4184.102539, 4196.922852, 4203.076660, 4187.179199, 4196.922852, 4185.127930, 4210.256348, 4342.563965, 4170.256348, 4162.563965, 4237.948730, 4197.436035, 0.000000, 8221.000000, 8165.000000, 0.000000, 0.000000, 0.000000, -21915.000000, 669.230774, 4.000000, 4.000000, 4.000000, 4.000000, 4.000000, 4.000000, 4.000000, 4.000000, 4.000000, 4.000000, 4.000000, 4.000000, 4.000000, 4.000000, 4.000000, 4.000000
18.000000, 0.000000, 4135.384277, 4134.871582, 4184.102539, 4197.948730, 4198.461426, 4187.692383, 4190.256348, 4185.127930, 4194.871582, 4348.717773, 4167.179199, 4157.948730, 4235.897461, 4196.922852, 0.000000, 8221.000000, 8165.000000, 0.000000, 0.000000, 0.000000, -21915.000000, 676.923035, 4.000000, 4.000000, 4.000000, 4.000000, 4.000000, 4.000000, 4.000000, 4.000000, 4.000000, 4.000000, 4.000000, 4.000000, 4.000000, 4.000000, 4.000000, 4.000000
19.000000, 0.000000, 4133.333008, 4130.769043, 4183.589844, 4196.410156, 4196.922852, 4186.153809, 4185.127930, 4181.025391, 4184.102539, 4349.743652, 4156.410156, 4152.307617, 4231.794922, 4201.025391, 0.000000, 8231.000000, 8160.000000, 0.000000, 0.000000, 0.000000, -21915.000000, 684.615356, 4.000000, 4.000000, 4.000000, 4.000000, 4.000000, 4.000000, 4.000000, 4.000000, 4.000000, 4.000000, 4.000000, 4.000000, 4.000000, 4.000000, 4.000000, 4.000000
20.000000, 0.000000, 4129.230469, 4123.589844, 4180.512695, 4193.333008, 4201.538574, 4187.692383, 4182.563965, 4175.897461, 4191.281738, 4336.410156, 4153.333008, 4145.641113, 4226.153809, 4193.846191, 0.000000, 8231.000000, 8160.000000, 0.000000, 0.000000, 0.000000, -21915.000000, 692.820496, 4.000000, 4.000000, 4.000000, 4.000000, 4.000000, 4.000000, 4.000000, 4.000000, 4.000000, 4.000000, 4.000000, 4.000000, 4.000000, 4.000000, 4.000000, 4.000000
21.000000, 0.000000, 4126.153809, 4116.922852, 4172.307617, 4181.025391, 4193.846191, 4186.153809, 4180.512695, 4171.794922, 4189.230469, 4317.436035, 4151.794922, 4141.538574, 4219.487305, 4198.461426, 0.000000, 8255.000000, 8160.000000, 0.000000, 0.000000, 0.000000, -21915.000000, 700.512817, 4.000000, 4.000000, 4.000000, 4.000000, 4.000000, 4.000000, 4.000000, 4.000000, 4.000000, 4.000000, 4.000000, 4.000000, 4.000000, 4.000000, 4.000000, 4.000000
22.000000, 0.000000, 4125.641113, 4110.769043, 4168.717773, 4176.410156, 4184.615234, 4181.025391, 4180.000000, 4174.871582, 4185.127930, 4313.333008, 4148.205078, 4142.051270, 4219.487305, 4196.922852, 0.000000, 8255.000000, 8160.000000, 0.000000, 0.000000, 0.000000, -21915.000000, 708.717957, 4.000000, 4.000000, 4.000000, 4.000000, 4.000000, 4.000000, 4.000000, 4.000000, 4.000000, 4.000000, 4.000000, 4.000000, 4.000000, 4.000000, 4.000000, 4.000000
23.000000, 0.000000, 4131.794922, 4112.820313, 4173.846191, 4184.615234, 4191.794922, 4184.102539, 4187.179199, 4175.897461, 4193.333008, 4331.794922, 4153.846191, 4150.256348, 4225.641113, 4199.487305, 0.000000, 8265.000000, 8159.000000, 0.000000, 0.000000, 0.000000, -21915.000000, 716.410217, 4.000000, 4.000000, 4.000000, 4.000000, 4.000000, 4.000000, 4.000000, 4.000000, 4.000000, 4.000000, 4.000000, 4.000000, 4.000000, 4.000000, 4.000000, 4.000000
24.000000, 0.000000, 4135.384277, 4110.256348, 4174.871582, 4185.641113, 4195.384277, 4182.563965, 4185.641113, 4164.102539, 4197.436035, 4334.358887, 4157.948730, 4152.307617, 4222.051270, 4204.615234, 0.000000, 8265.000000, 8159.000000, 0.000000, 0.000000, 0.000000, -21915.000000, 724.102539, 4.000000, 4.000000, 4.000000, 4.000000, 4.000000, 4.000000, 4.000000, 4.000000, 4.000000, 4.000000, 4.000000, 4.000000, 4.000000, 4.000000, 4.000000, 4.000000
25.000000, 0.000000, 4136.410156, 4103.076660, 4168.205078, 4180.512695, 4190.769043, 4171.794922, 4174.871582, 4157.948730, 4185.641113, 4315.897461, 4154.358887, 4146.153809, 4214.871582, 4196.410156, 0.000000, 8272.000000, 8153.000000, 0.000000, 0.000000, 0.000000, -21915.000000, 732.307678, 4.000000, 4.000000, 4.000000, 4.000000, 4.000000, 4.000000, 4.000000, 4.000000, 4.000000, 4.000000, 4.000000, 4.000000, 4.000000, 4.000000, 4.000000, 4.000000
26.000000, 0.000000, 4136.922852, 4106.666504, 4170.769043, 4185.127930, 4194.871582, 4174.358887, 4174.358887, 4165.641113, 4188.717773, 4317.948730, 4162.051270, 4153.333008, 4218.974121, 4201.538574, 0.000000, 8272.000000, 8153.000000, 0.000000, 0.000000, 0.000000, -21915.000000, 740.000000, 4.000000, 4.000000, 4.000000, 4.000000, 4.000000, 4.000000, 4.000000, 4.000000, 4.000000, 4.000000, 4.000000, 4.000000, 4.000000, 4.000000, 4.000000, 4.000000
27.000000, 0.000000, 4132.820313, 4105.127930, 4178.974121, 4189.230469, 4203.076660, 4185.641113, 4182.563965, 4172.307617, 4203.589844, 4335.897461, 4174.871582, 4161.025391, 4223.589844, 4200.000000, 0.000000, 8273.000000, 8126.000000, 0.000000, 0.000000, 0.000000, -21915.000000, 748.205139, 4.000000, 4.000000, 4.000000, 4.000000, 4.000000, 4.000000, 4.000000, 4.000000, 4.000000, 4.000000, 4.000000, 4.000000, 4.000000, 4.000000, 4.000000, 4.000000
28.000000, 0.000000, 4133.333008, 4103.589844, 4180.000000, 4186.666504, 4204.102539, 4186.666504, 4188.205078, 4176.922852, 4203.076660, 4334.358887, 4173.333008, 4157.948730, 4218.974121, 4197.436035, 0.000000, 8273.000000, 8126.000000, 0.000000, 0.000000, 0.000000, -21915.000000, 755.897400, 4.000000, 4.000000, 4.000000, 4.000000, 4.000000, 4.000000, 4.000000, 4.000000, 4.000000, 4.000000, 4.000000, 4.000000, 4.000000, 4.000000, 4.000000, 4.000000
29.000000, 0.000000, 4137.436035, 4109.743652, 4179.487305, 4187.692383, 4197.948730, 4184.102539, 4185.641113, 4185.641113, 4199.487305, 4325.127930, 4167.692383, 4158.461426, 4208.205078, 4204.615234, 0.000000, 8272.000000, 8117.000000, 0.000000, 0.000000, 0.000000, -21915.000000, 763.589722, 4.000000, 4.000000, 4.000000, 4.000000, 4.000000, 4.000000, 4.000000, 4.000000, 4.000000, 4.000000, 4.000000, 4.000000, 4.000000, 4.000000, 4.000000, 4.000000
30.000000, 0.000000, 4135.384277, 4108.205078, 4178.461426, 4189.743652, 4186.666504, 4183.589844, 4180.512695, 4186.153809, 4204.615234, 4325.127930, 4168.717773, 4162.563965, 4201.538574, 4201.025391, 0.000000, 8272.000000, 8117.000000, 0.000000, 0.000000, 0.000000, -21915.000000, 771.282043, 4.000000, 4.000000, 4.000000, 4.000000, 4.000000, 4.000000, 4.000000, 4.000000, 4.000000, 4.000000, 4.000000, 4.000000, 4.000000, 4.000000, 4.000000, 4.000000
31.000000, 0.000000, 4136.410156, 4105.641113, 4178.461426, 4191.281738, 4187.179199, 4183.076660, 4181.025391, 4181.538574, 4205.127930, 4323.076660, 4178.461426, 4162.563965, 4205.641113, 4203.589844, 0.000000, 8254.000000, 8115.000000, 0.000000, 0.000000, 0.000000, -21915.000000, 779.487183, 4.000000, 4.000000, 4.000000, 4.000000, 4.000000, 4.000000, 4.000000, 4.000000, 4.000000, 4.000000, 4.000000, 4.000000, 4.000000, 4.000000, 4.000000, 4.000000
32.000000, 0.000000, 4145.641113, 4109.743652, 4181.538574, 4195.897461, 4202.563965, 4187.692383, 4186.153809, 4185.641113, 4201.538574, 4323.076660, 4190.256348, 4165.641113, 4217.948730, 4203.076660, 0.000000, 8254.000000, 8115.000000, 0.000000, 0.000000, 0.000000, -21915.000000, 787.692261, 4.000000, 4.000000, 4.000000, 4.000000, 4.000000, 4.000000, 4.000000, 4.000000, 4.000000, 4.000000, 4.000000, 4.000000, 4.000000, 4.000000, 4.000000, 4.000000
33.000000, 0.000000, 4150.256348, 4114.358887, 4185.641113, 4197.948730, 4210.769043, 4191.281738, 4187.179199, 4188.205078, 4207.692383, 4332.820313, 4199.487305, 4173.333008, 4221.025391, 4203.589844, 0.000000, 8246.000000, 8115.000000, 0.000000, 0.000000, 0.000000, -21915.000000, 795.384583, 4.000000, 4.000000, 4.000000, 4.000000, 4.000000, 4.000000, 4.000000, 4.000000, 4.000000, 4.000000, 4.000000, 4.000000, 4.000000, 4.000000, 4.000000, 4.000000
34.000000, 0.000000, 4145.641113, 4110.769043, 4185.127930, 4193.846191, 4210.256348, 4189.743652, 4186.666504, 4184.615234, 4214.871582, 4340.000000, 4197.948730, 4170.769043, 4215.897461, 4209.743652, 0.000000, 8246.000000, 8115.000000, 0.000000, 0.000000, 0.000000, -21915.000000, 803.076904, 4.000000, 4.000000, 4.000000, 4.000000, 4.000000, 4.000000, 4.000000, 4.000000, 4.000000, 4.000000, 4.000000, 4.000000, 4.000000, 4.000000, 4.000000, 4.000000
35.000000, 0.000000, 4144.615234, 4105.641113, 4185.127930, 4194.871582, 4207.179199, 4189.743652, 4183.076660, 4186.666504, 4217.948730, 4339.487305, 4193.333008, 4162.563965, 4218.461426, 4201.538574, 0.000000, 8230.000000, 8119.000000, 0.000000, 0.000000, 0.000000, -21915.000000, 811.282043, 4.000000, 4.000000, 4.000000, 4.000000, 4.000000, 4.000000, 4.000000, 4.000000, 4.000000, 4.000000, 4.000000, 4.000000, 4.000000, 4.000000, 4.000000, 4.000000
36.000000, 0.000000, 4149.743652, 4108.205078, 4187.179199, 4194.358887, 4202.563965, 4188.717773, 4178.461426, 4189.230469, 4215.384277, 4329.230469, 4190.769043, 4162.563965, 4215.897461, 4201.025391, 0.000000, 8230.000000, 8119.000000, 0.000000, 0.000000, 0.000000, -21915.000000, 818.974365, 4.000000, 4.000000, 4.000000, 4.000000, 4.000000, 4.000000, 4.000000, 4.000000, 4.000000, 4.000000, 4.000000, 4.000000, 4.000000, 4.000000, 4.000000, 4.000000
37.000000, 0.000000, 4148.717773, 4107.692383, 4184.102539, 4188.717773, 4202.563965, 4187.692383, 4180.000000, 4182.563965, 4205.641113, 4320.512695, 4183.589844, 4160.512695, 4202.051270, 4200.512695, 0.000000, 8224.000000, 8122.000000, 0.000000, 0.000000, 0.000000, -21915.000000, 827.179443, 4.000000, 4.000000, 4.000000, 4.000000, 4.000000, 4.000000, 4.000000, 4.000000, 4.000000, 4.000000, 4.000000, 4.000000, 4.000000, 4.000000, 4.000000, 4.000000
38.000000, 0.000000, 4145.127930, 4106.153809, 4183.076660, 4191.281738, 4203.589844, 4188.717773, 4178.461426, 4178.461426, 4198.974121, 4324.615234, 4180.000000, 4155.384277, 4196.410156, 4197.948730, 0.000000, 8224.000000, 8122.000000, 0.000000, 0.000000, 0.000000, -21915.000000, 834.871765, 4.000000, 4.000000, 4.000000, 4.000000, 4.000000, 4.000000, 4.000000, 4.000000, 4.000000, 4.000000, 4.000000, 4.000000, 4.000000, 4.000000, 4.000000, 4.000000
39.000000, 0.000000, 4143.076660, 4103.589844, 4185.641113, 4194.871582, 4201.025391, 4187.179199, 4176.922852, 4181.538574, 4201.025391, 4325.127930, 4183.589844, 4155.897461, 4200.512695, 4202.051270, 0.000000, 8216.000000, 8127.000000, 0.000000, 0.000000, 0.000000, -21915.000000, 842.564087, 4.000000, 4.000000, 4.000000, 4.000000, 4.000000, 4.000000, 4.000000, 4.000000, 4.000000, 4.000000, 4.000000, 4.000000, 4.000000, 4.000000, 4.000000, 4.000000
40.000000, 0.000000, 4140.000000, 4098.461426, 4184.102539, 4192.307617, 4200.000000, 4184.102539, 4181.538574, 4178.974121, 4200.512695, 4317.436035, 4187.179199, 4158.461426, 4198.974121, 4194.358887, 0.000000, 8216.000000, 8127.000000, 0.000000, 0.000000, 0.000000, -21915.000000, 850.769226, 4.000000, 4.000000, 4.000000, 4.000000, 4.000000, 4.000000, 4.000000, 4.000000, 4.000000, 4.000000, 4.000000, 4.000000, 4.000000, 4.000000, 4.000000, 4.000000
41.000000, 0.000000, 4135.384277, 4096.410156, 4182.051270, 4187.692383, 4197.948730, 4183.589844, 4179.487305, 4170.256348, 4192.307617, 4313.333008, 4185.127930, 4157.436035, 4193.333008, 4197.436035, 0.000000, 8208.000000, 8123.000000, 0.000000, 0.000000, 0.000000, -21915.000000, 858.461548, 4.000000, 4.000000, 4.000000, 4.000000, 4.000000, 4.000000, 4.000000, 4.000000, 4.000000, 4.000000, 4.000000, 4.000000, 4.000000, 4.000000, 4.000000, 4.000000
42.000000, 0.000000, 4135.384277, 4095.384521, 4183.076660, 4189.230469, 4200.512695, 4183.589844, 4173.333008, 4167.692383, 4191.794922, 4315.384277, 4185.641113, 4157.948730, 4196.922852, 4201.025391, 0.000000, 8208.000000, 8123.000000, 0.000000, 0.000000, 0.000000, -21915.000000, 866.153809, 4.000000, 4.000000, 4.000000, 4.000000, 4.000000, 4.000000, 4.000000, 4.000000, 4.000000, 4.000000, 4.000000, 4.000000, 4.000000, 4.000000, 4.000000, 4.000000
43.000000, 0.000000, 4141.538574, 4096.922852, 4181.538574, 4189.743652, 4205.127930, 4186.666504, 4181.025391, 4177.948730, 4199.487305, 4313.846191, 4188.717773, 4157.948730, 4201.538574, 4195.384277, 0.000000, 8203.000000, 8124.000000, 0.000000, 0.000000, 0.000000, -21915.000000, 874.358948, 4.000000, 4.000000, 4.000000, 4.000000, 4.000000, 4.000000, 4.000000, 4.000000, 4.000000, 4.000000, 4.000000, 4.000000, 4.000000, 4.000000, 4.000000, 4.000000
44.000000, 0.000000, 4138.974121, 4098.974121, 4181.025391, 4187.692383, 4203.076660, 4198.461426, 4192.820313, 4182.051270, 4203.589844, 4305.127930, 4185.641113, 4151.794922, 4193.333008, 4199.487305, 0.000000, 8203.000000, 8124.000000, 0.000000, 0.000000, 0.000000, -21915.000000, 882.051270, 4.000000, 4.000000, 4.000000, 4.000000, 4.000000, 4.000000, 4.000000, 4.000000, 4.000000, 4.000000, 4.000000, 4.000000, 4.000000, 4.000000, 4.000000, 4.000000
45.000000, 0.000000, 4130.769043, 4094.358887, 4178.974121, 4186.153809, 4201.025391, 4202.051270, 4183.589844, 4168.717773, 4197.948730, 4294.358887, 4180.512695, 4148.205078, 4181.538574, 4195.897461, 0.000000, 8204.000000, 8128.000000, 0.000000, 0.000000, 0.000000, -21915.000000, 890.256409, 4.000000, 4.000000, 4.000000, 4.000000, 4.000000, 4.000000, 4.000000, 4.000000, 4.000000, 4.000000, 4.000000, 4.000000, 4.000000, 4.000000, 4.000000, 4.000000
46.000000, 0.000000, 4129.743652, 4093.333252, 4174.871582, 4185.127930, 4204.102539, 4190.769043, 4172.820313, 4165.127930, 4192.820313, 4281.025391, 4180.000000, 4153.333008, 4178.461426, 4198.461426, 0.000000, 8204.000000, 8128.000000, 0.000000, 0.000000, 0.000000, -21915.000000, 897.948669, 4.000000, 4.000000, 4.000000, 4.000000, 4.000000, 4.000000, 4.000000, 4.000000, 4.000000, 4.000000, 4.000000, 4.000000, 4.000000, 4.000000, 4.000000, 4.000000
47.000000, 0.000000, 4131.794922, 4095.384521, 4179.487305, 4187.179199, 4195.897461, 4183.589844, 4177.436035, 4185.127930, 4200.512695, 4277.436035, 4184.615234, 4161.538574, 4179.487305, 4200.512695, 0.000000, 8203.000000, 8134.000000, 0.000000, 0.000000, 0.000000, -21915.000000, 905.640991, 4.000000, 4.000000, 4.000000, 4.000000, 4.000000, 4.000000, 4.000000, 4.000000, 4.000000, 4.000000, 4.000000, 4.000000, 4.000000, 4.000000, 4.000000, 4.000000
48.000000, 0.000000, 4132.307617, 4095.384521, 4187.692383, 4187.179199, 4181.538574, 4185.641113, 4179.487305, 4194.871582, 4208.205078, 4285.127930, 4188.717773, 4165.641113, 4181.025391, 4192.820313, 0.000000, 8203.000000, 8134.000000, 0.000000, 0.000000, 0.000000, -21915.000000, 913.333313, 4.000000, 4.000000, 4.000000, 4.000000, 4.000000, 4.000000, 4.000000, 4.000000, 4.000000, 4.000000, 4.000000, 4.000000, 4.000000, 4.000000, 4.000000, 4.000000
49.000000, 0.000000, 4132.307617, 4098.461426, 4188.717773, 4186.666504, 4183.589844, 4183.589844, 4178.461426, 4185.641113, 4200.512695, 4279.487305, 4191.281738, 4166.153809, 4182.563965, 4198.461426, 0.000000, 8202.000000, 8134.000000, 0.000000, 0.000000, 0.000000, -21915.000000, 921.538452, 4.000000, 4.000000, 4.000000, 4.000000, 4.000000, 4.000000, 4.000000, 4.000000, 4.000000, 4.000000, 4.000000, 4.000000, 4.000000, 4.000000, 4.000000, 4.000000
50.000000, 0.000000, 4133.846191, 4098.461426, 4185.641113, 4191.281738, 4195.897461, 4182.563965, 4185.641113, 4191.281738, 4198.974121, 4268.717773, 4195.384277, 4167.179199, 4183.076660, 4196.922852, 0.000000, 8202.000000, 8134.000000, 0.000000, 0.000000, 0.000000, -21915.000000, 929.230774, 4.000000, 4.000000, 4.000000, 4.000000, 4.000000, 4.000000, 4.000000, 4.000000, 4.000000, 4.000000, 4.000000, 4.000000, 4.000000, 4.000000, 4.000000, 4.000000
51.000000, 0.000000, 4133.846191, 4094.871582, 4186.666504, 4192.820313, 4202.051270, 4194.871582, 4191.281738, 4205.127930, 4213.846191, 4269.230469, 4194.358887, 4172.307617, 4176.922852, 4194.871582, 0.000000, 8202.000000, 8146.000000, 0.000000, 0.000000, 0.000000, -21915.000000, 937.435852, 4.000000, 4.000000, 4.000000, 4.000000, 4.000000, 4.000000, 4.000000, 4.000000, 4.000000, 4.000000, 4.000000, 4.000000, 4.000000, 4.000000, 4.000000, 4.000000
52.000000, 0.000000, 4126.153809, 4092.307617, 4181.025391, 4187.179199, 4201.025391, 4199.487305, 4184.102539, 4199.487305, 4218.974121, 4267.179199, 4185.127930, 4165.641113, 4162.051270, 4191.794922, 0.000000, 8202.000000, 8146.000000, 0.000000, 0.000000, 0.000000, -21915.000000, 945.128174, 4.000000, 4.000000, 4.000000, 4.000000, 4.000000, 4.000000, 4.000000, 4.000000, 4.000000, 4.000000, 4.000000, 4.000000, 4.000000, 4.000000, 4.000000, 4.000000
53.000000, 0.000000, 4124.102539, 4094.358887, 4175.384277, 4189.743652, 4204.102539, 4192.307617, 4177.948730, 4190.256348, 4214.358887, 4261.025391, 4186.153809, 4155.384277, 4166.666504, 4187.179199, 0.000000, 8197.000000, 8146.000000, 0.000000, 0.000000, 0.000000, -21915.000000, 953.333313, 4.000000, 4.000000, 4.000000, 4.000000, 4.000000, 4.000000, 4.000000, 4.000000, 4.000000, 4.000000, 4.000000, 4.000000, 4.000000, 4.000000, 4.000000, 4.000000
54.000000, 0.000000, 4134.871582, 4103.076660, 4180.000000, 4198.461426, 4209.743652, 4188.717773, 4181.025391, 4192.307617, 4213.846191, 4259.487305, 4195.897461, 4159.487305, 4181.538574, 4195.897461, 0.000000, 8197.000000, 8146.000000, 0.000000, 0.000000, 0.000000, -21915.000000, 961.025635, 4.000000, 4.000000, 4.000000, 4.000000, 4.000000, 4.000000, 4.000000, 4.000000, 4.000000, 4.000000, 4.000000, 4.000000, 4.000000, 4.000000, 4.000000, 4.000000
55.000000, 0.000000, 4143.589844, 4104.102539, 4184.615234, 4197.436035, 4209.230469, 4193.846191, 4179.487305, 4192.820313, 4211.794922, 4251.794922, 4197.436035, 4166.153809, 4181.538574, 4193.333008, 0.000000, 8189.000000, 8149.000000, 0.000000, 0.000000, 0.000000, -21915.000000, 969.230774, 4.000000, 4.000000, 4.000000, 4.000000, 4.000000, 4.000000, 4.000000, 4.000000, 4.000000, 4.000000, 4.000000, 4.000000, 4.000000, 4.000000, 4.000000, 4.000000
56.000000, 0.000000, 4149.743652, 4104.102539, 4186.666504, 4195.384277, 4204.615234, 4197.436035, 4178.461426, 4186.666504, 4202.563965, 4248.205078, 4196.410156, 4167.692383, 4178.461426, 4193.846191, 0.000000, 8189.000000, 8149.000000, 0.000000, 0.000000, 0.000000, -21915.000000, 976.923035, 4.000000, 4.000000, 4.000000, 4.000000, 4.000000, 4.000000, 4.000000, 4.000000, 4.000000, 4.000000, 4.000000, 4.000000, 4.000000, 4.000000, 4.000000, 4.000000
57.000000, 0.000000, 4156.410156, 4109.230469, 4189.230469, 4199.487305, 4200.512695, 4189.743652, 4172.820313, 4175.384277, 4186.666504, 4249.230469, 4193.846191, 4166.153809, 4178.974121, 4200.512695, 0.000000, 8184.000000, 8149.000000, 0.000000, 0.000000, 0.000000, -21915.000000, 985.128174, 4.000000, 4.000000, 4.000000, 4.000000, 4.000000, 4.000000, 4.000000, 4.000000, 4.000000, 4.000000, 4.000000, 4.000000, 4.000000, 4.000000, 4.000000, 4.000000
58.000000, 0.000000, 4167.692383, 4111.281738, 4195.897461, 4203.076660, 4198.461426, 4181.025391, 4164.615234, 4174.358887, 4183.589844, 4236.922852, 4193.846191, 4168.205078, 4178.974121, 4199.487305, 0.000000, 8184.000000, 8149.000000, 0.000000, 0.000000, 0.000000, -21915.000000, 992.820496, 4.000000, 4.000000, 4.000000, 4.000000, 4.000000, 4.000000, 4.000000, 4.000000, 4.000000, 4.000000, 4.000000, 4.000000, 4.000000, 4.000000, 4.000000, 4.000000
59.000000, 0.000000, 4177.948730, 4115.384277, 4202.563965, 4202.563965, 4197.948730, 4181.538574, 4172.307617, 4183.076660, 4195.384277, 4225.641113, 4197.948730, 4173.333008, 4182.563965, 4208.717773, 0.000000, 8178.000000, 8154.000000, 0.000000, 0.000000, 0.000000, -21914.000000, 0.512820, 4.000000, 4.000000, 4.000000, 4.000000, 4.000000, 4.000000, 4.000000, 4.000000, 4.000000, 4.000000, 4.000000, 4.000000, 4.000000, 4.000000, 4.000000, 4.000000
60.000000, 0.000000, 4185.127930, 4119.487305, 4201.025391, 4205.127930, 4201.538574, 4187.692383, 4177.948730, 4177.948730, 4194.871582, 4227.179199, 4196.922852, 4168.717773, 4186.153809, 4208.717773, 0.000000, 8178.000000, 8154.000000, 0.000000, 0.000000, 0.000000, -21914.000000, 8.717949, 4.000000, 4.000000, 4.000000, 4.000000, 4.000000, 4.000000, 4.000000, 4.000000, 4.000000, 4.000000, 4.000000, 4.000000, 4.000000, 4.000000, 4.000000, 4.000000
61.000000, 0.000000, 4192.307617, 4123.076660, 4200.000000, 4210.256348, 4200.512695, 4182.051270, 4171.794922, 4170.769043, 4188.717773, 4225.641113, 4196.922852, 4167.179199, 4186.666504, 4208.205078, 0.000000, 8168.000000, 8155.000000, 0.000000, 0.000000, 0.000000, -21914.000000, 16.410255, 4.000000, 4.000000, 4.000000, 4.000000, 4.000000, 4.000000, 4.000000, 4.000000, 4.000000, 4.000000, 4.000000, 4.000000, 4.000000, 4.000000, 4.000000, 4.000000
62.000000, 0.000000, 4196.922852, 4124.102539, 4210.256348, 4214.358887, 4191.794922, 4170.256348, 4173.846191, 4185.641113, 4199.487305, 4230.256348, 4203.076660, 4178.461426, 4192.820313, 4213.846191, 0.000000, 8168.000000, 8155.000000, 0.000000, 0.000000, 0.000000, -21914.000000, 24.102564, 4.000000, 4.000000, 4.000000, 4.000000, 4.000000, 4.000000, 4.000000, 4.000000, 4.000000, 4.000000, 4.000000, 4.000000, 4.000000, 4.000000, 4.000000, 4.000000
63.000000, 0.000000, 4203.076660, 4125.127930, 4218.974121, 4217.436035, 4194.358887, 4169.743652, 4177.436035, 4191.281738, 4203.589844, 4235.897461, 4209.230469, 4183.589844, 4198.974121, 4207.692383, 0.000000, 8164.000000, 8147.000000, 0.000000, 0.000000, 0.000000, -21914.000000, 32.307690, 4.000000, 4.000000, 4.000000, 4.000000, 4.000000, 4.000000, 4.000000, 4.000000, 4.000000, 4.000000, 4.000000, 4.000000, 4.000000, 4.000000, 4.000000, 4.000000
64.000000, 0.000000, 4209.230469, 4131.281738, 4220.000000, 4220.000000, 4201.025391, 4175.897461, 4172.820313, 4172.307617, 4187.692383, 4225.127930, 4211.281738, 4184.615234, 4201.025391, 4211.794922, 3352.000000, 8164.000000, 8147.000000, 0.000000, 0.000000, 0.000000, -21914.000000, 40.000000, 4.000000, 4.000000, 4.000000, 4.000000, 4.000000, 4.000000, 4.000000, 4.000000, 4.000000, 4.000000, 4.000000, 4.000000, 4.000000, 4.000000, 4.000000, 4.000000
65.000000, 0.000000, 4200.512695, 4125.641113, 4217.948730, 4214.871582, 4190.256348, 4181.025391, 4173.333008, 4163.589844, 4176.922852, 4206.666504, 4208.717773, 4183.076660, 4199.487305, 4207.179199, 3636.000000, 8153.000000, 8143.000000, 0.000000, 0.000000, 0.000000, -21914.000000, 48.205128, 4.000000, 4.000000, 4.000000, 4.000000, 4.000000, 4.000000, 4.000000, 4.000000, 4.000000, 4.000000, 4.000000, 4.000000, 4.000000, 4.000000, 4.000000, 4.000000
66.000000, 0.000000, 4179.487305, 4113.846191, 4209.743652, 4203.076660, 4182.563965, 4184.102539, 4182.563965, 4163.589844, 4171.794922, 4190.769043, 4192.820313, 4170.256348, 4183.076660, 4196.922852, 2744.000000, 8153.000000, 8143.000000, 0.000000, 0.000000, 0.000000, -21914.000000, 55.897434, 4.000000, 4.000000, 4.000000, 4.000000, 4.000000, 4.000000, 4.000000, 4.000000, 4.000000, 4.000000, 4.000000, 4.000000, 4.000000, 4.000000, 4.000000, 4.000000
67.000000, 0.000000, 4166.666504, 4107.692383, 4202.051270, 4193.846191, 4190.256348, 4186.666504, 4191.281738, 4165.127930, 4172.820313, 4184.102539, 4181.538574, 4162.051270, 4166.666504, 4201.025391, 2025.000000, 8147.000000, 8141.000000, 0.000000, 0.000000, 0.000000, -21914.000000, 63.589741, 4.000000, 4.000000, 4.000000, 4.000000, 4.000000, 4.000000, 4.000000, 4.000000, 4.000000, 4.000000, 4.000000, 4.000000, 4.000000, 4.000000, 4.000000, 4.000000
68.000000, 0.000000, 4164.102539, 4099.487305, 4201.025391, 4189.743652, 4190.256348, 4186.666504, 4197.436035, 4181.025391, 4187.179199, 4186.153809, 4190.769043, 4168.717773, 4167.692383, 4196.922852, 3531.000000, 8147.000000, 8141.000000, 0.000000, 0.000000, 0.000000, -21914.000000, 71.794868, 4.000000, 4.000000, 4.000000, 4.000000, 4.000000, 4.000000, 4.000000, 4.000000, 4.000000, 4.000000, 4.000000, 4.000000, 4.000000, 4.000000, 4.000000, 4.000000
69.000000, 0.000000, 4164.102539, 4097.948730, 4203.589844, 4190.256348, 4188.205078, 4183.076660, 4194.871582, 4188.717773, 4190.769043, 4185.127930, 4203.076660, 4176.410156, 4178.974121, 4201.025391, 3544.000000, 8132.000000, 8135.000000, 0.000000, 0.000000, 0.000000, -21914.000000, 79.487175, 4.000000, 4.000000, 4.000000, 4.000000, 4.000000, 4.000000, 4.000000, 4.000000, 4.000000, 4.000000, 4.000000, 4.000000, 4.000000, 4.000000, 4.000000, 4.000000
70.000000, 0.000000, 4163.076660, 4100.512695, 4209.743652, 4196.410156, 4197.948730, 4181.538574, 4183.076660, 4181.538574, 4183.076660, 4191.281738, 4208.205078, 4180.512695, 4186.153809, 4204.102539, 3059.000000, 8132.000000, 8135.000000, 0.000000, 0.000000, 0.000000, -21914.000000, 87.179482, 4.000000, 4.000000, 4.000000, 4.000000, 4.000000, 4.000000, 4.000000, 4.000000, 4.000000, 4.000000, 4.000000, 4.000000, 4.000000, 4.000000, 4.000000, 4.000000
71.000000, 0.000000, 4162.563965, 4101.025391, 4210.256348, 4202.051270, 4202.563965, 4185.127930, 4182.051270, 4185.127930, 4188.717773, 4204.102539, 4212.307617, 4186.153809, 4188.717773, 4202.563965, 3512.000000, 8130.000000, 8133.000000, 0.000000, 0.000000, 0.000000, -21914.000000, 95.384613, 4.000000, 4.000000, 4.000000, 4.000000, 4.000000, 4.000000, 4.000000, 4.000000, 4.000000, 4.000000, 4.000000, 4.000000, 4.000000, 4.000000, 4.000000, 4.000000
72.000000, 0.000000, 4162.563965, 4103.076660, 4208.717773, 4205.641113, 4202.051270, 4188.717773, 4188.717773, 4200.000000, 4202.563965, 4207.692383, 4214.358887, 4186.153809, 4192.820313, 4207.179199, 3517.000000, 8130.000000, 8133.000000, 0.000000, 0.000000, 0.000000, -21914.000000, 103.076920, 4.000000, 4.000000, 4.000000, 4.000000, 4.000000, 4.000000, 4.000000, 4.000000, 4.000000, 4.000000, 4.000000, 4.000000, 4.000000, 4.000000, 4.000000, 4.000000
73.000000, 0.000000, 4158.461426, 4103.589844, 4209.743652, 4207.692383, 4208.205078, 4187.179199, 4183.076660, 4203.076660, 4209.230469, 4203.076660, 4211.794922, 4181.538574, 4188.717773, 4199.487305, 3541.000000, 8122.000000, 8140.000000, 0.000000, 0.000000, 0.000000, -21914.000000, 110.769226, 4.000000, 4.000000, 4.000000, 4.000000, 4.000000, 4.000000, 4.000000, 4.000000, 4.000000, 4.000000, 4.000000, 4.000000, 4.000000, 4.000000, 4.000000, 4.000000
74.000000, 0.000000, 4150.256348, 4098.974121, 4207.692383, 4203.076660, 4200.000000, 4185.641113, 4172.820313, 4185.641113, 4198.974121, 4189.230469, 4205.641113, 4177.436035, 4174.358887, 4198.974121, 3547.000000, 8122.000000, 8140.000000, 0.000000, 0.000000, 0.000000, -21914.000000, 118.974358, 4.000000, 4.000000, 4.000000, 4.000000, 4.000000, 4.000000, 4.000000, 4.000000, 4.000000, 4.000000, 4.000000, 4.000000, 4.000000, 4.000000, 4.000000, 4.000000
75.000000, 0.000000, 4144.102539, 4094.358887, 4206.153809, 4200.512695, 4188.717773, 4186.666504, 4173.333008, 4170.769043, 4185.127930, 4171.794922, 4202.563965, 4177.436035, 4168.205078, 4200.000000, 1093.000000, 8115.000000, 8150.000000, 0.000000, 0.000000, 0.000000, -21914.000000, 126.666664, 4.000000, 4.000000, 4.000000, 4.000000, 4.000000, 4.000000, 4.000000, 4.000000, 4.000000, 4.000000, 4.000000, 4.000000, 4.000000, 4.000000, 4.000000, 4.000000
76.000000, 0.000000, 4144.102539, 4096.922852, 4207.179199, 4200.000000, 4203.589844, 4187.179199, 4181.025391, 4175.897461, 4191.281738, 4168.205078, 4202.563965, 4180.512695, 4172.820313, 4195.384277, 3485.000000, 8115.000000, 8150.000000, 0.000000, 0.000000, 0.000000, -21914.000000, 134.358978, 4.000000, 4.000000, 4.000000, 4.000000, 4.000000, 4.000000, 4.000000, 4.000000, 4.000000, 4.000000, 4.000000, 4.000000, 4.000000, 4.000000, 4.000000, 4.000000
77.000000, 0.000000, 4141.025391, 4095.384521, 4205.127930, 4192.820313, 4212.820313, 4184.102539, 4181.538574, 4184.615234, 4202.563965, 4160.000000, 4199.487305, 4175.384277, 4168.717773, 4200.512695, 3440.000000, 8116.000000, 8156.000000, 0.000000, 0.000000, 0.000000, -21914.000000, 142.051285, 4.000000, 4.000000, 4.000000, 4.000000, 4.000000, 4.000000, 4.000000, 4.000000, 4.000000, 4.000000, 4.000000, 4.000000, 4.000000, 4.000000, 4.000000, 4.000000
78.000000, 0.000000, 4137.948730, 4087.179443, 4202.563965, 4193.333008, 4204.102539, 4181.025391, 4178.974121, 4184.615234, 4202.563965, 4140.512695, 4195.897461, 4166.153809, 4166.153809, 4196.410156, 3547.000000, 8116.000000, 8156.000000, 0.000000, 0.000000, 0.000000, -21914.000000, 150.256409, 4.000000, 4.000000, 4.000000, 4.000000, 4.000000, 4.000000, 4.000000, 4.000000, 4.000000, 4.000000, 4.000000, 4.000000, 4.000000, 4.000000, 4.000000, 4.000000
79.000000, 0.000000, 4138.461426, 4088.717773, 4203.076660, 4198.461426, 4207.179199, 4189.230469, 4191.794922, 4190.256348, 4199.487305, 4135.384277, 4192.307617, 4165.641113, 4168.205078, 4198.461426, 1093.000000, 8122.000000, 8149.000000, 0.000000, 0.000000, 0.000000, -21914.000000, 157.948715, 4.000000, 4.000000, 4.000000, 4.000000, 4.000000, 4.000000, 4.000000, 4.000000, 4.000000, 4.000000, 4.000000, 4.000000, 4.000000, 4.000000, 4.000000, 4.000000
80.000000, 0.000000, 4132.820313, 4089.230713, 4201.025391, 4193.846191, 4217.948730, 4201.025391, 4204.102539, 4195.384277, 4194.871582, 4135.897461, 4186.153809, 4167.179199, 4160.000000, 4201.025391, 3485.000000, 8122.000000, 8149.000000, 0.000000, 0.000000, 0.000000, -21914.000000, 166.153839, 4.000000, 4.000000, 4.000000, 4.000000, 4.000000, 4.000000, 4.000000, 4.000000, 4.000000, 4.000000, 4.000000, 4.000000, 4.000000, 4.000000, 4.000000, 4.000000
81.000000, 0.000000, 4128.205078, 4090.256348, 4199.487305, 4190.769043, 4217.948730, 4204.102539, 4198.974121, 4188.205078, 4188.717773, 4127.692383, 4183.076660, 4163.076660, 4150.769043, 4194.358887, 3440.000000, 8126.000000, 8151.000000, 0.000000, 0.000000, 0.000000, -21914.000000, 173.846146, 4.000000, 4.000000, 4.000000, 4.000000, 4.000000, 4.000000, 4.000000, 4.000000, 4.000000, 4.000000, 4.000000, 4.000000, 4.000000, 4.000000, 4.000000, 4.000000
82.000000, 0.000000, 4129.743652, 4094.871582, 4204.102539, 4196.922852, 4210.769043, 4196.922852, 4192.307617, 4181.538574, 4195.384277, 4120.000000, 4185.127930, 4165.641113, 4153.333008, 4198.974121, 3547.000000, 8126.000000, 8151.000000, 0.000000, 0.000000, 0.000000, -21914.000000, 182.051285, 4.000000, 4.000000, 4.000000, 4.000000, 4.000000, 4.000000, 4.000000, 4.000000, 4.000000, 4.000000, 4.000000, 4.000000, 4.000000, 4.000000, 4.000000, 4.000000
83.000000, 0.000000, 4133.846191, 4091.281982, 4206.153809, 4200.000000, 4212.820313, 4190.256348, 4191.281738, 4194.871582, 4211.281738, 4121.025391, 4193.846191, 4173.333008, 4164.102539, 4195.897461, 1093.000000, 8130.000000, 8158.000000, 0.000000, 0.000000, 0.000000, -21914.000000, 189.743591, 4.000000, 4.000000, 4.000000, 4.000000, 4.000000, 4.000000, 4.000000, 4.000000, 4.000000, 4.000000, 4.000000, 4.000000, 4.000000, 4.000000, 4.000000, 4.000000
84.000000, 0.000000, 4137.436035, 4089.743408, 4206.666504, 4195.897461, 4218.461426, 4194.871582, 4193.846191, 4210.769043, 4219.487305, 4127.179199, 4204.615234, 4179.487305, 4173.333008, 4196.922852, 3485.000000, 8130.000000, 8158.000000, 0.000000, 0.000000, 0.000000, -21914.000000, 197.435898, 4.000000, 4.000000, 4.000000, 4.000000, 4.000000, 4.000000, 4.000000, 4.000000, 4.000000, 4.000000, 4.000000, 4.000000, 4.000000, 4.000000, 4.000000, 4.000000
85.000000, 0.000000, 4133.333008, 4088.717773, 4202.563965, 4188.717773, 4206.666504, 4198.974121, 4198.461426, 4206.153809, 4215.897461, 4123.076660, 4204.102539, 4179.487305, 4168.205078, 4201.025391, 3440.000000, 8136.000000, 8166.000000, 0.000000, 0.000000, 0.000000, -21914.000000, 205.641022, 4.000000, 4.000000, 4.000000, 4.000000, 4.000000, 4.000000, 4.000000, 4.000000, 4.000000, 4.000000, 4.000000, 4.000000, 4.000000, 4.000000, 4.000000, 4.000000
86.000000, 0.000000, 4126.153809, 4083.076904, 4195.384277, 4183.076660, 4192.820313, 4200.000000, 4202.563965, 4205.127930, 4214.871582, 4110.769043, 4198.974121, 4175.384277, 4159.487305, 4194.871582, 3547.000000, 8136.000000, 8166.000000, 0.000000, 0.000000, 0.000000, -21914.000000, 213.333328, 4.000000, 4.000000, 4.000000, 4.000000, 4.000000, 4.000000, 4.000000, 4.000000, 4.000000, 4.000000, 4.000000, 4.000000, 4.000000, 4.000000, 4.000000, 4.000000
87.000000, 0.000000, 4128.717773, 4082.051270, 4198.974121, 4185.641113, 4205.641113, 4208.205078, 4209.230469, 4217.948730, 4218.974121, 4109.230469, 4195.897461, 4172.820313, 4158.974121, 4197.948730, 1093.000000, 8137.000000, 8172.000000, 0.000000, 0.000000, 0.000000, -21914.000000, 221.538452, 4.000000, 4.000000, 4.000000, 4.000000, 4.000000, 4.000000, 4.000000, 4.000000, 4.000000, 4.000000, 4.000000, 4.000000, 4.000000, 4.000000, 4.000000, 4.000000
88.000000, 0.000000, 4129.743652, 4081.538330, 4200.000000, 4187.179199, 4224.102539, 4213.333008, 4210.256348, 4214.871582, 4213.333008, 4107.179199, 4190.769043, 4167.692383, 4154.358887, 4193.846191, 3485.000000, 8137.000000, 8172.000000, 0.000000, 0.000000, 0.000000, -21914.000000, 229.230759, 4.000000, 4.000000, 4.000000, 4.000000, 4.000000, 4.000000, 4.000000, 4.000000, 4.000000, 4.000000, 4.000000, 4.000000, 4.000000, 4.000000, 4.000000, 4.000000
89.000000, 0.000000, 4120.512695, 4079.487061, 4190.769043, 4181.538574, 4215.897461, 4204.102539, 4203.589844, 4202.563965, 4204.615234, 4093.333252, 4184.102539, 4164.102539, 4142.051270, 4192.820313, 3440.000000, 8147.000000, 8186.000000, 0.000000, 0.000000, 0.000000, -21914.000000, 236.923065, 4.000000, 4.000000, 4.000000, 4.000000, 4.000000, 4.000000, 4.000000, 4.000000, 4.000000, 4.000000, 4.000000, 4.000000, 4.000000, 4.000000, 4.000000, 4.000000
90.000000, 0.000000, 4117.436035, 4075.897217, 4190.769043, 4180.512695, 4203.589844, 4198.461426, 4204.102539, 4211.281738, 4210.769043, 4086.666504, 4184.102539, 4163.589844, 4135.384277, 4195.897461, 3547.000000, 8147.000000, 8186.000000, 0.000000, 0.000000, 0.000000, -21914.000000, 244.615372, 4.000000, 4.000000, 4.000000, 4.000000, 4.000000, 4.000000, 4.000000, 4.000000, 4.000000, 4.000000, 4.000000, 4.000000, 4.000000, 4.000000, 4.000000, 4.000000
91.000000, 0.000000, 4126.153809, 4077.435791, 4197.436035, 4183.589844, 4212.307617, 4203.076660, 4210.769043, 4224.102539, 4221.025391, 4092.307617, 4188.717773, 4169.230469, 4140.512695, 4190.769043, 1093.000000, 8152.000000, 8188.000000, 0.000000, 0.000000, 0.000000, -21914.000000, 252.820511, 4.000000, 4.000000, 4.000000, 4.000000, 4.000000, 4.000000, 4.000000, 4.000000, 4.000000, 4.000000, 4.000000, 4.000000, 4.000000, 4.000000, 4.000000, 4.000000
92.000000, 0.000000, 4132.820313, 4084.102539, 4200.000000, 4185.641113, 4215.897461, 4203.076660, 4212.820313, 4216.922852, 4216.922852, 4088.205078, 4189.743652, 4176.922852, 4145.641113, 4197.948730, 3485.000000, 8152.000000, 8188.000000, 0.000000, 0.000000, 0.000000, -21914.000000, 260.512817, 4.000000, 4.000000, 4.000000, 4.000000, 4.000000, 4.000000, 4.000000, 4.000000, 4.000000, 4.000000, 4.000000, 4.000000, 4.000000, 4.000000, 4.000000, 4.000000
93.000000, 0.000000, 4127.179199, 4079.487061, 4194.871582, 4185.127930, 4205.641113, 4204.102539, 4208.205078, 4204.615234, 4206.153809, 4070.769043, 4183.076660, 4169.743652, 4137.436035, 4196.410156, 3440.000000, 8161.000000, 8200.000000, 0.000000, 0.000000, 0.000000, -21914.000000, 268.717957, 4.000000, 4.000000, 4.000000, 4.000000, 4.000000, 4.000000, 4.000000, 4.000000, 4.000000, 4.000000, 4.000000, 4.000000, 4.000000, 4.000000, 4.000000, 4.000000
94.000000, 0.000000, 4122.563965, 4076.923096, 4190.256348, 4184.102539, 4202.563965, 4204.615234, 4206.153809, 4200.512695, 4204.102539, 4057.948730, 4179.487305, 4161.025391, 4131.281738, 4193.846191, 3547.000000, 8161.000000, 8200.000000, 0.000000, 0.000000, 0.000000, -21914.000000, 276.410248, 4.000000, 4.000000, 4.000000, 4.000000, 4.000000, 4.000000, 4.000000, 4.000000, 4.000000, 4.000000, 4.000000, 4.000000, 4.000000, 4.000000, 4.000000, 4.000000
95.000000, 0.000000, 4127.179199, 4080.512695, 4193.333008, 4188.205078, 4211.794922, 4197.948730, 4204.102539, 4198.974121, 4203.589844, 4055.384521, 4185.127930, 4168.717773, 4134.871582, 4201.538574, 1093.000000, 8163.000000, 8197.000000, 0.000000, 0.000000, 0.000000, -21914.000000, 284.102570, 4.000000, 4.000000, 4.000000, 4.000000, 4.000000, 4.000000, 4.000000, 4.000000, 4.000000, 4.000000, 4.000000, 4.000000, 4.000000, 4.000000, 4.000000, 4.000000
96.000000, 0.000000, 4132.307617, 4079.487061, 4199.487305, 4195.897461, 4208.205078, 4196.922852, 4202.563965, 4202.563965, 4200.512695, 4056.923096, 4192.307617, 4176.922852, 4142.051270, 4198.461426, 3485.000000, 8163.000000, 8197.000000, 0.000000, 0.000000, 0.000000, -21914.000000, 291.794861, 4.000000, 4.000000, 4.000000, 4.000000, 4.000000, 4.000000, 4.000000, 4.000000, 4.000000, 4.000000, 4.000000, 4.000000, 4.000000, 4.000000, 4.000000, 4.000000
97.000000, 0.000000, 4132.307617, 4078.974365, 4198.974121, 4200.000000, 4195.384277, 4202.563965, 4204.615234, 4212.820313, 4207.692383, 4049.230713, 4192.820313, 4178.461426, 4147.179199, 4202.051270, 3440.000000, 8163.000000, 8195.000000, 0.000000, 0.000000, 0.000000, -21914.000000, 300.000000, 4.000000, 4.000000, 4.000000, 4.000000, 4.000000, 4.000000, 4.000000, 4.000000, 4.000000, 4.000000, 4.000000, 4.000000, 4.000000, 4.000000, 4.000000, 4.000000
98.000000, 0.000000, 4132.820313, 4080.512695, 4194.358887, 4202.051270, 4206.153809, 4204.615234, 4205.641113, 4216.410156, 4214.358887, 4035.897217, 4188.205078, 4178.461426, 4146.666504, 4202.051270, 3547.000000, 8163.000000, 8195.000000, 0.000000, 0.000000, 0.000000, -21914.000000, 307.692291, 4.000000, 4.000000, 4.000000, 4.000000, 4.000000, 4.000000, 4.000000, 4.000000, 4.000000, 4.000000, 4.000000, 4.000000, 4.000000, 4.000000, 4.000000, 4.000000
99.000000, 0.000000, 4141.025391, 4084.102539, 4201.538574, 4204.102539, 4220.512695, 4203.589844, 4207.692383, 4208.205078, 4207.179199, 4033.333252, 4192.307617, 4177.948730, 4145.641113, 4202.051270, 1093.000000, 8169.000000, 8193.000000, 0.000000, 0.000000, 0.000000, -21914.000000, 315.897430, 4.000000, 4.000000, 4.000000, 4.000000, 4.000000, 4.000000, 4.000000, 4.000000, 4.000000, 4.000000, 4.000000, 4.000000, 4.000000, 4.000000, 4.000000, 4.000000
100.000000, 0.000000, 4142.563965, 4087.179443, 4205.127930, 4203.589844, 4219.487305, 4203.589844, 4205.127930, 4202.563965, 4203.076660, 4038.974365, 4197.948730, 4176.410156, 4147.692383, 4208.717773, 3485.000000, 8169.000000, 8193.000000, 0.000000, 0.000000, 0.000000, -21914.000000, 323.589722, 4.000000, 4.000000, 4.000000, 4.000000, 4.000000, 4.000000, 4.000000, 4.000000, 4.000000, 4.000000, 4.000000, 4.000000, 4.000000, 4.000000, 4.000000, 4.000000
101.000000, 0.000000, 4136.922852, 4084.102539, 4192.820313, 4200.512695, 4214.871582, 4202.563965, 4195.897461, 4200.512695, 4205.127930, 4047.179443, 4194.871582, 4171.794922, 4151.794922, 4199.487305, 3440.000000, 8171.000000, 8192.000000, 0.000000, 0.000000, 0.000000, -21914.000000, 331.794861, 4.000000, 4.000000, 4.000000, 4.000000, 4.000000, 4.000000, 4.000000, 4.000000, 4.000000, 4.000000, 4.000000, 4.000000, 4.000000, 4.000000, 4.000000, 4.000000
102.000000, 0.000000, 4139.487305, 4083.076904, 4187.692383, 4199.487305, 4214.358887, 4198.974121, 4194.358887, 4197.948730, 4204.102539, 4056.410156, 4194.358887, 4171.281738, 4151.281738, 4201.025391, 3547.000000, 8171.000000, 8192.000000, 0.000000, 0.000000, 0.000000, -21914.000000, 339.487183, 4.000000, 4.000000, 4.000000, 4.000000, 4.000000, 4.000000, 4.000000, 4.000000, 4.000000, 4.000000, 4.000000, 4.000000, 4.000000, 4.000000, 4.000000, 4.000000
103.000000, 0.000000, 4145.127930, 4085.128174, 4197.436035, 4201.025391, 4217.948730, 4201.538574, 4202.563965, 4197.436035, 4206.666504, 4073.333252, 4203.076660, 4178.974121, 4153.846191, 4204.102539, 1093.000000, 8174.000000, 8201.000000, 0.000000, 0.000000, 0.000000, -21914.000000, 347.179474, 4.000000, 4.000000, 4.000000, 4.000000, 4.000000, 4.000000, 4.000000, 4.000000, 4.000000, 4.000000, 4.000000, 4.000000, 4.000000, 4.000000, 4.000000, 4.000000
104.000000, 0.000000, 4146.666504, 4086.153809, 4204.102539, 4205.127930, 4221.538574, 4204.615234, 4206.153809, 4202.563965, 4213.333008, 4101.538574, 4206.153809, 4185.641113, 4158.461426, 4202.051270, 3485.000000, 8174.000000, 8201.000000, 0.000000, 0.000000, 0.000000, -21914.000000, 354.871796, 4.000000, 4.000000, 4.000000, 4.000000, 4.000000, 4.000000, 4.000000, 4.000000, 4.000000, 4.000000, 4.000000, 4.000000, 4.000000, 4.000000, 4.000000, 4.000000
105.000000, 0.000000, 4142.563965, 4085.640869, 4199.487305, 4202.563965, 4214.358887, 4203.589844, 4205.641113, 4212.307617, 4214.871582, 4120.512695, 4200.512695, 4182.051270, 4154.358887, 4207.179199, 3440.000000, 8177.000000, 8216.000000, 0.000000, 0.000000, 0.000000, -21914.000000, 363.076904, 4.000000, 4.000000, 4.000000, 4.000000, 4.000000, 4.000000, 4.000000, 4.000000, 4.000000, 4.000000, 4.000000, 4.000000, 4.000000, 4.000000, 4.000000, 4.000000
106.000000, 0.000000, 4138.974121, 4084.102539, 4194.871582, 4200.512695, 4207.692383, 4202.563965, 4206.666504, 4216.410156, 4214.358887, 4129.230469, 4199.487305, 4177.948730, 4149.743652, 4201.538574, 3547.000000, 8177.000000, 8216.000000, 0.000000, 0.000000, 0.000000, -21914.000000, 370.769226, 4.000000, 4.000000, 4.000000, 4.000000, 4.000000, 4.000000, 4.000000, 4.000000, 4.000000, 4.000000, 4.000000, 4.000000, 4.000000, 4.000000, 4.000000, 4.000000
107.000000, 0.000000, 4142.563965, 4085.640869, 4196.410156, 4207.179199, 4216.410156, 4203.076660, 4208.717773, 4217.436035, 4215.384277, 4151.281738, 4202.563965, 4180.512695, 4151.281738, 4206.153809, 1093.000000, 8179.000000, 8221.000000, 0.000000, 0.000000, 0.000000, -21914.000000, 378.974335, 4.000000, 4.000000, 4.000000, 4.000000, 4.000000, 4.000000, 4.000000, 4.000000, 4.000000, 4.000000, 4.000000, 4.000000, 4.000000, 4.000000, 4.000000, 4.000000
108.000000, 0.000000, 4146.666504, 4082.051270, 4198.974121, 4209.230469, 4217.436035, 4202.563965, 4207.179199, 4223.589844, 4217.948730, 4169.743652, 4204.102539, 4182.051270, 4154.358887, 4210.256348, 3485.000000, 8179.000000, 8221.000000, 0.000000, 0.000000, 0.000000, -21914.000000, 386.666656, 4.000000, 4.000000, 4.000000, 4.000000, 4.000000, 4.000000, 4.000000, 4.000000, 4.000000, 4.000000, 4.000000, 4.000000, 4.000000, 4.000000, 4.000000, 4.000000
109.000000, 0.000000, 4148.205078, 4080.000000, 4202.563965, 4204.102539, 4202.051270, 4202.051270, 4203.589844, 4223.589844, 4222.051270, 4168.205078, 4204.102539, 4184.102539, 4155.384277, 4202.051270, 3440.000000, 8186.000000, 8234.000000, 0.000000, 0.000000, 0.000000, -21914.000000, 394.358978, 4.000000, 4.000000, 4.000000, 4.000000, 4.000000, 4.000000, 4.000000, 4.000000, 4.000000, 4.000000, 4.000000, 4.000000, 4.000000, 4.000000, 4.000000, 4.000000
110.000000, 0.000000, 4146.153809, 4081.025635, 4202.563965, 4203.076660, 4195.897461, 4200.512695, 4204.102539, 4211.794922, 4214.871582, 4165.641113, 4201.025391, 4185.641113, 4149.230469, 4203.076660, 3547.000000, 8186.000000, 8234.000000, 0.000000, 0.000000, 0.000000, -21914.000000, 402.051270, 4.000000, 4.000000, 4.000000, 4.000000, 4.000000, 4.000000, 4.000000, 4.000000, 4.000000, 4.000000, 4.000000, 4.000000, 4.000000, 4.000000, 4.000000, 4.000000
111.000000, 0.000000, 4142.563965, 4076.410156, 4198.461426, 4201.538574, 4201.538574, 4197.436035, 4205.641113, 4204.102539, 4208.205078, 4173.333008, 4198.974121, 4183.589844, 4143.076660, 4198.974121, 1093.000000, 8186.000000, 8233.000000, 0.000000, 0.000000, 0.000000, -21914.000000, 410.256409, 4.000000, 4.000000, 4.000000, 4.000000, 4.000000, 4.000000, 4.000000, 4.000000, 4.000000, 4.000000, 4.000000, 4.000000, 4.000000, 4.000000, 4.000000, 4.000000
112.000000, 0.000000, 4142.051270, 4076.923096, 4199.487305, 4199.487305, 4197.436035, 4197.948730, 4205.127930, 4203.589844, 4211.281738, 4178.974121, 4200.512695, 4185.641113, 4145.641113, 4203.076660, 3485.000000, 8186.000000, 8233.000000, 0.000000, 0.000000, 0.000000, -21914.000000, 417.948700, 4.000000, 4.000000, 4.000000, 4.000000, 4.000000, 4.000000, 4.000000, 4.000000, 4.000000, 4.000000, 4.000000, 4.000000, 4.000000, 4.000000, 4.000000, 4.000000
113.000000, 0.000000, 4143.076660, 4079.487061, 4199.487305, 4201.025391, 4194.871582, 4200.000000, 4202.563965, 4207.179199, 4218.461426, 4184.615234, 4206.666504, 4192.307617, 4152.820313, 4201.538574, 3440.000000, 8206.000000, 8222.000000, 0.000000, 0.000000, 0.000000, -21914.000000, 426.153839, 4.000000, 4.000000, 4.000000, 4.000000, 4.000000, 4.000000, 4.000000, 4.000000, 4.000000, 4.000000, 4.000000, 4.000000, 4.000000, 4.000000, 4.000000, 4.000000
114.000000, 0.000000, 4150.769043, 4081.538330, 4202.051270, 4202.563965, 4208.717773, 4203.076660, 4207.179199, 4217.436035, 4219.487305, 4193.333008, 4216.410156, 4196.922852, 4156.410156, 4192.820313, 3547.000000, 8206.000000, 8222.000000, 0.000000, 0.000000, 0.000000, -21914.000000, 433.846130, 4.000000, 4.000000, 4.000000, 4.000000, 4.000000, 4.000000, 4.000000, 4.000000, 4.000000, 4.000000, 4.000000, 4.000000, 4.000000, 4.000000, 4.000000, 4.000000
115.000000, 0.000000, 4157.948730, 4084.615234, 4212.820313, 4203.589844, 4217.436035, 4203.589844, 4206.153809, 4214.358887, 4211.281738, 4196.410156, 4215.384277, 4198.461426, 4155.897461, 4200.000000, 1093.000000, 8215.000000, 8207.000000, 0.000000, 0.000000, 0.000000, -21914.000000, 441.538452, 4.000000, 4.000000, 4.000000, 4.000000, 4.000000, 4.000000, 4.000000, 4.000000, 4.000000, 4.000000, 4.000000, 4.000000, 4.000000, 4.000000, 4.000000, 4.000000
116.000000, 0.000000, 4157.436035, 4084.615234, 4214.871582, 4207.692383, 4211.281738, 4201.538574, 4197.436035, 4204.615234, 4211.281738, 4198.974121, 4206.666504, 4196.410156, 4157.436035, 4197.948730, 3485.000000, 8215.000000, 8207.000000, 0.000000, 0.000000, 0.000000, -21914.000000, 449.743591, 4.000000, 4.000000, 4.000000, 4.000000, 4.000000, 4.000000, 4.000000, 4.000000, 4.000000, 4.000000, 4.000000, 4.000000, 4.000000, 4.000000, 4.000000, 4.000000
117.000000, 0.000000, 4153.846191, 4084.615234, 4203.589844, 4205.127930, 4203.589844, 4201.025391, 4203.076660, 4208.717773, 4215.897461, 4201.025391, 4202.051270, 4190.256348, 4153.333008, 4198.461426, 3440.000000, 8225.000000, 8194.000000, 0.000000, 0.000000, 0.000000, -21914.000000, 457.435883, 4.000000, 4.000000, 4.000000, 4.000000, 4.000000, 4.000000, 4.000000, 4.000000, 4.000000, 4.000000, 4.000000, 4.000000, 4.000000, 4.000000, 4.000000, 4.000000
118.000000, 0.000000, 4145.641113, 4080.512695, 4196.922852, 4196.922852, 4200.512695, 4197.436035, 4207.692383, 4210.256348, 4207.692383, 4199.487305, 4196.410156, 4182.051270, 4142.051270, 4197.436035, 3547.000000, 8225.000000, 8194.000000, 0.000000, 0.000000, 0.000000, -21914.000000, 465.128204, 4.000000, 4.000000, 4.000000, 4.000000, 4.000000, 4.000000, 4.000000, 4.000000, 4.000000, 4.000000, 4.000000, 4.000000, 4.000000, 4.000000, 4.000000, 4.000000
119.000000, 0.000000, 4142.051270, 4078.974365, 4196.410156, 4198.461426, 4197.436035, 4195.384277, 4200.512695, 4205.641113, 4199.487305, 4203.589844, 4193.333008, 4175.897461, 4141.025391, 4192.307617, 1093.000000, 8239.000000, 8185.000000, 0.000000, 0.000000, 0.000000, -21914.000000, 473.333313, 4.000000, 4.000000, 4.000000, 4.000000, 4.000000, 4.000000, 4.000000, 4.000000, 4.000000, 4.000000, 4.000000, 4.000000, 4.000000, 4.000000, 4.000000, 4.000000
120.000000, 0.000000, 4145.127930, 4080.512695, 4194.358887, 4201.025391, 4196.922852, 4196.410156, 4197.948730, 4206.666504, 4205.641113, 4207.179199, 4194.358887, 4177.948730, 4147.179199, 4200.512695, 3485.000000, 8239.000000, 8185.000000, 0.000000, 0.000000, 0.000000, -21914.000000, 481.025635, 4.000000, 4.000000, 4.000000, 4.000000, 4.000000, 4.000000, 4.000000, 4.000000, 4.000000, 4.000000, 4.000000, 4.000000, 4.000000, 4.000000, 4.000000, 4.000000
121.000000, 0.000000, 4147.179199, 4078.974365, 4192.820313, 4198.461426, 4198.974121, 4191.281738, 4198.974121, 4201.025391, 4205.127930, 4204.102539, 4193.333008, 4176.922852, 4149.743652, 4194.871582, 3440.000000, 8254.000000, 8180.000000, 0.000000, 0.000000, 0.000000, -21914.000000, 488.717926, 4.000000, 4.000000, 4.000000, 4.000000, 4.000000, 4.000000, 4.000000, 4.000000, 4.000000, 4.000000, 4.000000, 4.000000, 4.000000, 4.000000, 4.000000, 4.000000
122.000000, 0.000000, 4151.794922, 4084.102539, 4200.512695, 4201.538574, 4200.000000, 4189.743652, 4201.025391, 4191.794922, 4197.436035, 4206.153809, 4191.794922, 4177.436035, 4146.153809, 4194.358887, 3547.000000, 8254.000000, 8180.000000, 0.000000, 0.000000, 0.000000, -21914.000000, 496.923065, 4.000000, 4.000000, 4.000000, 4.000000, 4.000000, 4.000000, 4.000000, 4.000000, 4.000000, 4.000000, 4.000000, 4.000000, 4.000000, 4.000000, 4.000000, 4.000000
123.000000, 0.000000, 4145.127930, 4080.512695, 4201.025391, 4196.922852, 4196.922852, 4199.487305, 4203.076660, 4198.461426, 4200.000000, 4209.230469, 4183.076660, 4179.487305, 4125.127930, 4195.897461, 1093.000000, 8268.000000, 8183.000000, 0.000000, 0.000000, 0.000000, -21914.000000, 504.615387, 4.000000, 4.000000, 4.000000, 4.000000, 4.000000, 4.000000, 4.000000, 4.000000, 4.000000, 4.000000, 4.000000, 4.000000, 4.000000, 4.000000, 4.000000, 4.000000
124.000000, 0.000000, 4135.897461, 4067.179443, 4189.743652, 4185.127930, 4195.384277, 4204.615234, 4200.512695, 4203.076660, 4200.000000, 4210.256348, 4176.410156, 4175.384277, 4114.358887, 4189.230469, 3485.000000, 8268.000000, 8183.000000, 0.000000, 0.000000, 0.000000, -21914.000000, 512.820496, 4.000000, 4.000000, 4.000000, 4.000000, 4.000000, 4.000000, 4.000000, 4.000000, 4.000000, 4.000000, 4.000000, 4.000000, 4.000000, 4.000000, 4.000000, 4.000000
125.000000, 0.000000, 4147.692383, 4075.384521, 4188.717773, 4190.256348, 4198.974121, 4200.512695, 4199.487305, 4196.410156, 4196.922852, 4220.000000, 4190.769043, 4174.871582, 4142.051270, 4201.025391, 3440.000000, 8271.000000, 8178.000000, 0.000000, 0.000000, 0.000000, -21914.000000, 520.512817, 4.000000, 4.000000, 4.000000, 4.000000, 4.000000, 4.000000, 4.000000, 4.000000, 4.000000, 4.000000, 4.000000, 4.000000, 4.000000, 4.000000, 4.000000, 4.000000
126.000000, 0.000000, 4164.102539, 4083.589600, 4199.487305, 4204.615234, 4202.563965, 4193.846191, 4199.487305, 4201.538574, 4206.153809, 4237.948730, 4207.179199, 4184.102539, 4166.153809, 4203.589844, 3547.000000, 8271.000000, 8178.000000, 0.000000, 0.000000, 0.000000, -21914.000000, 528.205139, 4.000000, 4.000000, 4.000000, 4.000000, 4.000000, 4.000000, 4.000000, 4.000000, 4.000000, 4.000000, 4.000000, 4.000000, 4.000000, 4.000000, 4.000000, 4.000000
127.000000, 0.000000, 4163.076660, 4074.358887, 4202.051270, 4201.025391, 4200.000000, 4189.743652, 4194.871582, 4206.666504, 4214.871582, 4245.127930, 4204.615234, 4190.256348, 4164.102539, 4199.487305, 54.000000, 8283.000000, 8178.000000, 0.000000, 0.000000, 0.000000, -21914.000000, 536.410217, 4.000000, 4.000000, 4.000000, 4.000000, 4.000000, 4.000000, 4.000000, 4.000000, 4.000000, 4.000000, 4.000000, 4.000000, 4.000000, 4.000000, 4.000000, 4.000000
0.000000, 0.000000, 4156.410156, 4071.281982, 4198.461426, 4195.897461, 4198.461426, 4194.871582, 4194.871582, 4201.025391, 4212.307617, 4242.051270, 4206.666504, 4186.153809, 4171.794922, 4204.102539, 3348.000000, 8283.000000, 8178.000000, 0.000000, 0.000000, 0.000000, -21914.000000, 544.615356, 4.000000, 4.000000, 4.000000, 4.000000, 4.000000, 4.000000, 4.000000, 4.000000, 4.000000, 4.000000, 4.000000, 4.000000, 4.000000, 4.000000, 4.000000, 4.000000
1.000000, 0.000000, 4162.563965, 4075.897217, 4202.051270, 4201.538574, 4201.025391, 4201.538574, 4201.025391, 4202.051270, 4212.307617, 4245.641113, 4220.512695, 4185.641113, 4191.794922, 4200.000000, 3521.000000, 8286.000000, 8173.000000, 0.000000, 0.000000, 0.000000, -21914.000000, 552.307678, 4.000000, 4.000000, 4.000000, 4.000000, 4.000000, 4.000000, 4.000000, 4.000000, 4.000000, 4.000000, 4.000000, 4.000000, 4.000000, 4.000000, 4.000000, 4.000000
2.000000, 0.000000, 4164.615234, 4070.769043, 4202.051270, 4198.974121, 4201.538574, 4200.000000, 4205.641113, 4207.692383, 4217.948730, 4248.205078, 4219.487305, 4189.230469, 4189.230469, 4198.974121, 2746.000000, 8286.000000, 8173.000000, 0.000000, 0.000000, 0.000000, -21914.000000, 560.000000, 4.000000, 4.000000, 4.000000, 4.000000, 4.000000, 4.000000, 4.000000, 4.000000, 4.000000, 4.000000, 4.000000, 4.000000, 4.000000, 4.000000, 4.000000, 4.000000
3.000000, 0.000000, 4154.358887, 4061.025635, 4197.436035, 4189.743652, 4189.743652, 4198.461426, 4203.589844, 4207.179199, 4213.846191, 4250.769043, 4210.769043, 4188.205078, 4175.897461, 4192.820313, 2025.000000, 8286.000000, 8167.000000, 0.000000, 0.000000, 0.000000, -21914.000000, 568.205139, 4.000000, 4.000000, 4.000000, 4.000000, 4.000000, 4.000000, 4.000000, 4.000000, 4.000000, 4.000000, 4.000000, 4.000000, 4.000000, 4.000000, 4.000000, 4.000000
4.000000, 0.000000, 4151.281738, 4058.974365, 4197.948730, 4183.589844, 4174.358887, 4189.743652, 4199.487305, 4202.051270, 4206.153809, 4250.769043, 4211.281738, 4182.051270, 4171.281738, 4191.281738, 3528.000000, 8286.000000, 8167.000000, 0.000000, 0.000000, 0.000000, -21914.000000, 575.897400, 4.000000, 4.000000, 4.000000, 4.000000, 4.000000, 4.000000, 4.000000, 4.000000, 4.000000, 4.000000, 4.000000, 4.000000, 4.000000, 4.000000, 4.000000, 4.000000
5.000000, 0.000000, 4154.358887, 4059.487061, 4199.487305, 4182.563965, 4180.512695, 4184.102539, 4201.538574, 4202.051270, 4211.794922, 4242.563965, 4212.820313, 4178.974121, 4172.307617, 4198.974121, 3541.000000, 8287.000000, 8167.000000, 0.000000, 0.000000, 0.000000, -21914.000000, 584.102539, 4.000000, 4.000000, 4.000000, 4.000000, 4.000000, 4.000000, 4.000000, 4.000000, 4.000000, 4.000000, 4.000000, 4.000000, 4.000000, 4.000000, 4.000000, 4.000000
6.000000, 0.000000, 4155.897461, 4055.384521, 4196.410156, 4185.127930, 4193.846191, 4194.358887, 4202.051270, 4207.692383, 4215.897461, 4234.358887, 4207.692383, 4180.512695, 4173.333008, 4195.384277, 2905.000000, 8287.000000, 8167.000000, 0.000000, 0.000000, 0.000000, -21914.000000, 591.794861, 4.000000, 4.000000, 4.000000, 4.000000, 4.000000, 4.000000, 4.000000, 4.000000, 4.000000, 4.000000, 4.000000, 4.000000, 4.000000, 4.000000, 4.000000, 4.000000
7.000000, 0.000000, 4151.794922, 4054.871582, 4190.256348, 4180.000000, 4189.230469, 4195.897461, 4197.948730, 4201.538574, 4204.102539, 4229.743652, 4201.538574, 4180.512695, 4168.205078, 4199.487305, 3512.000000, 8279.000000, 8163.000000, 0.000000, 0.000000, 0.000000, -21914.000000, 599.487183, 4.000000, 4.000000, 4.000000, 4.000000, 4.000000, 4.000000, 4.000000, 4.000000, 4.000000, 4.000000, 4.000000, 4.000000, 4.000000, 4.000000, 4.000000, 4.000000
8.000000, 0.000000, 4148.717773, 4052.307617, 4185.127930, 4172.307617, 4182.563965, 4185.641113, 4197.948730, 4188.717773, 4197.436035, 4227.692383, 4200.512695, 4177.436035, 4161.538574, 4197.948730, 3517.000000, 8279.000000, 8163.000000, 0.000000, 0.000000, 0.000000, -21914.000000, 607.692322, 4.000000, 4.000000, 4.000000, 4.000000, 4.000000, 4.000000, 4.000000, 4.000000, 4.000000, 4.000000, 4.000000, 4.000000, 4.000000, 4.000000, 4.000000, 4.000000
9.000000, 0.000000, 4149.743652, 4049.230713, 4186.153809, 4174.871582, 4186.153809, 4185.127930, 4204.615234, 4192.820313, 4202.051270, 4226.666504, 4201.025391, 4177.948730, 4158.461426, 4192.307617, 3541.000000, 8267.000000, 8154.000000, 0.000000, 0.000000, 0.000000, -21914.000000, 615.384583, 4.000000, 4.000000, 4.000000, 4.000000, 4.000000, 4.000000, 4.000000, 4.000000, 4.000000, 4.000000, 4.000000, 4.000000, 4.000000, 4.000000, 4.000000, 4.000000
10.000000, 0.000000, 4149.230469, 4054.358887, 4193.846191, 4181.538574, 4186.666504, 4186.666504, 4210.769043, 4199.487305, 4200.000000, 4227.692383, 4198.974121, 4183.076660, 4153.846191, 4197.948730, 3548.000000, 8267.000000, 8154.000000, 0.000000, 0.000000, 0.000000, -21914.000000, 623.076904, 4.000000, 4.000000, 4.000000, 4.000000, 4.000000, 4.000000, 4.000000, 4.000000, 4.000000, 4.000000, 4.000000, 4.000000, 4.000000, 4.000000, 4.000000, 4.000000
11.000000, 0.000000, 4154.871582, 4058.974365, 4200.000000, 4184.102539, 4184.102539, 4183.076660, 4211.794922, 4198.974121, 4197.436035, 4228.205078, 4199.487305, 4186.666504, 4154.358887, 4194.871582, 1094.000000, 8255.000000, 8148.000000, 0.000000, 0.000000, 0.000000, -21914.000000, 630.769226, 4.000000, 4.000000, 4.000000, 4.000000, 4.000000, 4.000000, 4.000000, 4.000000, 4.000000, 4.000000, 4.000000, 4.000000, 4.000000, 4.000000, 4.000000, 4.000000
12.000000, 0.000000, 4165.641113, 4060.512695, 4205.127930, 4187.179199, 4185.641113, 4184.102539, 4207.692383, 4200.512695, 4201.025391, 4230.256348, 4207.692383, 4193.846191, 4163.589844, 4197.948730, 3482.000000, 8255.000000, 8148.000000, 0.000000, 0.000000, 0.000000, -21914.000000, 638.974365, 4.000000, 4.000000, 4.000000, 4.000000, 4.000000, 4.000000, 4.000000, 4.000000, 4.000000, 4.000000, 4.000000, 4.000000, 4.000000, 4.000000, 4.000000, 4.000000
13.000000, 0.000000, 4165.641113, 4056.410156, 4208.205078, 4190.256348, 4185.641113, 4185.641113, 4198.974121, 4195.384277, 4201.538574, 4229.743652, 4211.281738, 4198.461426, 4169.230469, 4198.461426, 3433.000000, 8243.000000, 8149.000000, 0.000000, 0.000000, 0.000000, -21914.000000, 647.179443, 4.000000, 4.000000, 4.000000, 4.000000, 4.000000, 4.000000, 4.000000, 4.000000, 4.000000, 4.000000, 4.000000, 4.000000, 4.000000, 4.000000, 4.000000, 4.000000
14.000000, 0.000000, 4160.000000, 4057.435791, 4204.102539, 4187.692383, 4187.179199, 4183.589844, 4196.922852, 4190.769043, 4206.153809, 4228.717773, 4209.743652, 4193.846191, 4168.717773, 4194.358887, 3548.000000, 8243.000000, 8149.000000, 0.000000, 0.000000, 0.000000, -21914.000000, 654.871765, 4.000000, 4.000000, 4.000000, 4.000000, 4.000000, 4.000000, 4.000000, 4.000000, 4.000000, 4.000000, 4.000000, 4.000000, 4.000000, 4.000000, 4.000000, 4.000000
15.000000, 0.000000, 4161.538574, 4064.102539, 4199.487305, 4186.666504, 4189.230469, 4188.717773, 4204.615234, 4206.153809, 4216.410156, 4235.384277, 4212.820313, 4188.205078, 4170.769043, 4202.051270, 1094.000000, 8222.000000, 8143.000000, 0.000000, 0.000000, 0.000000, -21914.000000, 662.564087, 4.000000, 4.000000, 4.000000, 4.000000, 4.000000, 4.000000, 4.000000, 4.000000, 4.000000, 4.000000, 4.000000, 4.000000, 4.000000, 4.000000, 4.000000, 4.000000
16.000000, 0.000000, 4165.127930, 4063.589600, 4197.436035, 4188.205078, 4185.641113, 4197.436035, 4212.820313, 4224.102539, 4218.974121, 4238.974121, 4214.871582, 4182.563965, 4172.307617, 4197.948730, 0.000000, 8222.000000, 8143.000000, 0.000000, 0.000000, 0.000000, -21914.000000, 670.256409, 4.000000, 4.000000, 4.000000, 4.000000, 4.000000, 4.000000, 4.000000, 4.000000, 4.000000, 4.000000, 4.000000, 4.000000, 4.000000, 4.000000, 4.000000, 4.000000
17.000000, 0.000000, 4165.127930, 4061.025635, 4195.384277, 4190.769043, 4189.743652, 4200.000000, 4218.974121, 4220.000000, 4213.846191, 4233.846191, 4209.230469, 4180.512695, 4168.717773, 4196.922852, 0.000000, 8212.000000, 8131.000000, 0.000000, 0.000000, 0.000000, -21914.000000, 678.461548, 4.000000, 4.000000, 4.000000, 4.000000, 4.000000, 4.000000, 4.000000, 4.000000, 4.000000, 4.000000, 4.000000, 4.000000, 4.000000, 4.000000, 4.000000, 4.000000
18.000000, 0.000000, 4164.102539, 4061.025635, 4195.384277, 4195.384277, 4200.512695, 4200.512695, 4222.563965, 4211.281738, 4214.358887, 4234.871582, 4212.307617, 4184.615234, 4168.205078, 4201.025391, 0.000000, 8212.000000, 8131.000000, 0.000000, 0.000000, 0.000000, -21914.000000, 686.153809, 4.000000, 4.000000, 4.000000, 4.000000, 4.000000, 4.000000, 4.000000, 4.000000, 4.000000, 4.000000, 4.000000, 4.000000, 4.000000, 4.000000, 4.000000, 4.000000
19.000000, 0.000000, 4170.769043, 4069.230713, 4202.563965, 4202.563965, 4206.666504, 4211.794922, 4223.589844, 4222.051270, 4226.153809, 4247.692383, 4228.205078, 4199.487305, 4182.563965, 4199.487305, 0.000000, 8186.000000, 8131.000000, 0.000000, 0.000000, 0.000000, -21914.000000, 694.358948, 4.000000, 4.000000, 4.000000, 4.000000, 4.000000, 4.000000, 4.000000, 4.000000, 4.000000, 4.000000, 4.000000, 4.000000, 4.000000, 4.000000, 4.000000, 4.000000
20.000000, 0.000000, 4175.384277, 4074.358887, 4207.179199, 4199.487305, 4207.179199, 4218.974121, 4222.563965, 4234.358887, 4233.846191, 4254.871582, 4236.410156, 4206.153809, 4200.512695, 4204.102539, 0.000000, 8186.000000, 8131.000000, 0.000000, 0.000000, 0.000000, -21914.000000, 702.051270, 4.000000, 4.000000, 4.000000, 4.000000, 4.000000, 4.000000, 4.000000, 4.000000, 4.000000, 4.000000, 4.000000, 4.000000, 4.000000, 4.000000, 4.000000, 4.000000
21.000000, 0.000000, 4168.717773, 4065.640869, 4201.025391, 4189.743652, 4206.153809, 4208.205078, 4217.948730, 4221.538574, 4226.153809, 4247.692383, 4233.333008, 4200.000000, 4199.487305, 4197.948730, 0.000000, 8184.000000, 8124.000000, 0.000000, 0.000000, 0.000000, -21914.000000, 710.256409, 4.000000, 4.000000, 4.000000, 4.000000, 4.000000, 4.000000, 4.000000, 4.000000, 4.000000, 4.000000, 4.000000, 4.000000, 4.000000, 4.000000, 4.000000, 4.000000
22.000000, 0.000000, 4165.127930, 4063.076904, 4200.512695, 4190.769043, 4203.589844, 4197.436035, 4210.256348, 4200.512695, 4215.384277, 4242.563965, 4228.205078, 4199.487305, 4186.666504, 4197.436035, 0.000000, 8184.000000, 8124.000000, 0.000000, 0.000000, 0.000000, -21914.000000, 717.948730, 4.000000, 4.000000, 4.000000, 4.000000, 4.000000, 4.000000, 4.000000, 4.000000, 4.000000, 4.000000, 4.000000, 4.000000, 4.000000, 4.000000, 4.000000, 4.000000
23.000000, 0.000000, 4171.794922, 4068.717773, 4208.205078, 4195.897461, 4202.563965, 4199.487305, 4201.538574, 4200.000000, 4210.769043, 4244.615234, 4228.205078, 4202.563965, 4185.127930, 4202.051270, 0.000000, 8164.000000, 8108.000000, 0.000000, 0.000000, 0.000000, -21914.000000, 725.640991, 4.000000, 4.000000, 4.000000, 4.000000, 4.000000, 4.000000, 4.000000, 4.000000, 4.000000, 4.000000, 4.000000, 4.000000, 4.000000, 4.000000, 4.000000, 4.000000
24.000000, 0.000000, 4175.384277, 4071.281982, 4208.717773, 4193.333008, 4204.102539, 4201.025391, 4199.487305, 4206.153809, 4212.820313, 4243.076660, 4233.333008, 4204.102539, 4190.256348, 4196.410156, 0.000000, 8164.000000, 8108.000000, 0.000000, 0.000000, 0.000000, -21914.000000, 733.333313, 4.000000, 4.000000, 4.000000, 4.000000, 4.000000, 4.000000, 4.000000, 4.000000, 4.000000, 4.000000, 4.000000, 4.000000, 4.000000, 4.000000, 4.000000, 4.000000
