title:neutral11, recorded:17.05.18 21.43.21, timestamp started:2018-05-12T20:28:52.032863+02:00            , sampling:128, subject:Noé, labels:COUNTER INTERPOLATED AF3 F7 F3 FC5 T7 P7 O1 O2 P8 T8 FC6 F4 F8 AF4 RAW_CQ GYROX GYROY MARKER MARKER_HARDWARE SYNC TIME_STAMP_s TIME_STAMP_ms CQ_AF3 CQ_F7 CQ_F3 CQ_FC5 CQ_T7 CQ_P7 CQ_O1 CQ_O2 CQ_P8 CQ_T8 CQ_FC6 CQ_F4 CQ_F8 CQ_AF4 CQ_CMS CQ_DRL, chan:40, samples:2764, units:emotiv
73.000000, 0.000000, 4173.846191, 4057.435791, 4175.897461, 4195.384277, 4186.666504, 4183.589844, 4187.179199, 4173.333008, 4185.127930, 4178.461426, 4184.102539, 4153.846191, 4187.179199, 4190.256348, 3539.000000, 8192.000000, 8169.000000, 0.000000, 0.000000, 0.000000, -22283.000000, 958.974365, 4.000000, 4.000000, 4.000000, 4.000000, 4.000000, 4.000000, 4.000000, 4.000000, 4.000000, 4.000000, 4.000000, 4.000000, 4.000000, 4.000000, 4.000000, 4.000000
74.000000, 0.000000, 4174.871582, 4052.307617, 4184.615234, 4198.461426, 4187.692383, 4185.641113, 4192.307617, 4181.538574, 4186.666504, 4180.512695, 4184.102539, 4156.922852, 4186.153809, 4194.358887, 3542.000000, 8192.000000, 8169.000000, 0.000000, 0.000000, 0.000000, -22283.000000, 966.666626, 4.000000, 4.000000, 4.000000, 4.000000, 4.000000, 4.000000, 4.000000, 4.000000, 4.000000, 4.000000, 4.000000, 4.000000, 4.000000, 4.000000, 4.000000, 4.000000
75.000000, 0.000000, 4171.794922, 4038.974365, 4191.281738, 4190.769043, 4189.743652, 4195.384277, 4197.436035, 4196.410156, 4188.205078, 4181.025391, 4172.820313, 4157.948730, 4158.461426, 4186.666504, 1470.000000, 8198.000000, 8176.000000, 0.000000, 0.000000, 0.000000, -22283.000000, 974.871765, 4.000000, 4.000000, 4.000000, 4.000000, 4.000000, 4.000000, 4.000000, 4.000000, 4.000000, 4.000000, 4.000000, 4.000000, 4.000000, 4.000000, 4.000000, 4.000000
76.000000, 0.000000, 4169.230469, 4034.871582, 4189.743652, 4190.769043, 4184.102539, 4194.871582, 4194.358887, 4202.051270, 4190.769043, 4183.589844, 4176.922852, 4161.025391, 4158.974121, 4189.743652, 3250.000000, 8198.000000, 8176.000000, 0.000000, 0.000000, 0.000000, -22283.000000, 982.564087, 4.000000, 4.000000, 4.000000, 4.000000, 4.000000, 4.000000, 4.000000, 4.000000, 4.000000, 4.000000, 4.000000, 4.000000, 4.000000, 4.000000, 4.000000, 4.000000
77.000000, 0.000000, 4178.974121, 4043.589600, 4186.666504, 4201.538574, 4184.615234, 4187.692383, 4196.410156, 4201.538574, 4197.436035, 4196.410156, 4200.000000, 4167.692383, 4197.436035, 4195.384277, 3450.000000, 8203.000000, 8181.000000, 0.000000, 0.000000, 0.000000, -22283.000000, 990.256409, 4.000000, 4.000000, 4.000000, 4.000000, 4.000000, 4.000000, 4.000000, 4.000000, 4.000000, 4.000000, 4.000000, 4.000000, 4.000000, 4.000000, 4.000000, 4.000000
78.000000, 0.000000, 4180.000000, 4043.076904, 4187.179199, 4198.974121, 4187.179199, 4185.641113, 4197.436035, 4204.102539, 4202.563965, 4204.102539, 4206.666504, 4174.358887, 4210.769043, 4194.871582, 3542.000000, 8203.000000, 8181.000000, 0.000000, 0.000000, 0.000000, -22283.000000, 998.461487, 4.000000, 4.000000, 4.000000, 4.000000, 4.000000, 4.000000, 4.000000, 4.000000, 4.000000, 4.000000, 4.000000, 4.000000, 4.000000, 4.000000, 4.000000, 4.000000
79.000000, 0.000000, 4168.205078, 4033.845947, 4187.179199, 4189.743652, 4183.589844, 4187.692383, 4187.692383, 4197.436035, 4200.000000, 4198.461426, 4198.974121, 4172.307617, 4200.512695, 4190.769043, 1470.000000, 8199.000000, 8182.000000, 0.000000, 0.000000, 0.000000, -22282.000000, 6.153846, 4.000000, 4.000000, 4.000000, 4.000000, 4.000000, 4.000000, 4.000000, 4.000000, 4.000000, 4.000000, 4.000000, 4.000000, 4.000000, 4.000000, 4.000000, 4.000000
80.000000, 0.000000, 4172.307617, 4033.845947, 4185.641113, 4191.281738, 4182.563965, 4186.666504, 4183.589844, 4188.205078, 4200.000000, 4200.000000, 4203.589844, 4170.256348, 4212.307617, 4189.230469, 3250.000000, 8199.000000, 8182.000000, 0.000000, 0.000000, 0.000000, -22282.000000, 13.846153, 4.000000, 4.000000, 4.000000, 4.000000, 4.000000, 4.000000, 4.000000, 4.000000, 4.000000, 4.000000, 4.000000, 4.000000, 4.000000, 4.000000, 4.000000, 4.000000
81.000000, 0.000000, 4175.384277, 4037.948730, 4183.076660, 4190.769043, 4184.615234, 4182.563965, 4186.666504, 4190.256348, 4202.563965, 4209.743652, 4211.281738, 4171.281738, 4221.025391, 4194.871582, 3450.000000, 8204.000000, 8177.000000, 0.000000, 0.000000, 0.000000, -22282.000000, 22.051281, 4.000000, 4.000000, 4.000000, 4.000000, 4.000000, 4.000000, 4.000000, 4.000000, 4.000000, 4.000000, 4.000000, 4.000000, 4.000000, 4.000000, 4.000000, 4.000000
82.000000, 0.000000, 4168.717773, 4029.743408, 4178.974121, 4183.076660, 4182.563965, 4183.589844, 4186.153809, 4196.410156, 4204.102539, 4214.871582, 4209.743652, 4169.230469, 4213.333008, 4191.281738, 3542.000000, 8204.000000, 8177.000000, 0.000000, 0.000000, 0.000000, -22282.000000, 29.743589, 4.000000, 4.000000, 4.000000, 4.000000, 4.000000, 4.000000, 4.000000, 4.000000, 4.000000, 4.000000, 4.000000, 4.000000, 4.000000, 4.000000, 4.000000, 4.000000
83.000000, 0.000000, 4170.256348, 4025.128174, 4178.461426, 4180.512695, 4180.512695, 4185.127930, 4186.666504, 4196.410156, 4204.615234, 4215.897461, 4212.820313, 4169.743652, 4216.922852, 4190.256348, 1470.000000, 8204.000000, 8176.000000, 0.000000, 0.000000, 0.000000, -22282.000000, 37.948715, 4.000000, 4.000000, 4.000000, 4.000000, 4.000000, 4.000000, 4.000000, 4.000000, 4.000000, 4.000000, 4.000000, 4.000000, 4.000000, 4.000000, 4.000000, 4.000000
84.000000, 0.000000, 4171.281738, 4030.769043, 4178.461426, 4186.666504, 4185.127930, 4184.615234, 4188.205078, 4193.846191, 4202.563965, 4215.384277, 4216.922852, 4170.769043, 4220.512695, 4194.358887, 3250.000000, 8204.000000, 8176.000000, 0.000000, 0.000000, 0.000000, -22282.000000, 45.641026, 4.000000, 4.000000, 4.000000, 4.000000, 4.000000, 4.000000, 4.000000, 4.000000, 4.000000, 4.000000, 4.000000, 4.000000, 4.000000, 4.000000, 4.000000, 4.000000
85.000000, 0.000000, 4169.230469, 4035.897217, 4178.974121, 4190.256348, 4189.230469, 4183.076660, 4187.179199, 4190.256348, 4200.000000, 4216.922852, 4214.871582, 4168.717773, 4216.410156, 4189.743652, 3450.000000, 8200.000000, 8176.000000, 0.000000, 0.000000, 0.000000, -22282.000000, 53.846153, 4.000000, 4.000000, 4.000000, 4.000000, 4.000000, 4.000000, 4.000000, 4.000000, 4.000000, 4.000000, 4.000000, 4.000000, 4.000000, 4.000000, 4.000000, 4.000000
86.000000, 0.000000, 4167.692383, 4035.897217, 4179.487305, 4185.641113, 4185.641113, 4187.692383, 4194.871582, 4193.846191, 4202.051270, 4218.974121, 4209.743652, 4166.666504, 4216.922852, 4188.717773, 3542.000000, 8200.000000, 8176.000000, 0.000000, 0.000000, 0.000000, -22282.000000, 61.538460, 4.000000, 4.000000, 4.000000, 4.000000, 4.000000, 4.000000, 4.000000, 4.000000, 4.000000, 4.000000, 4.000000, 4.000000, 4.000000, 4.000000, 4.000000, 4.000000
87.000000, 0.000000, 4167.692383, 4035.897217, 4173.846191, 4182.563965, 4186.153809, 4194.358887, 4202.051270, 4197.948730, 4203.076660, 4213.846191, 4204.615234, 4163.076660, 4215.897461, 4186.153809, 1470.000000, 8201.000000, 8180.000000, 0.000000, 0.000000, 0.000000, -22282.000000, 69.230766, 4.000000, 4.000000, 4.000000, 4.000000, 4.000000, 4.000000, 4.000000, 4.000000, 4.000000, 4.000000, 4.000000, 4.000000, 4.000000, 4.000000, 4.000000, 4.000000
88.000000, 0.000000, 4168.717773, 4045.128174, 4173.333008, 4187.179199, 4194.871582, 4194.358887, 4196.922852, 4190.769043, 4195.384277, 4205.641113, 4200.512695, 4156.922852, 4208.205078, 4182.563965, 3250.000000, 8201.000000, 8180.000000, 0.000000, 0.000000, 0.000000, -22282.000000, 76.923073, 4.000000, 4.000000, 4.000000, 4.000000, 4.000000, 4.000000, 4.000000, 4.000000, 4.000000, 4.000000, 4.000000, 4.000000, 4.000000, 4.000000, 4.000000, 4.000000
89.000000, 0.000000, 4168.205078, 4055.897217, 4178.974121, 4190.769043, 4196.922852, 4193.846191, 4194.358887, 4185.127930, 4191.281738, 4201.538574, 4199.487305, 4154.358887, 4202.563965, 4187.692383, 3450.000000, 8199.000000, 8180.000000, 0.000000, 0.000000, 0.000000, -22282.000000, 85.128204, 4.000000, 4.000000, 4.000000, 4.000000, 4.000000, 4.000000, 4.000000, 4.000000, 4.000000, 4.000000, 4.000000, 4.000000, 4.000000, 4.000000, 4.000000, 4.000000
90.000000, 0.000000, 4168.205078, 4055.897217, 4176.922852, 4187.692383, 4190.256348, 4193.333008, 4193.846191, 4188.205078, 4192.820313, 4196.922852, 4197.436035, 4152.820313, 4203.076660, 4185.127930, 3542.000000, 8199.000000, 8180.000000, 0.000000, 0.000000, 0.000000, -22282.000000, 92.820511, 4.000000, 4.000000, 4.000000, 4.000000, 4.000000, 4.000000, 4.000000, 4.000000, 4.000000, 4.000000, 4.000000, 4.000000, 4.000000, 4.000000, 4.000000, 4.000000
91.000000, 0.000000, 4157.948730, 4050.769043, 4173.846191, 4182.563965, 4185.641113, 4190.769043, 4193.333008, 4188.205078, 4192.307617, 4192.820313, 4190.769043, 4153.846191, 4200.000000, 4185.641113, 1470.000000, 8200.000000, 8178.000000, 0.000000, 0.000000, 0.000000, -22282.000000, 101.025635, 4.000000, 4.000000, 4.000000, 4.000000, 4.000000, 4.000000, 4.000000, 4.000000, 4.000000, 4.000000, 4.000000, 4.000000, 4.000000, 4.000000, 4.000000, 4.000000
92.000000, 0.000000, 4157.948730, 4054.871582, 4182.051270, 4185.127930, 4185.641113, 4188.717773, 4195.897461, 4196.410156, 4197.436035, 4198.461426, 4191.794922, 4158.461426, 4198.461426, 4189.230469, 3250.000000, 8200.000000, 8178.000000, 0.000000, 0.000000, 0.000000, -22282.000000, 108.717949, 4.000000, 4.000000, 4.000000, 4.000000, 4.000000, 4.000000, 4.000000, 4.000000, 4.000000, 4.000000, 4.000000, 4.000000, 4.000000, 4.000000, 4.000000, 4.000000
93.000000, 0.000000, 4168.717773, 4068.717773, 4186.666504, 4193.846191, 4187.692383, 4187.179199, 4195.384277, 4212.307617, 4205.641113, 4206.153809, 4200.000000, 4161.538574, 4202.563965, 4188.717773, 3450.000000, 8204.000000, 8186.000000, 0.000000, 0.000000, 0.000000, -22282.000000, 116.923073, 4.000000, 4.000000, 4.000000, 4.000000, 4.000000, 4.000000, 4.000000, 4.000000, 4.000000, 4.000000, 4.000000, 4.000000, 4.000000, 4.000000, 4.000000, 4.000000
94.000000, 0.000000, 4167.179199, 4079.487061, 4183.589844, 4195.897461, 4191.281738, 4187.692383, 4187.692383, 4211.794922, 4203.076660, 4204.102539, 4203.076660, 4160.512695, 4203.589844, 4190.256348, 3542.000000, 8204.000000, 8186.000000, 0.000000, 0.000000, 0.000000, -22282.000000, 124.615379, 4.000000, 4.000000, 4.000000, 4.000000, 4.000000, 4.000000, 4.000000, 4.000000, 4.000000, 4.000000, 4.000000, 4.000000, 4.000000, 4.000000, 4.000000, 4.000000
95.000000, 0.000000, 4166.153809, 4083.589600, 4187.179199, 4188.717773, 4191.281738, 4194.871582, 4184.615234, 4203.076660, 4199.487305, 4202.563965, 4196.922852, 4156.410156, 4202.563965, 4185.641113, 1470.000000, 8205.000000, 8185.000000, 0.000000, 0.000000, 0.000000, -22282.000000, 132.820511, 4.000000, 4.000000, 4.000000, 4.000000, 4.000000, 4.000000, 4.000000, 4.000000, 4.000000, 4.000000, 4.000000, 4.000000, 4.000000, 4.000000, 4.000000, 4.000000
96.000000, 0.000000, 4169.230469, 4084.615234, 4187.179199, 4182.563965, 4186.153809, 4198.974121, 4197.436035, 4200.000000, 4200.000000, 4200.512695, 4192.307617, 4155.897461, 4201.025391, 4187.179199, 3250.000000, 8205.000000, 8185.000000, 0.000000, 0.000000, 0.000000, -22282.000000, 140.512817, 4.000000, 4.000000, 4.000000, 4.000000, 4.000000, 4.000000, 4.000000, 4.000000, 4.000000, 4.000000, 4.000000, 4.000000, 4.000000, 4.000000, 4.000000, 4.000000
97.000000, 0.000000, 4171.281738, 4086.666504, 4186.666504, 4183.589844, 4184.102539, 4190.769043, 4203.589844, 4203.589844, 4193.846191, 4192.307617, 4194.358887, 4164.102539, 4198.461426, 4190.769043, 3450.000000, 8207.000000, 8181.000000, 0.000000, 0.000000, 0.000000, -22282.000000, 148.717941, 4.000000, 4.000000, 4.000000, 4.000000, 4.000000, 4.000000, 4.000000, 4.000000, 4.000000, 4.000000, 4.000000, 4.000000, 4.000000, 4.000000, 4.000000, 4.000000
98.000000, 0.000000, 4173.333008, 4093.845947, 4195.384277, 4186.153809, 4184.615234, 4185.127930, 4191.281738, 4200.512695, 4188.717773, 4192.820313, 4195.897461, 4168.717773, 4197.948730, 4186.153809, 3542.000000, 8207.000000, 8181.000000, 0.000000, 0.000000, 0.000000, -22282.000000, 156.410248, 4.000000, 4.000000, 4.000000, 4.000000, 4.000000, 4.000000, 4.000000, 4.000000, 4.000000, 4.000000, 4.000000, 4.000000, 4.000000, 4.000000, 4.000000, 4.000000
99.000000, 0.000000, 4175.897461, 4100.000000, 4196.410156, 4186.666504, 4185.641113, 4188.205078, 4183.589844, 4186.153809, 4185.127930, 4195.897461, 4190.769043, 4165.641113, 4198.974121, 4187.179199, 1470.000000, 8211.000000, 8181.000000, 0.000000, 0.000000, 0.000000, -22282.000000, 164.102554, 4.000000, 4.000000, 4.000000, 4.000000, 4.000000, 4.000000, 4.000000, 4.000000, 4.000000, 4.000000, 4.000000, 4.000000, 4.000000, 4.000000, 4.000000, 4.000000
100.000000, 0.000000, 4177.436035, 4106.153809, 4188.717773, 4188.205078, 4187.692383, 4190.769043, 4188.717773, 4183.076660, 4181.538574, 4189.743652, 4185.127930, 4161.025391, 4196.922852, 4186.153809, 3250.000000, 8211.000000, 8181.000000, 0.000000, 0.000000, 0.000000, -22282.000000, 171.794861, 4.000000, 4.000000, 4.000000, 4.000000, 4.000000, 4.000000, 4.000000, 4.000000, 4.000000, 4.000000, 4.000000, 4.000000, 4.000000, 4.000000, 4.000000, 4.000000
101.000000, 0.000000, 4170.769043, 4109.230469, 4183.076660, 4180.512695, 4186.153809, 4188.205078, 4192.307617, 4183.076660, 4182.563965, 4184.102539, 4182.051270, 4156.922852, 4187.179199, 4186.153809, 3450.000000, 8212.000000, 8179.000000, 0.000000, 0.000000, 0.000000, -22282.000000, 180.000000, 4.000000, 4.000000, 4.000000, 4.000000, 4.000000, 4.000000, 4.000000, 4.000000, 4.000000, 4.000000, 4.000000, 4.000000, 4.000000, 4.000000, 4.000000, 4.000000
102.000000, 0.000000, 4167.692383, 4105.127930, 4182.051270, 4173.846191, 4182.051270, 4185.127930, 4191.281738, 4172.820313, 4183.076660, 4184.102539, 4179.487305, 4151.281738, 4183.589844, 4186.153809, 3542.000000, 8212.000000, 8179.000000, 0.000000, 0.000000, 0.000000, -22282.000000, 187.692307, 4.000000, 4.000000, 4.000000, 4.000000, 4.000000, 4.000000, 4.000000, 4.000000, 4.000000, 4.000000, 4.000000, 4.000000, 4.000000, 4.000000, 4.000000, 4.000000
103.000000, 0.000000, 4177.948730, 4112.307617, 4184.615234, 4182.563965, 4183.589844, 4188.205078, 4194.358887, 4173.333008, 4184.102539, 4185.641113, 4184.615234, 4153.846191, 4194.358887, 4187.692383, 1470.000000, 8210.000000, 8171.000000, 0.000000, 0.000000, 0.000000, -22282.000000, 195.384613, 4.000000, 4.000000, 4.000000, 4.000000, 4.000000, 4.000000, 4.000000, 4.000000, 4.000000, 4.000000, 4.000000, 4.000000, 4.000000, 4.000000, 4.000000, 4.000000
104.000000, 0.000000, 4182.051270, 4126.153809, 4185.641113, 4189.743652, 4185.127930, 4191.281738, 4196.410156, 4184.102539, 4186.666504, 4191.281738, 4188.717773, 4158.461426, 4201.538574, 4191.281738, 3250.000000, 8210.000000, 8171.000000, 0.000000, 0.000000, 0.000000, -22282.000000, 203.076920, 4.000000, 4.000000, 4.000000, 4.000000, 4.000000, 4.000000, 4.000000, 4.000000, 4.000000, 4.000000, 4.000000, 4.000000, 4.000000, 4.000000, 4.000000, 4.000000
105.000000, 0.000000, 4182.563965, 4124.102539, 4185.127930, 4186.153809, 4188.205078, 4187.692383, 4193.333008, 4181.538574, 4186.666504, 4198.974121, 4185.641113, 4151.794922, 4197.436035, 4185.641113, 3450.000000, 8211.000000, 8168.000000, 0.000000, 0.000000, 0.000000, -22282.000000, 211.282043, 4.000000, 4.000000, 4.000000, 4.000000, 4.000000, 4.000000, 4.000000, 4.000000, 4.000000, 4.000000, 4.000000, 4.000000, 4.000000, 4.000000, 4.000000, 4.000000
106.000000, 0.000000, 4187.179199, 4124.102539, 4186.666504, 4187.692383, 4196.410156, 4185.641113, 4190.256348, 4177.436035, 4186.153809, 4200.512695, 4185.641113, 4153.333008, 4200.000000, 4187.179199, 3542.000000, 8211.000000, 8168.000000, 0.000000, 0.000000, 0.000000, -22282.000000, 218.974350, 4.000000, 4.000000, 4.000000, 4.000000, 4.000000, 4.000000, 4.000000, 4.000000, 4.000000, 4.000000, 4.000000, 4.000000, 4.000000, 4.000000, 4.000000, 4.000000
107.000000, 0.000000, 4187.179199, 4135.897461, 4189.230469, 4195.384277, 4197.436035, 4187.179199, 4184.615234, 4183.589844, 4188.205078, 4200.000000, 4189.743652, 4162.563965, 4203.076660, 4192.307617, 1470.000000, 8212.000000, 8168.000000, 0.000000, 0.000000, 0.000000, -22282.000000, 227.179489, 4.000000, 4.000000, 4.000000, 4.000000, 4.000000, 4.000000, 4.000000, 4.000000, 4.000000, 4.000000, 4.000000, 4.000000, 4.000000, 4.000000, 4.000000, 4.000000
108.000000, 0.000000, 4188.205078, 4140.000000, 4191.281738, 4192.820313, 4188.717773, 4186.666504, 4179.487305, 4183.589844, 4187.692383, 4198.461426, 4191.281738, 4161.025391, 4200.512695, 4188.717773, 3250.000000, 8212.000000, 8168.000000, 0.000000, 0.000000, 0.000000, -22282.000000, 234.871796, 4.000000, 4.000000, 4.000000, 4.000000, 4.000000, 4.000000, 4.000000, 4.000000, 4.000000, 4.000000, 4.000000, 4.000000, 4.000000, 4.000000, 4.000000, 4.000000
109.000000, 0.000000, 4189.230469, 4134.871582, 4191.281738, 4187.179199, 4184.102539, 4182.563965, 4181.025391, 4175.384277, 4184.615234, 4192.307617, 4188.205078, 4153.333008, 4200.512695, 4189.743652, 3450.000000, 8208.000000, 8166.000000, 0.000000, 0.000000, 0.000000, -22282.000000, 242.564102, 4.000000, 4.000000, 4.000000, 4.000000, 4.000000, 4.000000, 4.000000, 4.000000, 4.000000, 4.000000, 4.000000, 4.000000, 4.000000, 4.000000, 4.000000, 4.000000
110.000000, 0.000000, 4186.666504, 4133.333008, 4187.179199, 4184.615234, 4185.641113, 4182.051270, 4184.102539, 4175.897461, 4184.615234, 4190.769043, 4183.076660, 4155.897461, 4196.410156, 4188.205078, 3542.000000, 8208.000000, 8166.000000, 0.000000, 0.000000, 0.000000, -22282.000000, 250.256409, 4.000000, 4.000000, 4.000000, 4.000000, 4.000000, 4.000000, 4.000000, 4.000000, 4.000000, 4.000000, 4.000000, 4.000000, 4.000000, 4.000000, 4.000000, 4.000000
111.000000, 0.000000, 4186.153809, 4138.461426, 4189.743652, 4188.205078, 4189.230469, 4185.641113, 4185.127930, 4186.666504, 4188.205078, 4200.000000, 4190.769043, 4166.666504, 4198.461426, 4190.256348, 1470.000000, 8210.000000, 8164.000000, 0.000000, 0.000000, 0.000000, -22282.000000, 258.461517, 4.000000, 4.000000, 4.000000, 4.000000, 4.000000, 4.000000, 4.000000, 4.000000, 4.000000, 4.000000, 4.000000, 4.000000, 4.000000, 4.000000, 4.000000, 4.000000
112.000000, 0.000000, 4194.871582, 4143.589844, 4199.487305, 4193.846191, 4193.333008, 4183.589844, 4180.000000, 4184.615234, 4188.205078, 4204.615234, 4202.051270, 4171.794922, 4213.333008, 4195.897461, 3250.000000, 8210.000000, 8164.000000, 0.000000, 0.000000, 0.000000, -22282.000000, 266.153839, 4.000000, 4.000000, 4.000000, 4.000000, 4.000000, 4.000000, 4.000000, 4.000000, 4.000000, 4.000000, 4.000000, 4.000000, 4.000000, 4.000000, 4.000000, 4.000000
113.000000, 0.000000, 4201.025391, 4146.153809, 4202.563965, 4193.846191, 4189.743652, 4178.974121, 4173.333008, 4172.307617, 4182.051270, 4198.974121, 4197.948730, 4169.230469, 4220.000000, 4191.281738, 3450.000000, 8212.000000, 8162.000000, 0.000000, 0.000000, 0.000000, -22282.000000, 273.846161, 4.000000, 4.000000, 4.000000, 4.000000, 4.000000, 4.000000, 4.000000, 4.000000, 4.000000, 4.000000, 4.000000, 4.000000, 4.000000, 4.000000, 4.000000, 4.000000
114.000000, 0.000000, 4191.281738, 4143.076660, 4199.487305, 4192.307617, 4184.102539, 4180.000000, 4178.461426, 4172.820313, 4181.538574, 4198.974121, 4191.281738, 4168.717773, 4210.769043, 4190.769043, 3542.000000, 8212.000000, 8162.000000, 0.000000, 0.000000, 0.000000, -22282.000000, 282.051270, 4.000000, 4.000000, 4.000000, 4.000000, 4.000000, 4.000000, 4.000000, 4.000000, 4.000000, 4.000000, 4.000000, 4.000000, 4.000000, 4.000000, 4.000000, 4.000000
115.000000, 0.000000, 4189.230469, 4138.974121, 4200.512695, 4192.820313, 4186.153809, 4182.563965, 4182.051270, 4175.384277, 4185.127930, 4197.436035, 4196.410156, 4170.256348, 4203.589844, 4190.256348, 1470.000000, 8208.000000, 8164.000000, 0.000000, 0.000000, 0.000000, -22282.000000, 289.743591, 4.000000, 4.000000, 4.000000, 4.000000, 4.000000, 4.000000, 4.000000, 4.000000, 4.000000, 4.000000, 4.000000, 4.000000, 4.000000, 4.000000, 4.000000, 4.000000
116.000000, 0.000000, 4191.794922, 4139.487305, 4201.538574, 4190.769043, 4186.153809, 4180.512695, 4174.358887, 4171.794922, 4183.589844, 4191.281738, 4195.897461, 4167.179199, 4205.127930, 4187.692383, 3250.000000, 8208.000000, 8164.000000, 0.000000, 0.000000, 0.000000, -22282.000000, 297.435883, 4.000000, 4.000000, 4.000000, 4.000000, 4.000000, 4.000000, 4.000000, 4.000000, 4.000000, 4.000000, 4.000000, 4.000000, 4.000000, 4.000000, 4.000000, 4.000000
117.000000, 0.000000, 4183.076660, 4137.948730, 4194.871582, 4184.102539, 4181.538574, 4181.025391, 4174.358887, 4176.922852, 4181.025391, 4188.717773, 4186.153809, 4161.538574, 4200.000000, 4188.717773, 3450.000000, 8207.000000, 8163.000000, 0.000000, 0.000000, 0.000000, -22282.000000, 305.128204, 4.000000, 4.000000, 4.000000, 4.000000, 4.000000, 4.000000, 4.000000, 4.000000, 4.000000, 4.000000, 4.000000, 4.000000, 4.000000, 4.000000, 4.000000, 4.000000
118.000000, 0.000000, 4184.615234, 4136.922852, 4192.307617, 4189.230469, 4184.102539, 4183.076660, 4181.538574, 4184.615234, 4185.641113, 4191.281738, 4189.743652, 4162.563965, 4201.025391, 4188.205078, 3542.000000, 8207.000000, 8163.000000, 0.000000, 0.000000, 0.000000, -22282.000000, 313.333313, 4.000000, 4.000000, 4.000000, 4.000000, 4.000000, 4.000000, 4.000000, 4.000000, 4.000000, 4.000000, 4.000000, 4.000000, 4.000000, 4.000000, 4.000000, 4.000000
119.000000, 0.000000, 4190.256348, 4140.512695, 4196.922852, 4195.897461, 4187.692383, 4184.102539, 4188.717773, 4188.205078, 4192.820313, 4195.384277, 4201.025391, 4167.692383, 4210.769043, 4191.281738, 1470.000000, 8199.000000, 8173.000000, 0.000000, 0.000000, 0.000000, -22282.000000, 321.025635, 4.000000, 4.000000, 4.000000, 4.000000, 4.000000, 4.000000, 4.000000, 4.000000, 4.000000, 4.000000, 4.000000, 4.000000, 4.000000, 4.000000, 4.000000, 4.000000
120.000000, 0.000000, 4182.563965, 4134.871582, 4200.000000, 4187.692383, 4185.127930, 4186.666504, 4195.384277, 4197.436035, 4197.948730, 4201.025391, 4202.051270, 4167.179199, 4207.692383, 4188.205078, 3250.000000, 8199.000000, 8173.000000, 0.000000, 0.000000, 0.000000, -22282.000000, 328.717926, 4.000000, 4.000000, 4.000000, 4.000000, 4.000000, 4.000000, 4.000000, 4.000000, 4.000000, 4.000000, 4.000000, 4.000000, 4.000000, 4.000000, 4.000000, 4.000000
121.000000, 0.000000, 4179.487305, 4133.846191, 4200.000000, 4191.281738, 4187.179199, 4189.230469, 4198.461426, 4206.153809, 4198.974121, 4204.102539, 4201.538574, 4167.692383, 4204.615234, 4188.717773, 3450.000000, 8203.000000, 8175.000000, 0.000000, 0.000000, 0.000000, -22282.000000, 336.923065, 4.000000, 4.000000, 4.000000, 4.000000, 4.000000, 4.000000, 4.000000, 4.000000, 4.000000, 4.000000, 4.000000, 4.000000, 4.000000, 4.000000, 4.000000, 4.000000
122.000000, 0.000000, 4186.153809, 4150.256348, 4201.025391, 4209.743652, 4191.794922, 4188.205078, 4194.871582, 4202.051270, 4198.461426, 4203.076660, 4203.589844, 4170.256348, 4215.384277, 4196.410156, 3542.000000, 8203.000000, 8175.000000, 0.000000, 0.000000, 0.000000, -22282.000000, 344.615387, 4.000000, 4.000000, 4.000000, 4.000000, 4.000000, 4.000000, 4.000000, 4.000000, 4.000000, 4.000000, 4.000000, 4.000000, 4.000000, 4.000000, 4.000000, 4.000000
123.000000, 0.000000, 4190.256348, 4155.384277, 4202.563965, 4211.794922, 4189.743652, 4185.127930, 4193.846191, 4198.974121, 4200.512695, 4202.051270, 4201.538574, 4168.717773, 4213.333008, 4189.230469, 1470.000000, 8200.000000, 8180.000000, 0.000000, 0.000000, 0.000000, -22282.000000, 352.820496, 4.000000, 4.000000, 4.000000, 4.000000, 4.000000, 4.000000, 4.000000, 4.000000, 4.000000, 4.000000, 4.000000, 4.000000, 4.000000, 4.000000, 4.000000, 4.000000
124.000000, 0.000000, 4182.051270, 4147.692383, 4202.051270, 4200.000000, 4189.230469, 4187.692383, 4198.461426, 4197.436035, 4203.076660, 4201.025391, 4199.487305, 4170.256348, 4199.487305, 4186.666504, 3250.000000, 8200.000000, 8180.000000, 0.000000, 0.000000, 0.000000, -22282.000000, 360.512817, 4.000000, 4.000000, 4.000000, 4.000000, 4.000000, 4.000000, 4.000000, 4.000000, 4.000000, 4.000000, 4.000000, 4.000000, 4.000000, 4.000000, 4.000000, 4.000000
125.000000, 0.000000, 4179.487305, 4149.230469, 4202.051270, 4201.025391, 4191.281738, 4189.230469, 4193.333008, 4189.743652, 4202.563965, 4200.512695, 4201.025391, 4171.794922, 4200.512695, 4189.743652, 3450.000000, 8197.000000, 8185.000000, 0.000000, 0.000000, 0.000000, -22282.000000, 368.717926, 4.000000, 4.000000, 4.000000, 4.000000, 4.000000, 4.000000, 4.000000, 4.000000, 4.000000, 4.000000, 4.000000, 4.000000, 4.000000, 4.000000, 4.000000, 4.000000
126.000000, 0.000000, 4186.153809, 4154.871582, 4201.025391, 4203.076660, 4189.743652, 4182.563965, 4181.538574, 4184.615234, 4198.461426, 4204.102539, 4204.102539, 4171.281738, 4208.205078, 4187.692383, 3542.000000, 8197.000000, 8185.000000, 0.000000, 0.000000, 0.000000, -22282.000000, 376.410248, 4.000000, 4.000000, 4.000000, 4.000000, 4.000000, 4.000000, 4.000000, 4.000000, 4.000000, 4.000000, 4.000000, 4.000000, 4.000000, 4.000000, 4.000000, 4.000000
127.000000, 0.000000, 4186.666504, 4159.487305, 4200.000000, 4201.538574, 4190.769043, 4180.512695, 4178.461426, 4183.076660, 4191.794922, 4198.974121, 4202.563965, 4172.307617, 4202.051270, 4189.230469, 55.000000, 8198.000000, 8186.000000, 0.000000, 0.000000, 0.000000, -22282.000000, 384.102570, 4.000000, 4.000000, 4.000000, 4.000000, 4.000000, 4.000000, 4.000000, 4.000000, 4.000000, 4.000000, 4.000000, 4.000000, 4.000000, 4.000000, 4.000000, 4.000000
0.000000, 0.000000, 4183.589844, 4163.076660, 4195.897461, 4201.025391, 4193.333008, 4187.692383, 4182.051270, 4174.871582, 4182.051270, 4186.666504, 4188.717773, 4162.051270, 4187.692383, 4186.153809, 3206.000000, 8198.000000, 8186.000000, 0.000000, 0.000000, 0.000000, -22282.000000, 391.794861, 4.000000, 4.000000, 4.000000, 4.000000, 4.000000, 4.000000, 4.000000, 4.000000, 4.000000, 4.000000, 4.000000, 4.000000, 4.000000, 4.000000, 4.000000, 4.000000
1.000000, 0.000000, 4173.846191, 4158.974121, 4186.666504, 4190.769043, 4187.692383, 4190.769043, 4186.666504, 4167.179199, 4176.922852, 4177.436035, 4169.743652, 4147.179199, 4170.769043, 4182.051270, 3487.000000, 8198.000000, 8184.000000, 0.000000, 0.000000, 0.000000, -22282.000000, 400.000000, 4.000000, 4.000000, 4.000000, 4.000000, 4.000000, 4.000000, 4.000000, 4.000000, 4.000000, 4.000000, 4.000000, 4.000000, 4.000000, 4.000000, 4.000000, 4.000000
2.000000, 0.000000, 4169.230469, 4156.410156, 4182.051270, 4183.076660, 4183.076660, 4189.230469, 4190.769043, 4176.922852, 4188.205078, 4179.487305, 4168.205078, 4146.666504, 4165.127930, 4182.051270, 2739.000000, 8198.000000, 8184.000000, 0.000000, 0.000000, 0.000000, -22282.000000, 407.692291, 4.000000, 4.000000, 4.000000, 4.000000, 4.000000, 4.000000, 4.000000, 4.000000, 4.000000, 4.000000, 4.000000, 4.000000, 4.000000, 4.000000, 4.000000, 4.000000
3.000000, 0.000000, 4172.307617, 4163.076660, 4184.102539, 4186.153809, 4184.102539, 4191.281738, 4188.717773, 4189.230469, 4203.076660, 4192.820313, 4180.512695, 4155.384277, 4176.410156, 4188.205078, 2031.000000, 8197.000000, 8182.000000, 0.000000, 0.000000, 0.000000, -22282.000000, 415.384613, 4.000000, 4.000000, 4.000000, 4.000000, 4.000000, 4.000000, 4.000000, 4.000000, 4.000000, 4.000000, 4.000000, 4.000000, 4.000000, 4.000000, 4.000000, 4.000000
4.000000, 0.000000, 4174.358887, 4166.666504, 4184.102539, 4187.692383, 4178.461426, 4183.589844, 4178.974121, 4185.641113, 4198.461426, 4197.948730, 4184.615234, 4157.948730, 4185.127930, 4193.333008, 3512.000000, 8197.000000, 8182.000000, 0.000000, 0.000000, 0.000000, -22282.000000, 423.076904, 4.000000, 4.000000, 4.000000, 4.000000, 4.000000, 4.000000, 4.000000, 4.000000, 4.000000, 4.000000, 4.000000, 4.000000, 4.000000, 4.000000, 4.000000, 4.000000
5.000000, 0.000000, 4182.051270, 4173.846191, 4185.127930, 4186.666504, 4174.358887, 4171.794922, 4174.358887, 4173.333008, 4183.589844, 4187.179199, 4184.615234, 4157.436035, 4187.692383, 4187.692383, 3534.000000, 8191.000000, 8184.000000, 0.000000, 0.000000, 0.000000, -22282.000000, 431.282043, 4.000000, 4.000000, 4.000000, 4.000000, 4.000000, 4.000000, 4.000000, 4.000000, 4.000000, 4.000000, 4.000000, 4.000000, 4.000000, 4.000000, 4.000000, 4.000000
6.000000, 0.000000, 4187.179199, 4186.153809, 4190.256348, 4188.717773, 4181.025391, 4176.410156, 4184.102539, 4172.307617, 4182.051270, 4185.127930, 4188.205078, 4159.487305, 4190.769043, 4190.256348, 3051.000000, 8191.000000, 8184.000000, 0.000000, 0.000000, 0.000000, -22282.000000, 438.974335, 4.000000, 4.000000, 4.000000, 4.000000, 4.000000, 4.000000, 4.000000, 4.000000, 4.000000, 4.000000, 4.000000, 4.000000, 4.000000, 4.000000, 4.000000, 4.000000
7.000000, 0.000000, 4187.179199, 4191.281738, 4190.769043, 4187.692383, 4185.641113, 4188.717773, 4193.846191, 4182.051270, 4185.641113, 4194.358887, 4185.641113, 4155.897461, 4190.256348, 4191.794922, 3413.000000, 8191.000000, 8182.000000, 0.000000, 0.000000, 0.000000, -22282.000000, 447.179474, 4.000000, 4.000000, 4.000000, 4.000000, 4.000000, 4.000000, 4.000000, 4.000000, 4.000000, 4.000000, 4.000000, 4.000000, 4.000000, 4.000000, 4.000000, 4.000000
8.000000, 0.000000, 4187.179199, 4194.358887, 4187.692383, 4187.179199, 4184.102539, 4191.794922, 4194.358887, 4186.666504, 4186.153809, 4194.358887, 4183.076660, 4152.820313, 4190.769043, 4186.153809, 3512.000000, 8191.000000, 8182.000000, 0.000000, 0.000000, 0.000000, -22282.000000, 454.871796, 4.000000, 4.000000, 4.000000, 4.000000, 4.000000, 4.000000, 4.000000, 4.000000, 4.000000, 4.000000, 4.000000, 4.000000, 4.000000, 4.000000, 4.000000, 4.000000
9.000000, 0.000000, 4187.179199, 4204.615234, 4187.179199, 4194.358887, 4191.794922, 4190.769043, 4193.333008, 4192.307617, 4195.384277, 4190.256348, 4191.794922, 4163.589844, 4193.846191, 4190.769043, 3540.000000, 8194.000000, 8181.000000, 0.000000, 0.000000, 0.000000, -22282.000000, 463.076904, 4.000000, 4.000000, 4.000000, 4.000000, 4.000000, 4.000000, 4.000000, 4.000000, 4.000000, 4.000000, 4.000000, 4.000000, 4.000000, 4.000000, 4.000000, 4.000000
10.000000, 0.000000, 4196.922852, 4213.333008, 4194.358887, 4200.000000, 4204.102539, 4190.256348, 4192.820313, 4199.487305, 4202.051270, 4198.974121, 4200.512695, 4176.410156, 4199.487305, 4191.794922, 3542.000000, 8194.000000, 8181.000000, 0.000000, 0.000000, 0.000000, -22282.000000, 470.769226, 4.000000, 4.000000, 4.000000, 4.000000, 4.000000, 4.000000, 4.000000, 4.000000, 4.000000, 4.000000, 4.000000, 4.000000, 4.000000, 4.000000, 4.000000, 4.000000
11.000000, 0.000000, 4204.102539, 4216.410156, 4198.974121, 4198.461426, 4200.000000, 4187.692383, 4190.769043, 4194.358887, 4193.333008, 4204.615234, 4200.512695, 4175.897461, 4201.025391, 4189.230469, 1469.000000, 8196.000000, 8179.000000, 0.000000, 0.000000, 0.000000, -22282.000000, 478.461517, 4.000000, 4.000000, 4.000000, 4.000000, 4.000000, 4.000000, 4.000000, 4.000000, 4.000000, 4.000000, 4.000000, 4.000000, 4.000000, 4.000000, 4.000000, 4.000000
12.000000, 0.000000, 4198.974121, 4221.025391, 4197.436035, 4194.358887, 4187.692383, 4187.179199, 4192.820313, 4189.230469, 4187.179199, 4194.358887, 4194.358887, 4172.820313, 4193.333008, 4189.743652, 3382.000000, 8196.000000, 8179.000000, 0.000000, 0.000000, 0.000000, -22282.000000, 486.153839, 4.000000, 4.000000, 4.000000, 4.000000, 4.000000, 4.000000, 4.000000, 4.000000, 4.000000, 4.000000, 4.000000, 4.000000, 4.000000, 4.000000, 4.000000, 4.000000
13.000000, 0.000000, 4198.974121, 4229.230469, 4198.461426, 4195.384277, 4189.743652, 4189.743652, 4196.922852, 4202.051270, 4198.461426, 4192.820313, 4192.307617, 4176.410156, 4192.307617, 4189.230469, 3450.000000, 8199.000000, 8172.000000, 0.000000, 0.000000, 0.000000, -22282.000000, 494.358948, 4.000000, 4.000000, 4.000000, 4.000000, 4.000000, 4.000000, 4.000000, 4.000000, 4.000000, 4.000000, 4.000000, 4.000000, 4.000000, 4.000000, 4.000000, 4.000000
14.000000, 0.000000, 4200.512695, 4236.410156, 4201.538574, 4193.333008, 4192.820313, 4187.692383, 4192.820313, 4202.051270, 4203.076660, 4196.410156, 4193.333008, 4177.436035, 4197.948730, 4192.307617, 3542.000000, 8199.000000, 8172.000000, 0.000000, 0.000000, 0.000000, -22282.000000, 502.051270, 4.000000, 4.000000, 4.000000, 4.000000, 4.000000, 4.000000, 4.000000, 4.000000, 4.000000, 4.000000, 4.000000, 4.000000, 4.000000, 4.000000, 4.000000, 4.000000
15.000000, 0.000000, 4202.051270, 4240.000000, 4200.512695, 4192.307617, 4188.205078, 4184.102539, 4186.153809, 4185.127930, 4190.256348, 4187.692383, 4195.897461, 4176.410156, 4198.974121, 4189.230469, 1469.000000, 8195.000000, 8171.000000, 0.000000, 0.000000, 0.000000, -22282.000000, 509.743591, 4.000000, 4.000000, 4.000000, 4.000000, 4.000000, 4.000000, 4.000000, 4.000000, 4.000000, 4.000000, 4.000000, 4.000000, 4.000000, 4.000000, 4.000000, 4.000000
16.000000, 0.000000, 4205.127930, 4249.743652, 4200.512695, 4197.948730, 4192.820313, 4184.615234, 4186.153809, 4182.563965, 4184.615234, 4187.179199, 4200.512695, 4184.615234, 4200.000000, 4190.769043, 0.000000, 8195.000000, 8171.000000, 0.000000, 0.000000, 0.000000, -22282.000000, 517.948730, 4.000000, 4.000000, 4.000000, 4.000000, 4.000000, 4.000000, 4.000000, 4.000000, 4.000000, 4.000000, 4.000000, 4.000000, 4.000000, 4.000000, 4.000000, 4.000000
17.000000, 0.000000, 4206.666504, 4258.974121, 4202.051270, 4202.051270, 4197.948730, 4187.692383, 4184.102539, 4185.641113, 4189.743652, 4194.358887, 4199.487305, 4188.205078, 4204.102539, 4193.846191, 0.000000, 8190.000000, 8171.000000, 0.000000, 0.000000, 0.000000, -22282.000000, 525.640991, 4.000000, 4.000000, 4.000000, 4.000000, 4.000000, 4.000000, 4.000000, 4.000000, 4.000000, 4.000000, 4.000000, 4.000000, 4.000000, 4.000000, 4.000000, 4.000000
18.000000, 0.000000, 4206.666504, 4261.538574, 4203.076660, 4200.000000, 4191.281738, 4184.615234, 4183.076660, 4185.127930, 4197.436035, 4193.846191, 4195.384277, 4182.051270, 4198.974121, 4189.230469, 0.000000, 8190.000000, 8171.000000, 0.000000, 0.000000, 0.000000, -22282.000000, 533.333313, 4.000000, 4.000000, 4.000000, 4.000000, 4.000000, 4.000000, 4.000000, 4.000000, 4.000000, 4.000000, 4.000000, 4.000000, 4.000000, 4.000000, 4.000000, 4.000000
19.000000, 0.000000, 4204.102539, 4265.127930, 4206.153809, 4198.974121, 4184.615234, 4181.025391, 4185.127930, 4187.692383, 4201.538574, 4193.846191, 4196.410156, 4182.051270, 4189.230469, 4190.769043, 0.000000, 8183.000000, 8174.000000, 0.000000, 0.000000, 0.000000, -22282.000000, 541.538452, 4.000000, 4.000000, 4.000000, 4.000000, 4.000000, 4.000000, 4.000000, 4.000000, 4.000000, 4.000000, 4.000000, 4.000000, 4.000000, 4.000000, 4.000000, 4.000000
20.000000, 0.000000, 4206.666504, 4269.743652, 4206.666504, 4203.076660, 4185.641113, 4182.051270, 4180.512695, 4180.512695, 4193.846191, 4194.358887, 4198.461426, 4181.538574, 4185.641113, 4189.230469, 0.000000, 8183.000000, 8174.000000, 0.000000, 0.000000, 0.000000, -22282.000000, 549.230774, 4.000000, 4.000000, 4.000000, 4.000000, 4.000000, 4.000000, 4.000000, 4.000000, 4.000000, 4.000000, 4.000000, 4.000000, 4.000000, 4.000000, 4.000000, 4.000000
21.000000, 0.000000, 4208.205078, 4276.410156, 4202.051270, 4201.025391, 4188.717773, 4185.641113, 4181.538574, 4173.846191, 4183.589844, 4187.179199, 4198.974121, 4176.410156, 4186.666504, 4189.230469, 0.000000, 8178.000000, 8177.000000, 0.000000, 0.000000, 0.000000, -22282.000000, 556.923035, 4.000000, 4.000000, 4.000000, 4.000000, 4.000000, 4.000000, 4.000000, 4.000000, 4.000000, 4.000000, 4.000000, 4.000000, 4.000000, 4.000000, 4.000000, 4.000000
22.000000, 0.000000, 4205.641113, 4278.974121, 4198.461426, 4198.974121, 4191.794922, 4186.666504, 4187.179199, 4181.538574, 4184.102539, 4187.179199, 4196.922852, 4169.743652, 4186.153809, 4192.820313, 0.000000, 8178.000000, 8177.000000, 0.000000, 0.000000, 0.000000, -22282.000000, 565.128174, 4.000000, 4.000000, 4.000000, 4.000000, 4.000000, 4.000000, 4.000000, 4.000000, 4.000000, 4.000000, 4.000000, 4.000000, 4.000000, 4.000000, 4.000000, 4.000000
23.000000, 0.000000, 4206.666504, 4278.461426, 4201.538574, 4201.025391, 4193.846191, 4186.153809, 4184.102539, 4182.051270, 4187.692383, 4191.281738, 4191.794922, 4164.102539, 4179.487305, 4187.692383, 0.000000, 8184.000000, 8175.000000, 0.000000, 0.000000, 0.000000, -22282.000000, 572.820496, 4.000000, 4.000000, 4.000000, 4.000000, 4.000000, 4.000000, 4.000000, 4.000000, 4.000000, 4.000000, 4.000000, 4.000000, 4.000000, 4.000000, 4.000000, 4.000000
24.000000, 0.000000, 4206.153809, 4285.641113, 4204.615234, 4202.051270, 4195.897461, 4188.205078, 4185.127930, 4174.871582, 4185.641113, 4186.666504, 4187.692383, 4163.076660, 4177.436035, 4188.717773, 0.000000, 8184.000000, 8175.000000, 0.000000, 0.000000, 0.000000, -22282.000000, 581.025635, 4.000000, 4.000000, 4.000000, 4.000000, 4.000000, 4.000000, 4.000000, 4.000000, 4.000000, 4.000000, 4.000000, 4.000000, 4.000000, 4.000000, 4.000000, 4.000000
25.000000, 0.000000, 4208.205078, 4289.743652, 4198.461426, 4201.025391, 4200.000000, 4191.281738, 4191.794922, 4180.512695, 4186.153809, 4185.641113, 4187.179199, 4166.153809, 4181.025391, 4190.769043, 0.000000, 8185.000000, 8173.000000, 0.000000, 0.000000, 0.000000, -22282.000000, 588.717957, 4.000000, 4.000000, 4.000000, 4.000000, 4.000000, 4.000000, 4.000000, 4.000000, 4.000000, 4.000000, 4.000000, 4.000000, 4.000000, 4.000000, 4.000000, 4.000000
26.000000, 0.000000, 4211.281738, 4288.205078, 4194.358887, 4200.512695, 4197.436035, 4191.794922, 4193.846191, 4188.717773, 4188.205078, 4188.205078, 4188.205078, 4169.743652, 4177.436035, 4189.230469, 0.000000, 8185.000000, 8173.000000, 0.000000, 0.000000, 0.000000, -22282.000000, 596.923035, 4.000000, 4.000000, 4.000000, 4.000000, 4.000000, 4.000000, 4.000000, 4.000000, 4.000000, 4.000000, 4.000000, 4.000000, 4.000000, 4.000000, 4.000000, 4.000000
27.000000, 0.000000, 4210.256348, 4292.307617, 4197.948730, 4198.461426, 4189.743652, 4189.743652, 4193.846191, 4182.051270, 4184.102539, 4186.153809, 4193.333008, 4172.820313, 4173.846191, 4191.794922, 0.000000, 8189.000000, 8175.000000, 0.000000, 0.000000, 0.000000, -22282.000000, 604.615356, 4.000000, 4.000000, 4.000000, 4.000000, 4.000000, 4.000000, 4.000000, 4.000000, 4.000000, 4.000000, 4.000000, 4.000000, 4.000000, 4.000000, 4.000000, 4.000000
28.000000, 0.000000, 4211.281738, 4297.948730, 4199.487305, 4191.281738, 4185.641113, 4183.076660, 4188.205078, 4173.333008, 4175.384277, 4182.563965, 4196.922852, 4173.333008, 4176.922852, 4189.230469, 0.000000, 8189.000000, 8175.000000, 0.000000, 0.000000, 0.000000, -22282.000000, 612.307678, 4.000000, 4.000000, 4.000000, 4.000000, 4.000000, 4.000000, 4.000000, 4.000000, 4.000000, 4.000000, 4.000000, 4.000000, 4.000000, 4.000000, 4.000000, 4.000000
29.000000, 0.000000, 4209.230469, 4298.461426, 4194.871582, 4187.692383, 4184.102539, 4178.461426, 4183.076660, 4171.281738, 4168.717773, 4180.512695, 4189.743652, 4171.281738, 4177.436035, 4189.743652, 0.000000, 8196.000000, 8170.000000, 0.000000, 0.000000, 0.000000, -22282.000000, 620.512817, 4.000000, 4.000000, 4.000000, 4.000000, 4.000000, 4.000000, 4.000000, 4.000000, 4.000000, 4.000000, 4.000000, 4.000000, 4.000000, 4.000000, 4.000000, 4.000000
30.000000, 0.000000, 4209.230469, 4299.487305, 4189.743652, 4188.205078, 4186.153809, 4181.538574, 4183.076660, 4172.820313, 4169.743652, 4178.974121, 4182.563965, 4166.666504, 4169.230469, 4187.692383, 0.000000, 8196.000000, 8170.000000, 0.000000, 0.000000, 0.000000, -22282.000000, 628.717957, 4.000000, 4.000000, 4.000000, 4.000000, 4.000000, 4.000000, 4.000000, 4.000000, 4.000000, 4.000000, 4.000000, 4.000000, 4.000000, 4.000000, 4.000000, 4.000000
31.000000, 0.000000, 4208.205078, 4302.563965, 4185.127930, 4187.692383, 4185.127930, 4186.666504, 4180.000000, 4171.794922, 4174.358887, 4174.358887, 4184.102539, 4161.025391, 4159.487305, 4186.153809, 0.000000, 8195.000000, 8166.000000, 0.000000, 0.000000, 0.000000, -22282.000000, 636.410217, 4.000000, 4.000000, 4.000000, 4.000000, 4.000000, 4.000000, 4.000000, 4.000000, 4.000000, 4.000000, 4.000000, 4.000000, 4.000000, 4.000000, 4.000000, 4.000000
32.000000, 0.000000, 4198.974121, 4302.563965, 4182.563965, 4184.615234, 4181.025391, 4186.153809, 4181.025391, 4166.153809, 4171.281738, 4167.692383, 4185.641113, 4157.436035, 4157.436035, 4190.769043, 0.000000, 8195.000000, 8166.000000, 0.000000, 0.000000, 0.000000, -22282.000000, 644.102539, 4.000000, 4.000000, 4.000000, 4.000000, 4.000000, 4.000000, 4.000000, 4.000000, 4.000000, 4.000000, 4.000000, 4.000000, 4.000000, 4.000000, 4.000000, 4.000000
33.000000, 0.000000, 4200.000000, 4305.641113, 4184.615234, 4187.179199, 4185.127930, 4184.615234, 4187.692383, 4170.769043, 4166.153809, 4168.205078, 4184.102539, 4155.897461, 4165.641113, 4190.256348, 0.000000, 8200.000000, 8165.000000, 0.000000, 0.000000, 0.000000, -22282.000000, 652.307678, 4.000000, 4.000000, 4.000000, 4.000000, 4.000000, 4.000000, 4.000000, 4.000000, 4.000000, 4.000000, 4.000000, 4.000000, 4.000000, 4.000000, 4.000000, 4.000000
34.000000, 0.000000, 4207.692383, 4314.871582, 4185.127930, 4191.281738, 4192.307617, 4192.307617, 4197.436035, 4184.102539, 4173.846191, 4178.461426, 4184.615234, 4159.487305, 4170.256348, 4193.333008, 0.000000, 8200.000000, 8165.000000, 0.000000, 0.000000, 0.000000, -22282.000000, 660.000000, 4.000000, 4.000000, 4.000000, 4.000000, 4.000000, 4.000000, 4.000000, 4.000000, 4.000000, 4.000000, 4.000000, 4.000000, 4.000000, 4.000000, 4.000000, 4.000000
35.000000, 0.000000, 4209.743652, 4315.384277, 4185.127930, 4191.794922, 4190.256348, 4201.538574, 4202.563965, 4190.256348, 4187.692383, 4189.230469, 4194.871582, 4166.153809, 4173.333008, 4195.384277, 0.000000, 8201.000000, 8162.000000, 0.000000, 0.000000, 0.000000, -22282.000000, 668.205139, 4.000000, 4.000000, 4.000000, 4.000000, 4.000000, 4.000000, 4.000000, 4.000000, 4.000000, 4.000000, 4.000000, 4.000000, 4.000000, 4.000000, 4.000000, 4.000000
36.000000, 0.000000, 4209.743652, 4312.820313, 4186.153809, 4190.256348, 4187.692383, 4198.974121, 4196.410156, 4186.666504, 4189.743652, 4193.333008, 4202.051270, 4168.205078, 4183.076660, 4190.769043, 0.000000, 8201.000000, 8162.000000, 0.000000, 0.000000, 0.000000, -22282.000000, 675.897400, 4.000000, 4.000000, 4.000000, 4.000000, 4.000000, 4.000000, 4.000000, 4.000000, 4.000000, 4.000000, 4.000000, 4.000000, 4.000000, 4.000000, 4.000000, 4.000000
37.000000, 0.000000, 4202.563965, 4317.436035, 4177.436035, 4185.127930, 4187.179199, 4188.205078, 4184.615234, 4181.538574, 4181.538574, 4187.179199, 4190.769043, 4163.076660, 4182.563965, 4189.743652, 0.000000, 8204.000000, 8155.000000, 0.000000, 0.000000, 0.000000, -22282.000000, 684.102539, 4.000000, 4.000000, 4.000000, 4.000000, 4.000000, 4.000000, 4.000000, 4.000000, 4.000000, 4.000000, 4.000000, 4.000000, 4.000000, 4.000000, 4.000000, 4.000000
38.000000, 0.000000, 4202.051270, 4323.076660, 4173.333008, 4189.743652, 4186.666504, 4185.127930, 4183.589844, 4183.076660, 4181.538574, 4187.692383, 4185.641113, 4161.025391, 4177.436035, 4187.692383, 0.000000, 8204.000000, 8155.000000, 0.000000, 0.000000, 0.000000, -22282.000000, 691.794861, 4.000000, 4.000000, 4.000000, 4.000000, 4.000000, 4.000000, 4.000000, 4.000000, 4.000000, 4.000000, 4.000000, 4.000000, 4.000000, 4.000000, 4.000000, 4.000000
39.000000, 0.000000, 4208.717773, 4326.153809, 4178.974121, 4201.025391, 4191.281738, 4190.256348, 4189.230469, 4187.179199, 4188.205078, 4200.512695, 4199.487305, 4165.127930, 4184.615234, 4190.256348, 0.000000, 8202.000000, 8152.000000, 0.000000, 0.000000, 0.000000, -22282.000000, 699.487183, 4.000000, 4.000000, 4.000000, 4.000000, 4.000000, 4.000000, 4.000000, 4.000000, 4.000000, 4.000000, 4.000000, 4.000000, 4.000000, 4.000000, 4.000000, 4.000000
40.000000, 0.000000, 4209.743652, 4324.615234, 4175.384277, 4197.436035, 4191.794922, 4187.179199, 4183.076660, 4187.179199, 4187.692383, 4199.487305, 4202.563965, 4164.615234, 4188.717773, 4189.743652, 0.000000, 8202.000000, 8152.000000, 0.000000, 0.000000, 0.000000, -22282.000000, 707.692261, 4.000000, 4.000000, 4.000000, 4.000000, 4.000000, 4.000000, 4.000000, 4.000000, 4.000000, 4.000000, 4.000000, 4.000000, 4.000000, 4.000000, 4.000000, 4.000000
41.000000, 0.000000, 4206.666504, 4323.076660, 4172.820313, 4184.102539, 4183.589844, 4181.025391, 4175.897461, 4184.615234, 4185.641113, 4189.743652, 4193.846191, 4164.615234, 4186.153809, 4187.179199, 0.000000, 8200.000000, 8151.000000, 0.000000, 0.000000, 0.000000, -22282.000000, 715.897400, 4.000000, 4.000000, 4.000000, 4.000000, 4.000000, 4.000000, 4.000000, 4.000000, 4.000000, 4.000000, 4.000000, 4.000000, 4.000000, 4.000000, 4.000000, 4.000000
42.000000, 0.000000, 4207.692383, 4324.102539, 4182.051270, 4184.102539, 4181.538574, 4184.102539, 4181.538574, 4186.666504, 4189.743652, 4194.871582, 4195.897461, 4173.846191, 4186.666504, 4193.846191, 0.000000, 8200.000000, 8151.000000, 0.000000, 0.000000, 0.000000, -22282.000000, 723.589722, 4.000000, 4.000000, 4.000000, 4.000000, 4.000000, 4.000000, 4.000000, 4.000000, 4.000000, 4.000000, 4.000000, 4.000000, 4.000000, 4.000000, 4.000000, 4.000000
43.000000, 0.000000, 4217.436035, 4324.102539, 4191.794922, 4196.410156, 4189.230469, 4188.205078, 4187.692383, 4191.281738, 4192.307617, 4206.153809, 4202.563965, 4180.512695, 4186.153809, 4192.307617, 0.000000, 8200.000000, 8144.000000, 0.000000, 0.000000, 0.000000, -22282.000000, 731.282043, 4.000000, 4.000000, 4.000000, 4.000000, 4.000000, 4.000000, 4.000000, 4.000000, 4.000000, 4.000000, 4.000000, 4.000000, 4.000000, 4.000000, 4.000000, 4.000000
44.000000, 0.000000, 4217.948730, 4323.589844, 4195.384277, 4199.487305, 4189.230469, 4184.102539, 4185.127930, 4191.794922, 4188.717773, 4200.512695, 4203.589844, 4175.897461, 4185.127930, 4190.256348, 0.000000, 8200.000000, 8144.000000, 0.000000, 0.000000, 0.000000, -22282.000000, 739.487183, 4.000000, 4.000000, 4.000000, 4.000000, 4.000000, 4.000000, 4.000000, 4.000000, 4.000000, 4.000000, 4.000000, 4.000000, 4.000000, 4.000000, 4.000000, 4.000000
45.000000, 0.000000, 4210.769043, 4323.589844, 4194.358887, 4196.922852, 4185.641113, 4185.127930, 4187.692383, 4184.102539, 4180.512695, 4185.641113, 4194.358887, 4166.153809, 4182.563965, 4190.769043, 0.000000, 8201.000000, 8142.000000, 0.000000, 0.000000, 0.000000, -22282.000000, 747.179443, 4.000000, 4.000000, 4.000000, 4.000000, 4.000000, 4.000000, 4.000000, 4.000000, 4.000000, 4.000000, 4.000000, 4.000000, 4.000000, 4.000000, 4.000000, 4.000000
46.000000, 0.000000, 4213.846191, 4322.563965, 4194.871582, 4198.974121, 4191.281738, 4189.743652, 4196.922852, 4177.948730, 4176.922852, 4181.538574, 4186.153809, 4165.641113, 4175.897461, 4186.153809, 0.000000, 8201.000000, 8142.000000, 0.000000, 0.000000, 0.000000, -22282.000000, 754.871765, 4.000000, 4.000000, 4.000000, 4.000000, 4.000000, 4.000000, 4.000000, 4.000000, 4.000000, 4.000000, 4.000000, 4.000000, 4.000000, 4.000000, 4.000000, 4.000000
47.000000, 0.000000, 4210.769043, 4311.281738, 4197.948730, 4196.410156, 4199.487305, 4192.307617, 4200.512695, 4183.076660, 4182.563965, 4190.769043, 4190.769043, 4172.307617, 4172.307617, 4187.692383, 0.000000, 8208.000000, 8144.000000, 0.000000, 0.000000, 0.000000, -22282.000000, 762.564087, 4.000000, 4.000000, 4.000000, 4.000000, 4.000000, 4.000000, 4.000000, 4.000000, 4.000000, 4.000000, 4.000000, 4.000000, 4.000000, 4.000000, 4.000000, 4.000000
48.000000, 0.000000, 4201.025391, 4302.563965, 4196.922852, 4189.230469, 4201.025391, 4192.820313, 4195.384277, 4188.717773, 4192.820313, 4197.436035, 4194.358887, 4170.256348, 4172.307617, 4185.641113, 0.000000, 8208.000000, 8144.000000, 0.000000, 0.000000, 0.000000, -22282.000000, 770.769226, 4.000000, 4.000000, 4.000000, 4.000000, 4.000000, 4.000000, 4.000000, 4.000000, 4.000000, 4.000000, 4.000000, 4.000000, 4.000000, 4.000000, 4.000000, 4.000000
49.000000, 0.000000, 4205.641113, 4312.307617, 4186.153809, 4188.205078, 4195.897461, 4190.256348, 4192.307617, 4185.641113, 4190.256348, 4188.205078, 4183.076660, 4158.461426, 4173.333008, 4186.666504, 0.000000, 8222.000000, 8129.000000, 0.000000, 0.000000, 0.000000, -22282.000000, 778.461548, 4.000000, 4.000000, 4.000000, 4.000000, 4.000000, 4.000000, 4.000000, 4.000000, 4.000000, 4.000000, 4.000000, 4.000000, 4.000000, 4.000000, 4.000000, 4.000000
50.000000, 0.000000, 4215.384277, 4321.025391, 4174.871582, 4188.205078, 4189.743652, 4186.666504, 4189.743652, 4172.307617, 4173.846191, 4172.307617, 4170.769043, 4150.256348, 4171.794922, 4191.794922, 0.000000, 8222.000000, 8129.000000, 0.000000, 0.000000, 0.000000, -22282.000000, 786.666626, 4.000000, 4.000000, 4.000000, 4.000000, 4.000000, 4.000000, 4.000000, 4.000000, 4.000000, 4.000000, 4.000000, 4.000000, 4.000000, 4.000000, 4.000000, 4.000000
51.000000, 0.000000, 4216.922852, 4320.512695, 4170.256348, 4188.205078, 4184.102539, 4184.102539, 4179.487305, 4156.410156, 4164.615234, 4166.153809, 4168.205078, 4146.666504, 4162.563965, 4188.717773, 0.000000, 8233.000000, 8123.000000, 0.000000, 0.000000, 0.000000, -22282.000000, 794.358948, 4.000000, 4.000000, 4.000000, 4.000000, 4.000000, 4.000000, 4.000000, 4.000000, 4.000000, 4.000000, 4.000000, 4.000000, 4.000000, 4.000000, 4.000000, 4.000000
52.000000, 0.000000, 4223.589844, 4329.230469, 4175.384277, 4197.948730, 4186.153809, 4175.384277, 4173.333008, 4153.846191, 4166.153809, 4165.641113, 4167.179199, 4148.205078, 4157.436035, 4190.256348, 0.000000, 8233.000000, 8123.000000, 0.000000, 0.000000, 0.000000, -22282.000000, 802.051270, 4.000000, 4.000000, 4.000000, 4.000000, 4.000000, 4.000000, 4.000000, 4.000000, 4.000000, 4.000000, 4.000000, 4.000000, 4.000000, 4.000000, 4.000000, 4.000000
53.000000, 0.000000, 4240.512695, 4343.589844, 4184.615234, 4208.205078, 4195.384277, 4167.179199, 4174.358887, 4164.615234, 4167.179199, 4166.666504, 4172.307617, 4153.846191, 4162.563965, 4192.307617, 0.000000, 8245.000000, 8134.000000, 0.000000, 0.000000, 0.000000, -22282.000000, 810.256409, 4.000000, 4.000000, 4.000000, 4.000000, 4.000000, 4.000000, 4.000000, 4.000000, 4.000000, 4.000000, 4.000000, 4.000000, 4.000000, 4.000000, 4.000000, 4.000000
54.000000, 0.000000, 4245.127930, 4347.179199, 4186.153809, 4210.769043, 4200.000000, 4175.897461, 4175.384277, 4170.256348, 4169.230469, 4175.897461, 4181.538574, 4160.000000, 4165.127930, 4194.358887, 0.000000, 8245.000000, 8134.000000, 0.000000, 0.000000, 0.000000, -22282.000000, 817.948669, 4.000000, 4.000000, 4.000000, 4.000000, 4.000000, 4.000000, 4.000000, 4.000000, 4.000000, 4.000000, 4.000000, 4.000000, 4.000000, 4.000000, 4.000000, 4.000000
55.000000, 0.000000, 4242.563965, 4342.563965, 4185.641113, 4214.358887, 4196.922852, 4183.589844, 4176.922852, 4167.179199, 4178.461426, 4183.589844, 4184.102539, 4164.102539, 4162.563965, 4195.897461, 0.000000, 8257.000000, 8140.000000, 0.000000, 0.000000, 0.000000, -22282.000000, 826.153809, 4.000000, 4.000000, 4.000000, 4.000000, 4.000000, 4.000000, 4.000000, 4.000000, 4.000000, 4.000000, 4.000000, 4.000000, 4.000000, 4.000000, 4.000000, 4.000000
56.000000, 0.000000, 4248.717773, 4342.051270, 4190.769043, 4218.461426, 4196.410156, 4177.948730, 4180.512695, 4172.820313, 4187.179199, 4186.153809, 4185.641113, 4165.127930, 4168.717773, 4191.281738, 0.000000, 8257.000000, 8140.000000, 0.000000, 0.000000, 0.000000, -22282.000000, 833.846130, 4.000000, 4.000000, 4.000000, 4.000000, 4.000000, 4.000000, 4.000000, 4.000000, 4.000000, 4.000000, 4.000000, 4.000000, 4.000000, 4.000000, 4.000000, 4.000000
57.000000, 0.000000, 4248.717773, 4343.076660, 4189.743652, 4218.974121, 4201.025391, 4176.922852, 4183.076660, 4184.615234, 4188.205078, 4195.384277, 4190.769043, 4166.153809, 4176.922852, 4192.307617, 0.000000, 8278.000000, 8150.000000, 0.000000, 0.000000, 0.000000, -22282.000000, 842.051270, 4.000000, 4.000000, 4.000000, 4.000000, 4.000000, 4.000000, 4.000000, 4.000000, 4.000000, 4.000000, 4.000000, 4.000000, 4.000000, 4.000000, 4.000000, 4.000000
58.000000, 0.000000, 4241.025391, 4336.410156, 4185.641113, 4215.384277, 4197.948730, 4182.563965, 4183.076660, 4186.153809, 4184.102539, 4198.974121, 4189.230469, 4162.563965, 4172.307617, 4190.256348, 0.000000, 8278.000000, 8150.000000, 0.000000, 0.000000, 0.000000, -22282.000000, 849.743591, 4.000000, 4.000000, 4.000000, 4.000000, 4.000000, 4.000000, 4.000000, 4.000000, 4.000000, 4.000000, 4.000000, 4.000000, 4.000000, 4.000000, 4.000000, 4.000000
59.000000, 0.000000, 4233.846191, 4330.769043, 4184.102539, 4211.794922, 4194.871582, 4185.127930, 4187.692383, 4184.615234, 4187.692383, 4194.358887, 4184.615234, 4160.000000, 4168.205078, 4188.717773, 0.000000, 8281.000000, 8153.000000, 0.000000, 0.000000, 0.000000, -22282.000000, 857.948669, 4.000000, 4.000000, 4.000000, 4.000000, 4.000000, 4.000000, 4.000000, 4.000000, 4.000000, 4.000000, 4.000000, 4.000000, 4.000000, 4.000000, 4.000000, 4.000000
60.000000, 0.000000, 4230.256348, 4330.256348, 4185.127930, 4212.307617, 4196.922852, 4187.179199, 4193.333008, 4187.179199, 4195.384277, 4197.948730, 4186.153809, 4160.512695, 4166.666504, 4190.256348, 0.000000, 8281.000000, 8153.000000, 0.000000, 0.000000, 0.000000, -22282.000000, 865.640991, 4.000000, 4.000000, 4.000000, 4.000000, 4.000000, 4.000000, 4.000000, 4.000000, 4.000000, 4.000000, 4.000000, 4.000000, 4.000000, 4.000000, 4.000000, 4.000000
61.000000, 0.000000, 4229.230469, 4323.076660, 4187.692383, 4207.692383, 4192.820313, 4188.717773, 4189.743652, 4185.127930, 4193.333008, 4198.974121, 4184.102539, 4159.487305, 4160.000000, 4183.589844, 0.000000, 8281.000000, 8155.000000, 0.000000, 0.000000, 0.000000, -22282.000000, 873.333313, 4.000000, 4.000000, 4.000000, 4.000000, 4.000000, 4.000000, 4.000000, 4.000000, 4.000000, 4.000000, 4.000000, 4.000000, 4.000000, 4.000000, 4.000000, 4.000000
62.000000, 0.000000, 4221.025391, 4318.974121, 4188.205078, 4199.487305, 4186.153809, 4183.076660, 4184.102539, 4182.563965, 4188.717773, 4193.846191, 4175.897461, 4156.922852, 4155.384277, 4187.179199, 0.000000, 8281.000000, 8155.000000, 0.000000, 0.000000, 0.000000, -22282.000000, 881.538452, 4.000000, 4.000000, 4.000000, 4.000000, 4.000000, 4.000000, 4.000000, 4.000000, 4.000000, 4.000000, 4.000000, 4.000000, 4.000000, 4.000000, 4.000000, 4.000000
63.000000, 0.000000, 4214.358887, 4323.076660, 4185.127930, 4200.000000, 4187.179199, 4182.563965, 4182.563965, 4186.153809, 4189.230469, 4194.358887, 4170.769043, 4154.871582, 4153.846191, 4192.307617, 0.000000, 8281.000000, 8158.000000, 0.000000, 0.000000, 0.000000, -22282.000000, 889.230774, 4.000000, 4.000000, 4.000000, 4.000000, 4.000000, 4.000000, 4.000000, 4.000000, 4.000000, 4.000000, 4.000000, 4.000000, 4.000000, 4.000000, 4.000000, 4.000000
64.000000, 0.000000, 4213.846191, 4322.051270, 4182.051270, 4201.538574, 4187.179199, 4187.692383, 4187.179199, 4187.692383, 4187.692383, 4191.281738, 4170.769043, 4153.846191, 4148.717773, 4188.717773, 3311.000000, 8281.000000, 8158.000000, 0.000000, 0.000000, 0.000000, -22282.000000, 896.923035, 4.000000, 4.000000, 4.000000, 4.000000, 4.000000, 4.000000, 4.000000, 4.000000, 4.000000, 4.000000, 4.000000, 4.000000, 4.000000, 4.000000, 4.000000, 4.000000
65.000000, 0.000000, 4211.794922, 4317.948730, 4181.538574, 4197.948730, 4182.563965, 4185.127930, 4188.717773, 4183.589844, 4180.512695, 4182.563965, 4168.717773, 4150.769043, 4147.692383, 4189.230469, 3488.000000, 8274.000000, 8167.000000, 0.000000, 0.000000, 0.000000, -22282.000000, 904.615356, 4.000000, 4.000000, 4.000000, 4.000000, 4.000000, 4.000000, 4.000000, 4.000000, 4.000000, 4.000000, 4.000000, 4.000000, 4.000000, 4.000000, 4.000000, 4.000000
66.000000, 0.000000, 4211.794922, 4321.025391, 4184.615234, 4197.948730, 4184.615234, 4181.538574, 4187.179199, 4182.051270, 4175.384277, 4183.076660, 4169.743652, 4148.717773, 4154.871582, 4188.717773, 2743.000000, 8274.000000, 8167.000000, 0.000000, 0.000000, 0.000000, -22282.000000, 912.820496, 4.000000, 4.000000, 4.000000, 4.000000, 4.000000, 4.000000, 4.000000, 4.000000, 4.000000, 4.000000, 4.000000, 4.000000, 4.000000, 4.000000, 4.000000, 4.000000
67.000000, 0.000000, 4212.307617, 4326.153809, 4186.666504, 4201.025391, 4190.256348, 4186.153809, 4190.769043, 4185.641113, 4178.974121, 4184.102539, 4171.794922, 4150.769043, 4155.897461, 4190.769043, 2022.000000, 8266.000000, 8173.000000, 0.000000, 0.000000, 0.000000, -22282.000000, 921.025635, 4.000000, 4.000000, 4.000000, 4.000000, 4.000000, 4.000000, 4.000000, 4.000000, 4.000000, 4.000000, 4.000000, 4.000000, 4.000000, 4.000000, 4.000000, 4.000000
68.000000, 0.000000, 4214.358887, 4323.076660, 4182.563965, 4201.025391, 4192.307617, 4188.717773, 4197.436035, 4187.179199, 4184.102539, 4180.000000, 4170.769043, 4148.205078, 4152.820313, 4188.205078, 3513.000000, 8266.000000, 8173.000000, 0.000000, 0.000000, 0.000000, -22282.000000, 928.717896, 4.000000, 4.000000, 4.000000, 4.000000, 4.000000, 4.000000, 4.000000, 4.000000, 4.000000, 4.000000, 4.000000, 4.000000, 4.000000, 4.000000, 4.000000, 4.000000
69.000000, 0.000000, 4211.281738, 4319.487305, 4178.461426, 4196.922852, 4187.692383, 4186.666504, 4200.000000, 4185.127930, 4180.512695, 4183.589844, 4169.230469, 4140.512695, 4153.333008, 4185.641113, 3534.000000, 8257.000000, 8173.000000, 0.000000, 0.000000, 0.000000, -22282.000000, 936.410217, 4.000000, 4.000000, 4.000000, 4.000000, 4.000000, 4.000000, 4.000000, 4.000000, 4.000000, 4.000000, 4.000000, 4.000000, 4.000000, 4.000000, 4.000000, 4.000000
70.000000, 0.000000, 4203.589844, 4321.538574, 4182.563965, 4191.794922, 4185.641113, 4189.743652, 4202.563965, 4181.538574, 4174.358887, 4186.666504, 4169.743652, 4141.025391, 4153.846191, 4190.256348, 3050.000000, 8257.000000, 8173.000000, 0.000000, 0.000000, 0.000000, -22282.000000, 944.102539, 4.000000, 4.000000, 4.000000, 4.000000, 4.000000, 4.000000, 4.000000, 4.000000, 4.000000, 4.000000, 4.000000, 4.000000, 4.000000, 4.000000, 4.000000, 4.000000
71.000000, 0.000000, 4205.127930, 4321.538574, 4185.641113, 4189.230469, 4192.820313, 4197.436035, 4200.000000, 4175.897461, 4172.820313, 4179.487305, 4168.717773, 4150.769043, 4153.333008, 4187.179199, 3505.000000, 8252.000000, 8176.000000, 0.000000, 0.000000, 0.000000, -22282.000000, 952.307678, 4.000000, 4.000000, 4.000000, 4.000000, 4.000000, 4.000000, 4.000000, 4.000000, 4.000000, 4.000000, 4.000000, 4.000000, 4.000000, 4.000000, 4.000000, 4.000000
72.000000, 0.000000, 4205.641113, 4321.025391, 4186.666504, 4192.820313, 4198.974121, 4199.487305, 4191.794922, 4169.230469, 4169.230469, 4172.820313, 4169.230469, 4158.461426, 4156.410156, 4187.179199, 3514.000000, 8252.000000, 8176.000000, 0.000000, 0.000000, 0.000000, -22282.000000, 960.000000, 4.000000, 4.000000, 4.000000, 4.000000, 4.000000, 4.000000, 4.000000, 4.000000, 4.000000, 4.000000, 4.000000, 4.000000, 4.000000, 4.000000, 4.000000, 4.000000
73.000000, 0.000000, 4203.589844, 4320.512695, 4190.769043, 4197.436035, 4198.974121, 4200.512695, 4194.358887, 4168.717773, 4169.230469, 4174.871582, 4172.820313, 4157.436035, 4158.461426, 4188.717773, 3540.000000, 8239.000000, 8172.000000, 0.000000, 0.000000, 0.000000, -22282.000000, 967.692261, 4.000000, 4.000000, 4.000000, 4.000000, 4.000000, 4.000000, 4.000000, 4.000000, 4.000000, 4.000000, 4.000000, 4.000000, 4.000000, 4.000000, 4.000000, 4.000000
74.000000, 0.000000, 4205.127930, 4316.922852, 4193.333008, 4196.410156, 4199.487305, 4198.974121, 4196.410156, 4167.179199, 4171.281738, 4177.436035, 4172.307617, 4156.410156, 4155.897461, 4185.641113, 3551.000000, 8239.000000, 8172.000000, 0.000000, 0.000000, 0.000000, -22282.000000, 975.897400, 4.000000, 4.000000, 4.000000, 4.000000, 4.000000, 4.000000, 4.000000, 4.000000, 4.000000, 4.000000, 4.000000, 4.000000, 4.000000, 4.000000, 4.000000, 4.000000
75.000000, 0.000000, 4201.538574, 4317.948730, 4191.794922, 4197.948730, 4200.512695, 4194.871582, 4188.717773, 4166.153809, 4167.692383, 4175.897461, 4171.794922, 4160.000000, 4156.410156, 4190.256348, 1463.000000, 8226.000000, 8172.000000, 0.000000, 0.000000, 0.000000, -22282.000000, 984.102539, 4.000000, 4.000000, 4.000000, 4.000000, 4.000000, 4.000000, 4.000000, 4.000000, 4.000000, 4.000000, 4.000000, 4.000000, 4.000000, 4.000000, 4.000000, 4.000000
76.000000, 0.000000, 4205.127930, 4321.025391, 4195.384277, 4202.563965, 4200.000000, 4195.384277, 4190.256348, 4177.948730, 4173.846191, 4180.000000, 4180.512695, 4167.179199, 4163.076660, 4193.333008, 3466.000000, 8226.000000, 8172.000000, 0.000000, 0.000000, 0.000000, -22282.000000, 991.794861, 4.000000, 4.000000, 4.000000, 4.000000, 4.000000, 4.000000, 4.000000, 4.000000, 4.000000, 4.000000, 4.000000, 4.000000, 4.000000, 4.000000, 4.000000, 4.000000
77.000000, 0.000000, 4214.358887, 4323.589844, 4206.153809, 4206.666504, 4202.051270, 4200.000000, 4203.076660, 4191.794922, 4185.641113, 4186.666504, 4190.256348, 4180.512695, 4172.820313, 4195.897461, 3450.000000, 8205.000000, 8161.000000, 0.000000, 0.000000, 0.000000, -22282.000000, 999.487183, 4.000000, 4.000000, 4.000000, 4.000000, 4.000000, 4.000000, 4.000000, 4.000000, 4.000000, 4.000000, 4.000000, 4.000000, 4.000000, 4.000000, 4.000000, 4.000000
78.000000, 0.000000, 4213.333008, 4322.051270, 4210.769043, 4209.230469, 4203.076660, 4199.487305, 4205.127930, 4192.307617, 4186.666504, 4187.179199, 4188.717773, 4183.589844, 4173.846191, 4194.871582, 3551.000000, 8205.000000, 8161.000000, 0.000000, 0.000000, 0.000000, -22281.000000, 7.179487, 4.000000, 4.000000, 4.000000, 4.000000, 4.000000, 4.000000, 4.000000, 4.000000, 4.000000, 4.000000, 4.000000, 4.000000, 4.000000, 4.000000, 4.000000, 4.000000
79.000000, 0.000000, 4207.692383, 4314.871582, 4212.307617, 4204.615234, 4201.538574, 4198.974121, 4203.076660, 4190.769043, 4185.127930, 4189.230469, 4186.666504, 4175.384277, 4170.256348, 4190.256348, 1463.000000, 8199.000000, 8163.000000, 0.000000, 0.000000, 0.000000, -22281.000000, 15.384615, 4.000000, 4.000000, 4.000000, 4.000000, 4.000000, 4.000000, 4.000000, 4.000000, 4.000000, 4.000000, 4.000000, 4.000000, 4.000000, 4.000000, 4.000000, 4.000000
80.000000, 0.000000, 4207.179199, 4313.846191, 4214.358887, 4205.641113, 4203.076660, 4203.076660, 4205.641113, 4193.846191, 4189.230469, 4196.922852, 4194.871582, 4175.384277, 4175.897461, 4193.333008, 3466.000000, 8199.000000, 8163.000000, 0.000000, 0.000000, 0.000000, -22281.000000, 23.076923, 4.000000, 4.000000, 4.000000, 4.000000, 4.000000, 4.000000, 4.000000, 4.000000, 4.000000, 4.000000, 4.000000, 4.000000, 4.000000, 4.000000, 4.000000, 4.000000
81.000000, 0.000000, 4214.358887, 4321.025391, 4213.333008, 4212.307617, 4206.666504, 4204.615234, 4205.127930, 4198.461426, 4195.897461, 4201.025391, 4201.025391, 4180.512695, 4184.102539, 4191.794922, 3450.000000, 8196.000000, 8151.000000, 0.000000, 0.000000, 0.000000, -22281.000000, 30.769230, 4.000000, 4.000000, 4.000000, 4.000000, 4.000000, 4.000000, 4.000000, 4.000000, 4.000000, 4.000000, 4.000000, 4.000000, 4.000000, 4.000000, 4.000000, 4.000000
82.000000, 0.000000, 4214.358887, 4321.538574, 4208.717773, 4206.153809, 4203.076660, 4201.025391, 4205.641113, 4203.589844, 4199.487305, 4200.512695, 4200.512695, 4177.436035, 4185.127930, 4188.205078, 3551.000000, 8196.000000, 8151.000000, 0.000000, 0.000000, 0.000000, -22281.000000, 38.974358, 4.000000, 4.000000, 4.000000, 4.000000, 4.000000, 4.000000, 4.000000, 4.000000, 4.000000, 4.000000, 4.000000, 4.000000, 4.000000, 4.000000, 4.000000, 4.000000
83.000000, 0.000000, 4211.281738, 4314.871582, 4208.205078, 4201.025391, 4198.461426, 4197.436035, 4203.589844, 4200.512695, 4200.512695, 4198.461426, 4200.000000, 4176.410156, 4183.076660, 4191.281738, 1463.000000, 8190.000000, 8149.000000, 0.000000, 0.000000, 0.000000, -22281.000000, 46.666664, 4.000000, 4.000000, 4.000000, 4.000000, 4.000000, 4.000000, 4.000000, 4.000000, 4.000000, 4.000000, 4.000000, 4.000000, 4.000000, 4.000000, 4.000000, 4.000000
84.000000, 0.000000, 4215.897461, 4317.948730, 4216.410156, 4214.358887, 4203.589844, 4196.922852, 4202.563965, 4196.922852, 4201.025391, 4203.076660, 4205.127930, 4184.102539, 4188.717773, 4191.794922, 3466.000000, 8190.000000, 8149.000000, 0.000000, 0.000000, 0.000000, -22281.000000, 54.358974, 4.000000, 4.000000, 4.000000, 4.000000, 4.000000, 4.000000, 4.000000, 4.000000, 4.000000, 4.000000, 4.000000, 4.000000, 4.000000, 4.000000, 4.000000, 4.000000
85.000000, 0.000000, 4213.333008, 4320.000000, 4211.281738, 4218.974121, 4206.153809, 4198.974121, 4205.641113, 4205.127930, 4202.051270, 4206.153809, 4205.641113, 4186.153809, 4191.281738, 4192.820313, 3450.000000, 8187.000000, 8147.000000, 0.000000, 0.000000, 0.000000, -22281.000000, 62.051281, 4.000000, 4.000000, 4.000000, 4.000000, 4.000000, 4.000000, 4.000000, 4.000000, 4.000000, 4.000000, 4.000000, 4.000000, 4.000000, 4.000000, 4.000000, 4.000000
86.000000, 0.000000, 4207.692383, 4312.820313, 4198.974121, 4204.102539, 4200.512695, 4199.487305, 4201.025391, 4207.692383, 4201.538574, 4203.589844, 4196.922852, 4177.948730, 4186.153809, 4189.743652, 3551.000000, 8187.000000, 8147.000000, 0.000000, 0.000000, 0.000000, -22281.000000, 70.256409, 4.000000, 4.000000, 4.000000, 4.000000, 4.000000, 4.000000, 4.000000, 4.000000, 4.000000, 4.000000, 4.000000, 4.000000, 4.000000, 4.000000, 4.000000, 4.000000
87.000000, 0.000000, 4207.692383, 4312.307617, 4198.461426, 4199.487305, 4201.025391, 4199.487305, 4197.436035, 4201.538574, 4201.538574, 4203.589844, 4195.384277, 4175.384277, 4186.153809, 4190.256348, 1463.000000, 8188.000000, 8137.000000, 0.000000, 0.000000, 0.000000, -22281.000000, 77.948715, 4.000000, 4.000000, 4.000000, 4.000000, 4.000000, 4.000000, 4.000000, 4.000000, 4.000000, 4.000000, 4.000000, 4.000000, 4.000000, 4.000000, 4.000000, 4.000000
88.000000, 0.000000, 4203.076660, 4313.846191, 4198.974121, 4203.076660, 4207.179199, 4200.000000, 4204.102539, 4197.948730, 4201.025391, 4204.102539, 4197.436035, 4177.436035, 4187.179199, 4192.307617, 3466.000000, 8188.000000, 8137.000000, 0.000000, 0.000000, 0.000000, -22281.000000, 85.641022, 4.000000, 4.000000, 4.000000, 4.000000, 4.000000, 4.000000, 4.000000, 4.000000, 4.000000, 4.000000, 4.000000, 4.000000, 4.000000, 4.000000, 4.000000, 4.000000
89.000000, 0.000000, 4197.436035, 4311.794922, 4188.717773, 4201.025391, 4205.127930, 4200.000000, 4203.076660, 4201.025391, 4198.974121, 4201.025391, 4190.256348, 4169.230469, 4183.589844, 4186.153809, 3450.000000, 8190.000000, 8139.000000, 0.000000, 0.000000, 0.000000, -22281.000000, 93.846153, 4.000000, 4.000000, 4.000000, 4.000000, 4.000000, 4.000000, 4.000000, 4.000000, 4.000000, 4.000000, 4.000000, 4.000000, 4.000000, 4.000000, 4.000000, 4.000000
90.000000, 0.000000, 4192.820313, 4309.230469, 4180.512695, 4195.897461, 4202.051270, 4199.487305, 4194.871582, 4206.666504, 4200.512695, 4200.000000, 4183.076660, 4157.436035, 4181.538574, 4186.153809, 3551.000000, 8190.000000, 8139.000000, 0.000000, 0.000000, 0.000000, -22281.000000, 101.538460, 4.000000, 4.000000, 4.000000, 4.000000, 4.000000, 4.000000, 4.000000, 4.000000, 4.000000, 4.000000, 4.000000, 4.000000, 4.000000, 4.000000, 4.000000, 4.000000
91.000000, 0.000000, 4197.436035, 4307.179199, 4184.615234, 4197.948730, 4206.153809, 4202.051270, 4196.922852, 4214.871582, 4203.076660, 4203.589844, 4187.692383, 4159.487305, 4184.615234, 4190.769043, 1463.000000, 8185.000000, 8143.000000, 0.000000, 0.000000, 0.000000, -22281.000000, 109.743584, 4.000000, 4.000000, 4.000000, 4.000000, 4.000000, 4.000000, 4.000000, 4.000000, 4.000000, 4.000000, 4.000000, 4.000000, 4.000000, 4.000000, 4.000000, 4.000000
92.000000, 0.000000, 4204.615234, 4307.179199, 4189.743652, 4202.051270, 4204.615234, 4203.589844, 4203.076660, 4216.410156, 4201.538574, 4205.641113, 4191.281738, 4169.230469, 4186.153809, 4197.436035, 3466.000000, 8185.000000, 8143.000000, 0.000000, 0.000000, 0.000000, -22281.000000, 117.435898, 4.000000, 4.000000, 4.000000, 4.000000, 4.000000, 4.000000, 4.000000, 4.000000, 4.000000, 4.000000, 4.000000, 4.000000, 4.000000, 4.000000, 4.000000, 4.000000
93.000000, 0.000000, 4189.230469, 4294.871582, 4184.615234, 4194.871582, 4196.410156, 4201.025391, 4200.512695, 4213.846191, 4200.000000, 4198.461426, 4186.153809, 4169.743652, 4183.589844, 4178.974121, 3450.000000, 8188.000000, 8144.000000, 0.000000, 0.000000, 0.000000, -22281.000000, 125.641022, 4.000000, 4.000000, 4.000000, 4.000000, 4.000000, 4.000000, 4.000000, 4.000000, 4.000000, 4.000000, 4.000000, 4.000000, 4.000000, 4.000000, 4.000000, 4.000000
94.000000, 0.000000, 4178.461426, 4286.153809, 4177.948730, 4192.820313, 4196.922852, 4198.974121, 4195.384277, 4218.974121, 4202.051270, 4188.717773, 4186.153809, 4165.641113, 4179.487305, 4150.256348, 3551.000000, 8188.000000, 8144.000000, 0.000000, 0.000000, 0.000000, -22281.000000, 133.333328, 4.000000, 4.000000, 4.000000, 4.000000, 4.000000, 4.000000, 4.000000, 4.000000, 4.000000, 4.000000, 4.000000, 4.000000, 4.000000, 4.000000, 4.000000, 4.000000
95.000000, 0.000000, 4183.076660, 4294.871582, 4178.461426, 4196.922852, 4201.025391, 4199.487305, 4192.307617, 4217.948730, 4203.589844, 4191.281738, 4188.205078, 4167.179199, 4175.384277, 4164.615234, 1463.000000, 8187.000000, 8148.000000, 0.000000, 0.000000, 0.000000, -22281.000000, 141.025635, 4.000000, 4.000000, 4.000000, 4.000000, 4.000000, 4.000000, 4.000000, 4.000000, 4.000000, 4.000000, 4.000000, 4.000000, 4.000000, 4.000000, 4.000000, 4.000000
96.000000, 0.000000, 4178.974121, 4293.846191, 4172.820313, 4191.794922, 4198.461426, 4198.974121, 4186.153809, 4205.641113, 4199.487305, 4195.384277, 4185.127930, 4162.051270, 4173.333008, 4166.666504, 3466.000000, 8187.000000, 8148.000000, 0.000000, 0.000000, 0.000000, -22281.000000, 148.717941, 4.000000, 4.000000, 4.000000, 4.000000, 4.000000, 4.000000, 4.000000, 4.000000, 4.000000, 4.000000, 4.000000, 4.000000, 4.000000, 4.000000, 4.000000, 4.000000
97.000000, 0.000000, 4183.589844, 4294.871582, 4168.717773, 4184.615234, 4197.948730, 4194.871582, 4183.076660, 4194.358887, 4191.794922, 4189.230469, 4182.563965, 4158.974121, 4177.436035, 4164.102539, 3450.000000, 8189.000000, 8154.000000, 0.000000, 0.000000, 0.000000, -22281.000000, 156.923080, 4.000000, 4.000000, 4.000000, 4.000000, 4.000000, 4.000000, 4.000000, 4.000000, 4.000000, 4.000000, 4.000000, 4.000000, 4.000000, 4.000000, 4.000000, 4.000000
98.000000, 0.000000, 4192.307617, 4301.538574, 4176.922852, 4185.641113, 4201.025391, 4188.717773, 4185.641113, 4192.307617, 4187.179199, 4186.666504, 4187.179199, 4166.666504, 4183.589844, 4182.051270, 3551.000000, 8189.000000, 8154.000000, 0.000000, 0.000000, 0.000000, -22281.000000, 164.615387, 4.000000, 4.000000, 4.000000, 4.000000, 4.000000, 4.000000, 4.000000, 4.000000, 4.000000, 4.000000, 4.000000, 4.000000, 4.000000, 4.000000, 4.000000, 4.000000
99.000000, 0.000000, 4194.358887, 4302.563965, 4187.692383, 4192.307617, 4192.820313, 4190.256348, 4185.127930, 4195.897461, 4185.641113, 4188.205078, 4185.641113, 4170.769043, 4181.538574, 4181.025391, 1463.000000, 8189.000000, 8148.000000, 0.000000, 0.000000, 0.000000, -22281.000000, 172.820511, 4.000000, 4.000000, 4.000000, 4.000000, 4.000000, 4.000000, 4.000000, 4.000000, 4.000000, 4.000000, 4.000000, 4.000000, 4.000000, 4.000000, 4.000000, 4.000000
100.000000, 0.000000, 4193.846191, 4304.615234, 4191.794922, 4199.487305, 4183.589844, 4196.410156, 4186.153809, 4197.948730, 4190.769043, 4190.256348, 4175.897461, 4160.512695, 4171.794922, 4178.974121, 3466.000000, 8189.000000, 8148.000000, 0.000000, 0.000000, 0.000000, -22281.000000, 180.512817, 4.000000, 4.000000, 4.000000, 4.000000, 4.000000, 4.000000, 4.000000, 4.000000, 4.000000, 4.000000, 4.000000, 4.000000, 4.000000, 4.000000, 4.000000, 4.000000
101.000000, 0.000000, 4190.256348, 4305.641113, 4182.563965, 4200.512695, 4193.846191, 4200.000000, 4191.281738, 4203.076660, 4202.051270, 4194.871582, 4172.307617, 4150.256348, 4168.717773, 4180.000000, 3450.000000, 8183.000000, 8158.000000, 0.000000, 0.000000, 0.000000, -22281.000000, 188.717941, 4.000000, 4.000000, 4.000000, 4.000000, 4.000000, 4.000000, 4.000000, 4.000000, 4.000000, 4.000000, 4.000000, 4.000000, 4.000000, 4.000000, 4.000000, 4.000000
102.000000, 0.000000, 4193.333008, 4313.333008, 4171.794922, 4191.794922, 4204.102539, 4202.563965, 4200.512695, 4215.897461, 4206.666504, 4195.897461, 4175.897461, 4153.333008, 4174.871582, 4185.641113, 3551.000000, 8183.000000, 8158.000000, 0.000000, 0.000000, 0.000000, -22281.000000, 196.410248, 4.000000, 4.000000, 4.000000, 4.000000, 4.000000, 4.000000, 4.000000, 4.000000, 4.000000, 4.000000, 4.000000, 4.000000, 4.000000, 4.000000, 4.000000, 4.000000
103.000000, 0.000000, 4191.281738, 4314.871582, 4168.717773, 4187.692383, 4200.000000, 4204.102539, 4205.641113, 4214.871582, 4201.025391, 4191.281738, 4178.461426, 4155.897461, 4172.820313, 4189.230469, 1463.000000, 8185.000000, 8164.000000, 0.000000, 0.000000, 0.000000, -22281.000000, 204.102554, 4.000000, 4.000000, 4.000000, 4.000000, 4.000000, 4.000000, 4.000000, 4.000000, 4.000000, 4.000000, 4.000000, 4.000000, 4.000000, 4.000000, 4.000000, 4.000000
104.000000, 0.000000, 4193.333008, 4308.205078, 4174.358887, 4192.307617, 4200.000000, 4201.538574, 4198.974121, 4201.538574, 4197.948730, 4192.307617, 4180.000000, 4153.846191, 4169.230469, 4185.641113, 3466.000000, 8185.000000, 8164.000000, 0.000000, 0.000000, 0.000000, -22281.000000, 212.307693, 4.000000, 4.000000, 4.000000, 4.000000, 4.000000, 4.000000, 4.000000, 4.000000, 4.000000, 4.000000, 4.000000, 4.000000, 4.000000, 4.000000, 4.000000, 4.000000
105.000000, 0.000000, 4199.487305, 4310.256348, 4183.076660, 4198.461426, 4204.615234, 4198.461426, 4194.871582, 4205.641113, 4202.051270, 4195.897461, 4182.051270, 4161.538574, 4176.922852, 4195.897461, 3450.000000, 8185.000000, 8172.000000, 0.000000, 0.000000, 0.000000, -22281.000000, 220.000000, 4.000000, 4.000000, 4.000000, 4.000000, 4.000000, 4.000000, 4.000000, 4.000000, 4.000000, 4.000000, 4.000000, 4.000000, 4.000000, 4.000000, 4.000000, 4.000000
106.000000, 0.000000, 4197.436035, 4308.205078, 4184.615234, 4203.076660, 4203.589844, 4202.051270, 4199.487305, 4220.512695, 4205.127930, 4197.436035, 4187.179199, 4170.769043, 4185.641113, 4188.717773, 3551.000000, 8185.000000, 8172.000000, 0.000000, 0.000000, 0.000000, -22281.000000, 228.205124, 4.000000, 4.000000, 4.000000, 4.000000, 4.000000, 4.000000, 4.000000, 4.000000, 4.000000, 4.000000, 4.000000, 4.000000, 4.000000, 4.000000, 4.000000, 4.000000
107.000000, 0.000000, 4204.102539, 4309.230469, 4182.563965, 4202.563965, 4206.666504, 4210.256348, 4204.102539, 4218.461426, 4210.256348, 4201.538574, 4194.358887, 4171.794922, 4187.692383, 4184.615234, 1463.000000, 8184.000000, 8174.000000, 0.000000, 0.000000, 0.000000, -22281.000000, 235.897430, 4.000000, 4.000000, 4.000000, 4.000000, 4.000000, 4.000000, 4.000000, 4.000000, 4.000000, 4.000000, 4.000000, 4.000000, 4.000000, 4.000000, 4.000000, 4.000000
108.000000, 0.000000, 4210.256348, 4316.410156, 4183.589844, 4204.615234, 4215.384277, 4214.871582, 4204.102539, 4212.307617, 4215.384277, 4208.205078, 4200.000000, 4175.897461, 4194.871582, 4197.436035, 3466.000000, 8184.000000, 8174.000000, 0.000000, 0.000000, 0.000000, -22281.000000, 243.589737, 4.000000, 4.000000, 4.000000, 4.000000, 4.000000, 4.000000, 4.000000, 4.000000, 4.000000, 4.000000, 4.000000, 4.000000, 4.000000, 4.000000, 4.000000, 4.000000
109.000000, 0.000000, 4213.846191, 4323.589844, 4188.717773, 4214.358887, 4219.487305, 4216.922852, 4203.589844, 4219.487305, 4220.512695, 4220.000000, 4207.692383, 4186.666504, 4207.179199, 4196.922852, 3450.000000, 8188.000000, 8174.000000, 0.000000, 0.000000, 0.000000, -22281.000000, 251.794861, 4.000000, 4.000000, 4.000000, 4.000000, 4.000000, 4.000000, 4.000000, 4.000000, 4.000000, 4.000000, 4.000000, 4.000000, 4.000000, 4.000000, 4.000000, 4.000000
110.000000, 0.000000, 4214.871582, 4325.641113, 4193.846191, 4217.436035, 4218.461426, 4217.436035, 4204.615234, 4223.589844, 4221.538574, 4223.076660, 4209.743652, 4183.589844, 4207.179199, 4198.461426, 3551.000000, 8188.000000, 8174.000000, 0.000000, 0.000000, 0.000000, -22281.000000, 259.487183, 4.000000, 4.000000, 4.000000, 4.000000, 4.000000, 4.000000, 4.000000, 4.000000, 4.000000, 4.000000, 4.000000, 4.000000, 4.000000, 4.000000, 4.000000, 4.000000
111.000000, 0.000000, 4208.205078, 4319.487305, 4191.794922, 4210.769043, 4217.436035, 4212.820313, 4202.051270, 4217.436035, 4218.461426, 4210.769043, 4199.487305, 4168.205078, 4197.948730, 4196.410156, 1463.000000, 8187.000000, 8174.000000, 0.000000, 0.000000, 0.000000, -22281.000000, 267.179474, 4.000000, 4.000000, 4.000000, 4.000000, 4.000000, 4.000000, 4.000000, 4.000000, 4.000000, 4.000000, 4.000000, 4.000000, 4.000000, 4.000000, 4.000000, 4.000000
112.000000, 0.000000, 4209.230469, 4321.025391, 4190.256348, 4212.307617, 4216.922852, 4202.563965, 4200.512695, 4216.922852, 4219.487305, 4211.281738, 4195.897461, 4165.127930, 4197.948730, 4188.717773, 3466.000000, 8187.000000, 8174.000000, 0.000000, 0.000000, 0.000000, -22281.000000, 274.871796, 4.000000, 4.000000, 4.000000, 4.000000, 4.000000, 4.000000, 4.000000, 4.000000, 4.000000, 4.000000, 4.000000, 4.000000, 4.000000, 4.000000, 4.000000, 4.000000
113.000000, 0.000000, 4215.384277, 4332.820313, 4191.794922, 4215.384277, 4215.384277, 4200.512695, 4203.589844, 4218.461426, 4215.897461, 4217.436035, 4202.051270, 4171.281738, 4202.563965, 4197.948730, 3450.000000, 8182.000000, 8170.000000, 0.000000, 0.000000, 0.000000, -22281.000000, 283.076904, 4.000000, 4.000000, 4.000000, 4.000000, 4.000000, 4.000000, 4.000000, 4.000000, 4.000000, 4.000000, 4.000000, 4.000000, 4.000000, 4.000000, 4.000000, 4.000000
114.000000, 0.000000, 4213.846191, 4329.743652, 4190.769043, 4208.205078, 4214.871582, 4209.230469, 4201.025391, 4215.897461, 4208.205078, 4210.256348, 4202.051270, 4168.205078, 4202.051270, 4196.922852, 3551.000000, 8182.000000, 8170.000000, 0.000000, 0.000000, 0.000000, -22281.000000, 291.282043, 4.000000, 4.000000, 4.000000, 4.000000, 4.000000, 4.000000, 4.000000, 4.000000, 4.000000, 4.000000, 4.000000, 4.000000, 4.000000, 4.000000, 4.000000, 4.000000
115.000000, 0.000000, 4205.641113, 4322.563965, 4184.102539, 4201.025391, 4216.410156, 4215.384277, 4201.025391, 4217.436035, 4215.384277, 4208.717773, 4200.000000, 4164.615234, 4204.615234, 4185.127930, 1463.000000, 8184.000000, 8170.000000, 0.000000, 0.000000, 0.000000, -22281.000000, 298.974365, 4.000000, 4.000000, 4.000000, 4.000000, 4.000000, 4.000000, 4.000000, 4.000000, 4.000000, 4.000000, 4.000000, 4.000000, 4.000000, 4.000000, 4.000000, 4.000000
116.000000, 0.000000, 4223.589844, 4345.641113, 4194.871582, 4208.717773, 4217.948730, 4219.487305, 4211.794922, 4222.563965, 4224.102539, 4216.410156, 4204.102539, 4175.897461, 4209.230469, 4215.384277, 3466.000000, 8184.000000, 8170.000000, 0.000000, 0.000000, 0.000000, -22281.000000, 306.666656, 4.000000, 4.000000, 4.000000, 4.000000, 4.000000, 4.000000, 4.000000, 4.000000, 4.000000, 4.000000, 4.000000, 4.000000, 4.000000, 4.000000, 4.000000, 4.000000
117.000000, 0.000000, 4228.205078, 4351.794922, 4208.205078, 4215.897461, 4219.487305, 4217.436035, 4210.769043, 4216.410156, 4215.897461, 4215.384277, 4205.127930, 4184.615234, 4208.205078, 4225.641113, 3450.000000, 8187.000000, 8172.000000, 0.000000, 0.000000, 0.000000, -22281.000000, 314.871796, 4.000000, 4.000000, 4.000000, 4.000000, 4.000000, 4.000000, 4.000000, 4.000000, 4.000000, 4.000000, 4.000000, 4.000000, 4.000000, 4.000000, 4.000000, 4.000000
118.000000, 0.000000, 4197.948730, 4328.717773, 4197.948730, 4207.179199, 4216.922852, 4206.666504, 4198.461426, 4207.179199, 4203.589844, 4203.076660, 4201.538574, 4178.461426, 4203.076660, 4185.127930, 3551.000000, 8187.000000, 8172.000000, 0.000000, 0.000000, 0.000000, -22281.000000, 322.564087, 4.000000, 4.000000, 4.000000, 4.000000, 4.000000, 4.000000, 4.000000, 4.000000, 4.000000, 4.000000, 4.000000, 4.000000, 4.000000, 4.000000, 4.000000, 4.000000
119.000000, 0.000000, 4199.487305, 4333.846191, 4195.897461, 4197.948730, 4208.717773, 4198.974121, 4196.922852, 4200.000000, 4194.358887, 4192.307617, 4194.358887, 4171.281738, 4196.922852, 4185.127930, 1463.000000, 8185.000000, 8169.000000, 0.000000, 0.000000, 0.000000, -22281.000000, 330.256409, 4.000000, 4.000000, 4.000000, 4.000000, 4.000000, 4.000000, 4.000000, 4.000000, 4.000000, 4.000000, 4.000000, 4.000000, 4.000000, 4.000000, 4.000000, 4.000000
120.000000, 0.000000, 4208.205078, 4340.000000, 4202.563965, 4196.922852, 4209.743652, 4202.563965, 4198.974121, 4190.256348, 4185.127930, 4189.743652, 4191.281738, 4172.820313, 4191.794922, 4200.512695, 3466.000000, 8185.000000, 8169.000000, 0.000000, 0.000000, 0.000000, -22281.000000, 337.948700, 4.000000, 4.000000, 4.000000, 4.000000, 4.000000, 4.000000, 4.000000, 4.000000, 4.000000, 4.000000, 4.000000, 4.000000, 4.000000, 4.000000, 4.000000, 4.000000
121.000000, 0.000000, 4199.487305, 4331.281738, 4195.897461, 4192.307617, 4213.333008, 4205.641113, 4195.897461, 4184.102539, 4181.538574, 4183.589844, 4185.641113, 4172.820313, 4180.512695, 4190.769043, 3450.000000, 8190.000000, 8175.000000, 0.000000, 0.000000, 0.000000, -22281.000000, 346.153839, 4.000000, 4.000000, 4.000000, 4.000000, 4.000000, 4.000000, 4.000000, 4.000000, 4.000000, 4.000000, 4.000000, 4.000000, 4.000000, 4.000000, 4.000000, 4.000000
122.000000, 0.000000, 4192.307617, 4325.641113, 4185.127930, 4181.538574, 4205.641113, 4204.102539, 4194.871582, 4183.076660, 4178.974121, 4172.307617, 4171.794922, 4163.589844, 4164.615234, 4186.153809, 3551.000000, 8190.000000, 8175.000000, 0.000000, 0.000000, 0.000000, -22281.000000, 353.846130, 4.000000, 4.000000, 4.000000, 4.000000, 4.000000, 4.000000, 4.000000, 4.000000, 4.000000, 4.000000, 4.000000, 4.000000, 4.000000, 4.000000, 4.000000, 4.000000
123.000000, 0.000000, 4184.102539, 4320.000000, 4178.974121, 4176.922852, 4198.974121, 4204.102539, 4201.025391, 4187.692383, 4184.102539, 4174.358887, 4169.743652, 4161.025391, 4163.076660, 4191.794922, 1463.000000, 8194.000000, 8170.000000, 0.000000, 0.000000, 0.000000, -22281.000000, 362.051270, 4.000000, 4.000000, 4.000000, 4.000000, 4.000000, 4.000000, 4.000000, 4.000000, 4.000000, 4.000000, 4.000000, 4.000000, 4.000000, 4.000000, 4.000000, 4.000000
124.000000, 0.000000, 4190.256348, 4322.051270, 4183.589844, 4181.538574, 4201.538574, 4205.127930, 4206.666504, 4197.948730, 4199.487305, 4188.717773, 4182.051270, 4166.153809, 4174.871582, 4195.897461, 3466.000000, 8194.000000, 8170.000000, 0.000000, 0.000000, 0.000000, -22281.000000, 369.743591, 4.000000, 4.000000, 4.000000, 4.000000, 4.000000, 4.000000, 4.000000, 4.000000, 4.000000, 4.000000, 4.000000, 4.000000, 4.000000, 4.000000, 4.000000, 4.000000
125.000000, 0.000000, 4199.487305, 4328.205078, 4194.871582, 4190.769043, 4203.589844, 4204.615234, 4204.615234, 4202.563965, 4201.538574, 4198.974121, 4189.743652, 4171.281738, 4187.179199, 4195.384277, 3450.000000, 8196.000000, 8170.000000, 0.000000, 0.000000, 0.000000, -22281.000000, 377.948700, 4.000000, 4.000000, 4.000000, 4.000000, 4.000000, 4.000000, 4.000000, 4.000000, 4.000000, 4.000000, 4.000000, 4.000000, 4.000000, 4.000000, 4.000000, 4.000000
126.000000, 0.000000, 4201.025391, 4330.769043, 4205.127930, 4197.436035, 4201.538574, 4200.512695, 4200.512695, 4192.820313, 4187.692383, 4197.948730, 4191.281738, 4177.948730, 4193.846191, 4198.461426, 3551.000000, 8196.000000, 8170.000000, 0.000000, 0.000000, 0.000000, -22281.000000, 385.641022, 4.000000, 4.000000, 4.000000, 4.000000, 4.000000, 4.000000, 4.000000, 4.000000, 4.000000, 4.000000, 4.000000, 4.000000, 4.000000, 4.000000, 4.000000, 4.000000
127.000000, 0.000000, 4199.487305, 4329.230469, 4202.051270, 4192.820313, 4200.512695, 4196.410156, 4196.410156, 4184.615234, 4182.051270, 4190.256348, 4191.281738, 4179.487305, 4193.846191, 4196.922852, 55.000000, 8193.000000, 8161.000000, 0.000000, 0.000000, 0.000000, -22281.000000, 393.333313, 4.000000, 4.000000, 4.000000, 4.000000, 4.000000, 4.000000, 4.000000, 4.000000, 4.000000, 4.000000, 4.000000, 4.000000, 4.000000, 4.000000, 4.000000, 4.000000
0.000000, 0.000000, 4188.717773, 4326.153809, 4190.769043, 4183.589844, 4198.461426, 4197.948730, 4191.794922, 4190.769043, 4190.256348, 4188.205078, 4188.205078, 4170.256348, 4186.153809, 4194.871582, 3320.000000, 8193.000000, 8161.000000, 0.000000, 0.000000, 0.000000, -22281.000000, 401.025635, 4.000000, 4.000000, 4.000000, 4.000000, 4.000000, 4.000000, 4.000000, 4.000000, 4.000000, 4.000000, 4.000000, 4.000000, 4.000000, 4.000000, 4.000000, 4.000000
1.000000, 0.000000, 4190.256348, 4326.153809, 4191.794922, 4188.205078, 4200.000000, 4200.000000, 4194.871582, 4200.000000, 4198.974121, 4199.487305, 4188.717773, 4169.230469, 4181.538574, 4191.794922, 3488.000000, 8196.000000, 8161.000000, 0.000000, 0.000000, 0.000000, -22281.000000, 409.230774, 4.000000, 4.000000, 4.000000, 4.000000, 4.000000, 4.000000, 4.000000, 4.000000, 4.000000, 4.000000, 4.000000, 4.000000, 4.000000, 4.000000, 4.000000, 4.000000
2.000000, 0.000000, 4204.102539, 4330.256348, 4202.051270, 4202.051270, 4204.102539, 4199.487305, 4205.127930, 4201.538574, 4205.641113, 4208.205078, 4197.436035, 4183.589844, 4192.820313, 4193.333008, 2742.000000, 8196.000000, 8161.000000, 0.000000, 0.000000, 0.000000, -22281.000000, 416.923065, 4.000000, 4.000000, 4.000000, 4.000000, 4.000000, 4.000000, 4.000000, 4.000000, 4.000000, 4.000000, 4.000000, 4.000000, 4.000000, 4.000000, 4.000000, 4.000000
3.000000, 0.000000, 4205.641113, 4329.743652, 4204.615234, 4202.051270, 4203.076660, 4201.025391, 4204.615234, 4195.897461, 4203.589844, 4203.589844, 4202.051270, 4190.256348, 4201.025391, 4200.512695, 2020.000000, 8200.000000, 8150.000000, 0.000000, 0.000000, 0.000000, -22281.000000, 425.128204, 4.000000, 4.000000, 4.000000, 4.000000, 4.000000, 4.000000, 4.000000, 4.000000, 4.000000, 4.000000, 4.000000, 4.000000, 4.000000, 4.000000, 4.000000, 4.000000
4.000000, 0.000000, 4197.436035, 4322.051270, 4199.487305, 4191.794922, 4202.051270, 4199.487305, 4190.769043, 4196.922852, 4194.358887, 4197.948730, 4197.436035, 4181.025391, 4191.794922, 4196.410156, 3513.000000, 8200.000000, 8150.000000, 0.000000, 0.000000, 0.000000, -22281.000000, 432.820496, 4.000000, 4.000000, 4.000000, 4.000000, 4.000000, 4.000000, 4.000000, 4.000000, 4.000000, 4.000000, 4.000000, 4.000000, 4.000000, 4.000000, 4.000000, 4.000000
5.000000, 0.000000, 4191.281738, 4313.846191, 4189.743652, 4185.127930, 4196.922852, 4188.205078, 4184.615234, 4199.487305, 4188.717773, 4194.871582, 4188.205078, 4172.307617, 4182.563965, 4192.307617, 3534.000000, 8198.000000, 8145.000000, 0.000000, 0.000000, 0.000000, -22281.000000, 440.512817, 4.000000, 4.000000, 4.000000, 4.000000, 4.000000, 4.000000, 4.000000, 4.000000, 4.000000, 4.000000, 4.000000, 4.000000, 4.000000, 4.000000, 4.000000, 4.000000
6.000000, 0.000000, 4189.743652, 4307.692383, 4185.127930, 4183.076660, 4187.179199, 4181.538574, 4186.153809, 4187.692383, 4186.153809, 4189.230469, 4182.051270, 4168.717773, 4183.076660, 4192.820313, 3047.000000, 8198.000000, 8145.000000, 0.000000, 0.000000, 0.000000, -22281.000000, 448.717926, 4.000000, 4.000000, 4.000000, 4.000000, 4.000000, 4.000000, 4.000000, 4.000000, 4.000000, 4.000000, 4.000000, 4.000000, 4.000000, 4.000000, 4.000000, 4.000000
7.000000, 0.000000, 4192.307617, 4311.794922, 4193.846191, 4182.563965, 4189.230469, 4186.666504, 4184.102539, 4181.025391, 4186.666504, 4185.127930, 4186.153809, 4170.256348, 4187.179199, 4194.871582, 3511.000000, 8195.000000, 8142.000000, 0.000000, 0.000000, 0.000000, -22281.000000, 456.410248, 4.000000, 4.000000, 4.000000, 4.000000, 4.000000, 4.000000, 4.000000, 4.000000, 4.000000, 4.000000, 4.000000, 4.000000, 4.000000, 4.000000, 4.000000, 4.000000
8.000000, 0.000000, 4193.333008, 4318.461426, 4196.922852, 4184.615234, 4198.461426, 4185.641113, 4178.974121, 4186.666504, 4186.666504, 4184.615234, 4189.230469, 4169.230469, 4186.666504, 4197.436035, 3513.000000, 8195.000000, 8142.000000, 0.000000, 0.000000, 0.000000, -22281.000000, 464.102539, 4.000000, 4.000000, 4.000000, 4.000000, 4.000000, 4.000000, 4.000000, 4.000000, 4.000000, 4.000000, 4.000000, 4.000000, 4.000000, 4.000000, 4.000000, 4.000000
9.000000, 0.000000, 4196.922852, 4314.871582, 4193.846191, 4184.102539, 4197.436035, 4183.076660, 4178.974121, 4184.102539, 4183.589844, 4186.666504, 4186.153809, 4165.127930, 4183.589844, 4194.871582, 3540.000000, 8198.000000, 8144.000000, 0.000000, 0.000000, 0.000000, -22281.000000, 472.307678, 4.000000, 4.000000, 4.000000, 4.000000, 4.000000, 4.000000, 4.000000, 4.000000, 4.000000, 4.000000, 4.000000, 4.000000, 4.000000, 4.000000, 4.000000, 4.000000
10.000000, 0.000000, 4200.512695, 4316.410156, 4199.487305, 4186.153809, 4196.410156, 4191.281738, 4187.179199, 4174.358887, 4183.076660, 4188.717773, 4187.179199, 4170.769043, 4185.641113, 4198.461426, 3549.000000, 8198.000000, 8144.000000, 0.000000, 0.000000, 0.000000, -22281.000000, 480.000000, 4.000000, 4.000000, 4.000000, 4.000000, 4.000000, 4.000000, 4.000000, 4.000000, 4.000000, 4.000000, 4.000000, 4.000000, 4.000000, 4.000000, 4.000000, 4.000000
11.000000, 0.000000, 4202.051270, 4322.563965, 4200.000000, 4189.230469, 4204.102539, 4193.846191, 4187.692383, 4171.794922, 4184.102539, 4191.281738, 4194.358887, 4177.948730, 4191.794922, 4200.000000, 1464.000000, 8192.000000, 8152.000000, 0.000000, 0.000000, 0.000000, -22281.000000, 488.205109, 4.000000, 4.000000, 4.000000, 4.000000, 4.000000, 4.000000, 4.000000, 4.000000, 4.000000, 4.000000, 4.000000, 4.000000, 4.000000, 4.000000, 4.000000, 4.000000
12.000000, 0.000000, 4206.666504, 4321.538574, 4193.333008, 4186.153809, 4203.589844, 4183.589844, 4178.461426, 4175.897461, 4187.179199, 4195.897461, 4200.512695, 4173.846191, 4192.307617, 4195.897461, 3471.000000, 8192.000000, 8152.000000, 0.000000, 0.000000, 0.000000, -22281.000000, 495.897430, 4.000000, 4.000000, 4.000000, 4.000000, 4.000000, 4.000000, 4.000000, 4.000000, 4.000000, 4.000000, 4.000000, 4.000000, 4.000000, 4.000000, 4.000000, 4.000000
13.000000, 0.000000, 4205.127930, 4320.000000, 4188.717773, 4182.563965, 4197.436035, 4182.563965, 4181.025391, 4183.589844, 4195.897461, 4201.538574, 4201.025391, 4169.743652, 4189.230469, 4197.948730, 3450.000000, 8188.000000, 8161.000000, 0.000000, 0.000000, 0.000000, -22281.000000, 504.102539, 4.000000, 4.000000, 4.000000, 4.000000, 4.000000, 4.000000, 4.000000, 4.000000, 4.000000, 4.000000, 4.000000, 4.000000, 4.000000, 4.000000, 4.000000, 4.000000
14.000000, 0.000000, 4201.538574, 4317.436035, 4189.743652, 4186.666504, 4200.512695, 4193.333008, 4189.743652, 4188.717773, 4200.512695, 4200.000000, 4195.897461, 4172.820313, 4188.717773, 4194.358887, 3549.000000, 8188.000000, 8161.000000, 0.000000, 0.000000, 0.000000, -22281.000000, 511.794861, 4.000000, 4.000000, 4.000000, 4.000000, 4.000000, 4.000000, 4.000000, 4.000000, 4.000000, 4.000000, 4.000000, 4.000000, 4.000000, 4.000000, 4.000000, 4.000000
15.000000, 0.000000, 4203.076660, 4316.922852, 4194.871582, 4188.205078, 4206.153809, 4194.358887, 4184.102539, 4178.974121, 4191.281738, 4192.820313, 4195.384277, 4175.897461, 4187.692383, 4193.846191, 1464.000000, 8185.000000, 8164.000000, 0.000000, 0.000000, 0.000000, -22281.000000, 520.000000, 4.000000, 4.000000, 4.000000, 4.000000, 4.000000, 4.000000, 4.000000, 4.000000, 4.000000, 4.000000, 4.000000, 4.000000, 4.000000, 4.000000, 4.000000, 4.000000
16.000000, 0.000000, 4206.666504, 4321.025391, 4198.461426, 4188.717773, 4205.641113, 4186.666504, 4177.436035, 4167.179199, 4185.127930, 4193.846191, 4197.948730, 4174.358887, 4185.641113, 4196.922852, 0.000000, 8185.000000, 8164.000000, 0.000000, 0.000000, 0.000000, -22281.000000, 527.692322, 4.000000, 4.000000, 4.000000, 4.000000, 4.000000, 4.000000, 4.000000, 4.000000, 4.000000, 4.000000, 4.000000, 4.000000, 4.000000, 4.000000, 4.000000, 4.000000
17.000000, 0.000000, 4207.179199, 4321.538574, 4197.436035, 4189.230469, 4205.127930, 4187.692383, 4179.487305, 4170.256348, 4185.641113, 4197.948730, 4192.820313, 4171.794922, 4182.563965, 4193.333008, 0.000000, 8188.000000, 8161.000000, 0.000000, 0.000000, 0.000000, -22281.000000, 535.897400, 4.000000, 4.000000, 4.000000, 4.000000, 4.000000, 4.000000, 4.000000, 4.000000, 4.000000, 4.000000, 4.000000, 4.000000, 4.000000, 4.000000, 4.000000, 4.000000
18.000000, 0.000000, 4203.589844, 4320.512695, 4194.358887, 4187.179199, 4207.179199, 4193.846191, 4178.974121, 4180.512695, 4182.563965, 4197.436035, 4185.127930, 4169.743652, 4173.333008, 4194.358887, 0.000000, 8188.000000, 8161.000000, 0.000000, 0.000000, 0.000000, -22281.000000, 543.589722, 4.000000, 4.000000, 4.000000, 4.000000, 4.000000, 4.000000, 4.000000, 4.000000, 4.000000, 4.000000, 4.000000, 4.000000, 4.000000, 4.000000, 4.000000, 4.000000
19.000000, 0.000000, 4208.205078, 4324.615234, 4192.820313, 4191.281738, 4206.666504, 4194.358887, 4178.974121, 4185.641113, 4183.589844, 4195.897461, 4188.205078, 4166.153809, 4169.743652, 4191.794922, 0.000000, 8193.000000, 8159.000000, 0.000000, 0.000000, 0.000000, -22281.000000, 551.282043, 4.000000, 4.000000, 4.000000, 4.000000, 4.000000, 4.000000, 4.000000, 4.000000, 4.000000, 4.000000, 4.000000, 4.000000, 4.000000, 4.000000, 4.000000, 4.000000
20.000000, 0.000000, 4207.692383, 4322.563965, 4188.717773, 4195.897461, 4202.563965, 4189.230469, 4187.179199, 4188.205078, 4189.743652, 4193.846191, 4187.692383, 4162.051270, 4172.820313, 4192.307617, 0.000000, 8193.000000, 8159.000000, 0.000000, 0.000000, 0.000000, -22281.000000, 558.974365, 4.000000, 4.000000, 4.000000, 4.000000, 4.000000, 4.000000, 4.000000, 4.000000, 4.000000, 4.000000, 4.000000, 4.000000, 4.000000, 4.000000, 4.000000, 4.000000
21.000000, 0.000000, 4198.974121, 4312.307617, 4186.153809, 4190.256348, 4198.461426, 4185.641113, 4187.692383, 4183.589844, 4182.563965, 4182.051270, 4172.820313, 4154.358887, 4164.102539, 4193.846191, 0.000000, 8199.000000, 8156.000000, 0.000000, 0.000000, 0.000000, -22281.000000, 567.179443, 4.000000, 4.000000, 4.000000, 4.000000, 4.000000, 4.000000, 4.000000, 4.000000, 4.000000, 4.000000, 4.000000, 4.000000, 4.000000, 4.000000, 4.000000, 4.000000
22.000000, 0.000000, 4198.461426, 4310.256348, 4185.641113, 4183.589844, 4197.436035, 4184.102539, 4176.922852, 4174.358887, 4173.846191, 4170.769043, 4162.051270, 4147.692383, 4151.794922, 4187.692383, 0.000000, 8199.000000, 8156.000000, 0.000000, 0.000000, 0.000000, -22281.000000, 574.871765, 4.000000, 4.000000, 4.000000, 4.000000, 4.000000, 4.000000, 4.000000, 4.000000, 4.000000, 4.000000, 4.000000, 4.000000, 4.000000, 4.000000, 4.000000, 4.000000
23.000000, 0.000000, 4202.563965, 4316.410156, 4188.717773, 4186.153809, 4199.487305, 4185.127930, 4176.922852, 4173.333008, 4178.461426, 4172.820313, 4164.615234, 4150.769043, 4150.769043, 4188.205078, 0.000000, 8200.000000, 8158.000000, 0.000000, 0.000000, 0.000000, -22281.000000, 583.076904, 4.000000, 4.000000, 4.000000, 4.000000, 4.000000, 4.000000, 4.000000, 4.000000, 4.000000, 4.000000, 4.000000, 4.000000, 4.000000, 4.000000, 4.000000, 4.000000
24.000000, 0.000000, 4210.256348, 4318.461426, 4197.948730, 4194.358887, 4201.538574, 4186.153809, 4177.948730, 4175.897461, 4180.512695, 4182.563965, 4173.846191, 4163.076660, 4155.897461, 4190.769043, 0.000000, 8200.000000, 8158.000000, 0.000000, 0.000000, 0.000000, -22281.000000, 590.769226, 4.000000, 4.000000, 4.000000, 4.000000, 4.000000, 4.000000, 4.000000, 4.000000, 4.000000, 4.000000, 4.000000, 4.000000, 4.000000, 4.000000, 4.000000, 4.000000
25.000000, 0.000000, 4214.871582, 4317.436035, 4203.076660, 4198.974121, 4202.051270, 4188.205078, 4177.436035, 4174.358887, 4180.000000, 4189.230469, 4185.641113, 4172.307617, 4163.589844, 4195.897461, 0.000000, 8201.000000, 8161.000000, 0.000000, 0.000000, 0.000000, -22281.000000, 598.974365, 4.000000, 4.000000, 4.000000, 4.000000, 4.000000, 4.000000, 4.000000, 4.000000, 4.000000, 4.000000, 4.000000, 4.000000, 4.000000, 4.000000, 4.000000, 4.000000
26.000000, 0.000000, 4213.846191, 4312.307617, 4197.436035, 4194.358887, 4203.076660, 4189.230469, 4176.922852, 4172.307617, 4181.538574, 4186.666504, 4188.717773, 4171.281738, 4169.743652, 4200.000000, 0.000000, 8201.000000, 8161.000000, 0.000000, 0.000000, 0.000000, -22281.000000, 606.666626, 4.000000, 4.000000, 4.000000, 4.000000, 4.000000, 4.000000, 4.000000, 4.000000, 4.000000, 4.000000, 4.000000, 4.000000, 4.000000, 4.000000, 4.000000, 4.000000
27.000000, 0.000000, 4211.794922, 4307.179199, 4194.871582, 4185.127930, 4198.974121, 4181.025391, 4172.307617, 4170.256348, 4177.436035, 4184.102539, 4180.000000, 4166.153809, 4166.153809, 4192.307617, 0.000000, 8207.000000, 8160.000000, 0.000000, 0.000000, 0.000000, -22281.000000, 614.358948, 4.000000, 4.000000, 4.000000, 4.000000, 4.000000, 4.000000, 4.000000, 4.000000, 4.000000, 4.000000, 4.000000, 4.000000, 4.000000, 4.000000, 4.000000, 4.000000
28.000000, 0.000000, 4209.743652, 4308.717773, 4200.000000, 4185.641113, 4194.358887, 4174.358887, 4172.307617, 4166.153809, 4170.256348, 4184.102539, 4178.461426, 4168.717773, 4162.563965, 4191.794922, 0.000000, 8207.000000, 8160.000000, 0.000000, 0.000000, 0.000000, -22281.000000, 622.051270, 4.000000, 4.000000, 4.000000, 4.000000, 4.000000, 4.000000, 4.000000, 4.000000, 4.000000, 4.000000, 4.000000, 4.000000, 4.000000, 4.000000, 4.000000, 4.000000
29.000000, 0.000000, 4212.307617, 4309.230469, 4199.487305, 4189.743652, 4197.948730, 4180.000000, 4178.974121, 4165.641113, 4171.794922, 4183.076660, 4183.589844, 4171.281738, 4167.692383, 4193.333008, 0.000000, 8205.000000, 8159.000000, 0.000000, 0.000000, 0.000000, -22281.000000, 630.256409, 4.000000, 4.000000, 4.000000, 4.000000, 4.000000, 4.000000, 4.000000, 4.000000, 4.000000, 4.000000, 4.000000, 4.000000, 4.000000, 4.000000, 4.000000, 4.000000
30.000000, 0.000000, 4211.794922, 4305.127930, 4193.333008, 4187.179199, 4198.974121, 4185.127930, 4186.153809, 4170.256348, 4178.974121, 4180.000000, 4183.076660, 4166.153809, 4169.743652, 4194.871582, 0.000000, 8205.000000, 8159.000000, 0.000000, 0.000000, 0.000000, -22281.000000, 637.948730, 4.000000, 4.000000, 4.000000, 4.000000, 4.000000, 4.000000, 4.000000, 4.000000, 4.000000, 4.000000, 4.000000, 4.000000, 4.000000, 4.000000, 4.000000, 4.000000
31.000000, 0.000000, 4207.179199, 4302.051270, 4193.846191, 4185.127930, 4195.384277, 4185.127930, 4185.127930, 4175.897461, 4181.025391, 4179.487305, 4182.051270, 4164.615234, 4166.153809, 4194.871582, 0.000000, 8203.000000, 8158.000000, 0.000000, 0.000000, 0.000000, -22281.000000, 646.153809, 4.000000, 4.000000, 4.000000, 4.000000, 4.000000, 4.000000, 4.000000, 4.000000, 4.000000, 4.000000, 4.000000, 4.000000, 4.000000, 4.000000, 4.000000, 4.000000
32.000000, 0.000000, 4213.333008, 4301.025391, 4197.948730, 4185.641113, 4199.487305, 4190.256348, 4184.102539, 4185.127930, 4184.102539, 4185.641113, 4185.641113, 4167.179199, 4168.717773, 4190.769043, 0.000000, 8203.000000, 8158.000000, 0.000000, 0.000000, 0.000000, -22281.000000, 653.846130, 4.000000, 4.000000, 4.000000, 4.000000, 4.000000, 4.000000, 4.000000, 4.000000, 4.000000, 4.000000, 4.000000, 4.000000, 4.000000, 4.000000, 4.000000, 4.000000
33.000000, 0.000000, 4217.436035, 4304.102539, 4197.948730, 4186.153809, 4202.563965, 4194.358887, 4192.307617, 4195.897461, 4188.205078, 4187.692383, 4191.281738, 4172.307617, 4177.436035, 4195.897461, 0.000000, 8203.000000, 8160.000000, 0.000000, 0.000000, 0.000000, -22281.000000, 661.538452, 4.000000, 4.000000, 4.000000, 4.000000, 4.000000, 4.000000, 4.000000, 4.000000, 4.000000, 4.000000, 4.000000, 4.000000, 4.000000, 4.000000, 4.000000, 4.000000
34.000000, 0.000000, 4214.358887, 4305.127930, 4198.461426, 4189.743652, 4201.025391, 4192.820313, 4200.000000, 4199.487305, 4188.717773, 4187.179199, 4192.820313, 4175.897461, 4178.974121, 4196.410156, 0.000000, 8203.000000, 8160.000000, 0.000000, 0.000000, 0.000000, -22281.000000, 669.743591, 4.000000, 4.000000, 4.000000, 4.000000, 4.000000, 4.000000, 4.000000, 4.000000, 4.000000, 4.000000, 4.000000, 4.000000, 4.000000, 4.000000, 4.000000, 4.000000
35.000000, 0.000000, 4215.384277, 4304.102539, 4201.025391, 4192.820313, 4208.717773, 4192.307617, 4196.922852, 4192.820313, 4188.717773, 4195.384277, 4193.333008, 4173.333008, 4181.025391, 4193.333008, 0.000000, 8194.000000, 8161.000000, 0.000000, 0.000000, 0.000000, -22281.000000, 677.435852, 4.000000, 4.000000, 4.000000, 4.000000, 4.000000, 4.000000, 4.000000, 4.000000, 4.000000, 4.000000, 4.000000, 4.000000, 4.000000, 4.000000, 4.000000, 4.000000
36.000000, 0.000000, 4220.512695, 4305.127930, 4207.179199, 4194.871582, 4213.846191, 4189.230469, 4187.179199, 4187.692383, 4197.436035, 4204.615234, 4196.922852, 4174.871582, 4190.256348, 4197.948730, 0.000000, 8194.000000, 8161.000000, 0.000000, 0.000000, 0.000000, -22281.000000, 685.128174, 4.000000, 4.000000, 4.000000, 4.000000, 4.000000, 4.000000, 4.000000, 4.000000, 4.000000, 4.000000, 4.000000, 4.000000, 4.000000, 4.000000, 4.000000, 4.000000
37.000000, 0.000000, 4228.205078, 4309.230469, 4218.461426, 4198.461426, 4206.666504, 4185.127930, 4184.615234, 4187.692383, 4204.615234, 4203.589844, 4202.051270, 4186.153809, 4193.333008, 4194.358887, 0.000000, 8196.000000, 8160.000000, 0.000000, 0.000000, 0.000000, -22281.000000, 693.333313, 4.000000, 4.000000, 4.000000, 4.000000, 4.000000, 4.000000, 4.000000, 4.000000, 4.000000, 4.000000, 4.000000, 4.000000, 4.000000, 4.000000, 4.000000, 4.000000
38.000000, 0.000000, 4225.127930, 4311.281738, 4220.000000, 4201.025391, 4200.000000, 4185.127930, 4188.205078, 4187.179199, 4195.384277, 4200.000000, 4204.102539, 4196.410156, 4190.769043, 4192.820313, 0.000000, 8196.000000, 8160.000000, 0.000000, 0.000000, 0.000000, -22281.000000, 701.025635, 4.000000, 4.000000, 4.000000, 4.000000, 4.000000, 4.000000, 4.000000, 4.000000, 4.000000, 4.000000, 4.000000, 4.000000, 4.000000, 4.000000, 4.000000, 4.000000
39.000000, 0.000000, 4221.538574, 4309.230469, 4208.717773, 4201.538574, 4204.102539, 4186.153809, 4191.281738, 4180.000000, 4180.512695, 4199.487305, 4204.615234, 4192.820313, 4197.948730, 4195.384277, 0.000000, 8190.000000, 8160.000000, 0.000000, 0.000000, 0.000000, -22281.000000, 708.717957, 4.000000, 4.000000, 4.000000, 4.000000, 4.000000, 4.000000, 4.000000, 4.000000, 4.000000, 4.000000, 4.000000, 4.000000, 4.000000, 4.000000, 4.000000, 4.000000
40.000000, 0.000000, 4224.102539, 4305.641113, 4202.051270, 4198.974121, 4207.692383, 4188.205078, 4190.256348, 4171.794922, 4177.948730, 4193.333008, 4198.461426, 4183.076660, 4192.820313, 4192.307617, 0.000000, 8190.000000, 8160.000000, 0.000000, 0.000000, 0.000000, -22281.000000, 716.923035, 4.000000, 4.000000, 4.000000, 4.000000, 4.000000, 4.000000, 4.000000, 4.000000, 4.000000, 4.000000, 4.000000, 4.000000, 4.000000, 4.000000, 4.000000, 4.000000
41.000000, 0.000000, 4211.281738, 4294.358887, 4198.461426, 4189.743652, 4204.102539, 4195.897461, 4186.666504, 4168.717773, 4178.974121, 4181.538574, 4182.051270, 4173.846191, 4162.563965, 4188.717773, 0.000000, 8183.000000, 8168.000000, 0.000000, 0.000000, 0.000000, -22281.000000, 724.615356, 4.000000, 4.000000, 4.000000, 4.000000, 4.000000, 4.000000, 4.000000, 4.000000, 4.000000, 4.000000, 4.000000, 4.000000, 4.000000, 4.000000, 4.000000, 4.000000
42.000000, 0.000000, 4203.589844, 4288.205078, 4191.281738, 4182.051270, 4201.025391, 4198.974121, 4187.179199, 4174.871582, 4182.051270, 4183.076660, 4176.922852, 4168.205078, 4160.512695, 4188.205078, 0.000000, 8183.000000, 8168.000000, 0.000000, 0.000000, 0.000000, -22281.000000, 732.820496, 4.000000, 4.000000, 4.000000, 4.000000, 4.000000, 4.000000, 4.000000, 4.000000, 4.000000, 4.000000, 4.000000, 4.000000, 4.000000, 4.000000, 4.000000, 4.000000
43.000000, 0.000000, 4211.281738, 4293.846191, 4188.205078, 4184.615234, 4201.025391, 4195.384277, 4189.743652, 4186.153809, 4191.281738, 4194.871582, 4188.717773, 4171.281738, 4189.743652, 4194.358887, 0.000000, 8179.000000, 8172.000000, 0.000000, 0.000000, 0.000000, -22281.000000, 740.512817, 4.000000, 4.000000, 4.000000, 4.000000, 4.000000, 4.000000, 4.000000, 4.000000, 4.000000, 4.000000, 4.000000, 4.000000, 4.000000, 4.000000, 4.000000, 4.000000
44.000000, 0.000000, 4215.897461, 4292.307617, 4194.871582, 4187.179199, 4200.512695, 4196.410156, 4193.846191, 4197.948730, 4201.538574, 4200.512695, 4197.436035, 4175.384277, 4201.025391, 4195.897461, 0.000000, 8179.000000, 8172.000000, 0.000000, 0.000000, 0.000000, -22281.000000, 748.717957, 4.000000, 4.000000, 4.000000, 4.000000, 4.000000, 4.000000, 4.000000, 4.000000, 4.000000, 4.000000, 4.000000, 4.000000, 4.000000, 4.000000, 4.000000, 4.000000
45.000000, 0.000000, 4217.436035, 4287.179199, 4203.076660, 4188.205078, 4201.538574, 4201.025391, 4201.538574, 4212.820313, 4211.794922, 4206.666504, 4207.179199, 4183.589844, 4207.179199, 4195.384277, 0.000000, 8177.000000, 8169.000000, 0.000000, 0.000000, 0.000000, -22281.000000, 756.410217, 4.000000, 4.000000, 4.000000, 4.000000, 4.000000, 4.000000, 4.000000, 4.000000, 4.000000, 4.000000, 4.000000, 4.000000, 4.000000, 4.000000, 4.000000, 4.000000
46.000000, 0.000000, 4224.102539, 4290.769043, 4203.589844, 4190.256348, 4203.076660, 4201.538574, 4206.153809, 4223.076660, 4219.487305, 4218.461426, 4225.641113, 4197.436035, 4224.615234, 4202.051270, 0.000000, 8177.000000, 8169.000000, 0.000000, 0.000000, 0.000000, -22281.000000, 764.102539, 4.000000, 4.000000, 4.000000, 4.000000, 4.000000, 4.000000, 4.000000, 4.000000, 4.000000, 4.000000, 4.000000, 4.000000, 4.000000, 4.000000, 4.000000, 4.000000
47.000000, 0.000000, 4229.743652, 4293.333008, 4202.051270, 4188.717773, 4202.563965, 4199.487305, 4202.051270, 4213.846191, 4215.384277, 4219.487305, 4228.717773, 4198.461426, 4234.358887, 4197.436035, 0.000000, 8175.000000, 8172.000000, 0.000000, 0.000000, 0.000000, -22281.000000, 771.794861, 4.000000, 4.000000, 4.000000, 4.000000, 4.000000, 4.000000, 4.000000, 4.000000, 4.000000, 4.000000, 4.000000, 4.000000, 4.000000, 4.000000, 4.000000, 4.000000
48.000000, 0.000000, 4226.666504, 4290.256348, 4206.153809, 4192.820313, 4208.717773, 4200.512695, 4201.538574, 4205.127930, 4209.743652, 4215.897461, 4224.102539, 4194.358887, 4234.871582, 4195.897461, 0.000000, 8175.000000, 8172.000000, 0.000000, 0.000000, 0.000000, -22281.000000, 780.000000, 4.000000, 4.000000, 4.000000, 4.000000, 4.000000, 4.000000, 4.000000, 4.000000, 4.000000, 4.000000, 4.000000, 4.000000, 4.000000, 4.000000, 4.000000, 4.000000
49.000000, 0.000000, 4223.589844, 4287.179199, 4211.794922, 4197.948730, 4214.871582, 4202.563965, 4204.615234, 4212.820313, 4214.358887, 4219.487305, 4225.641113, 4199.487305, 4232.307617, 4198.974121, 0.000000, 8169.000000, 8172.000000, 0.000000, 0.000000, 0.000000, -22281.000000, 787.692261, 4.000000, 4.000000, 4.000000, 4.000000, 4.000000, 4.000000, 4.000000, 4.000000, 4.000000, 4.000000, 4.000000, 4.000000, 4.000000, 4.000000, 4.000000, 4.000000
50.000000, 0.000000, 4220.000000, 4283.076660, 4205.641113, 4192.307617, 4206.666504, 4201.538574, 4201.025391, 4216.410156, 4219.487305, 4220.512695, 4227.179199, 4200.512695, 4224.615234, 4193.846191, 0.000000, 8169.000000, 8172.000000, 0.000000, 0.000000, 0.000000, -22281.000000, 795.384583, 4.000000, 4.000000, 4.000000, 4.000000, 4.000000, 4.000000, 4.000000, 4.000000, 4.000000, 4.000000, 4.000000, 4.000000, 4.000000, 4.000000, 4.000000, 4.000000
51.000000, 0.000000, 4212.820313, 4277.948730, 4198.461426, 4185.641113, 4198.461426, 4198.461426, 4201.538574, 4208.717773, 4215.897461, 4216.410156, 4227.179199, 4196.410156, 4222.563965, 4193.846191, 0.000000, 8168.000000, 8173.000000, 0.000000, 0.000000, 0.000000, -22281.000000, 803.589722, 4.000000, 4.000000, 4.000000, 4.000000, 4.000000, 4.000000, 4.000000, 4.000000, 4.000000, 4.000000, 4.000000, 4.000000, 4.000000, 4.000000, 4.000000, 4.000000
52.000000, 0.000000, 4213.333008, 4276.410156, 4205.127930, 4188.717773, 4198.974121, 4201.025391, 4207.179199, 4204.102539, 4205.641113, 4215.384277, 4223.589844, 4194.871582, 4222.563965, 4190.769043, 0.000000, 8168.000000, 8173.000000, 0.000000, 0.000000, 0.000000, -22281.000000, 811.282043, 4.000000, 4.000000, 4.000000, 4.000000, 4.000000, 4.000000, 4.000000, 4.000000, 4.000000, 4.000000, 4.000000, 4.000000, 4.000000, 4.000000, 4.000000, 4.000000
53.000000, 0.000000, 4213.846191, 4278.974121, 4206.666504, 4190.769043, 4199.487305, 4203.076660, 4207.692383, 4206.153809, 4202.563965, 4216.410156, 4219.487305, 4193.846191, 4217.436035, 4189.743652, 0.000000, 8170.000000, 8174.000000, 0.000000, 0.000000, 0.000000, -22281.000000, 818.974365, 4.000000, 4.000000, 4.000000, 4.000000, 4.000000, 4.000000, 4.000000, 4.000000, 4.000000, 4.000000, 4.000000, 4.000000, 4.000000, 4.000000, 4.000000, 4.000000
54.000000, 0.000000, 4207.692383, 4276.922852, 4200.512695, 4188.205078, 4199.487305, 4202.051270, 4208.717773, 4212.820313, 4212.307617, 4215.384277, 4216.922852, 4191.281738, 4211.794922, 4191.281738, 0.000000, 8170.000000, 8174.000000, 0.000000, 0.000000, 0.000000, -22281.000000, 827.179443, 4.000000, 4.000000, 4.000000, 4.000000, 4.000000, 4.000000, 4.000000, 4.000000, 4.000000, 4.000000, 4.000000, 4.000000, 4.000000, 4.000000, 4.000000, 4.000000
55.000000, 0.000000, 4202.563965, 4269.743652, 4196.922852, 4185.641113, 4196.410156, 4203.589844, 4211.281738, 4218.974121, 4212.820313, 4209.743652, 4211.794922, 4184.102539, 4206.666504, 4188.717773, 0.000000, 8174.000000, 8171.000000, 0.000000, 0.000000, 0.000000, -22281.000000, 834.871765, 4.000000, 4.000000, 4.000000, 4.000000, 4.000000, 4.000000, 4.000000, 4.000000, 4.000000, 4.000000, 4.000000, 4.000000, 4.000000, 4.000000, 4.000000, 4.000000
56.000000, 0.000000, 4200.512695, 4270.769043, 4193.333008, 4184.615234, 4193.333008, 4203.589844, 4212.307617, 4212.820313, 4200.000000, 4201.025391, 4207.179199, 4177.948730, 4203.076660, 4190.769043, 0.000000, 8174.000000, 8171.000000, 0.000000, 0.000000, 0.000000, -22281.000000, 842.564087, 4.000000, 4.000000, 4.000000, 4.000000, 4.000000, 4.000000, 4.000000, 4.000000, 4.000000, 4.000000, 4.000000, 4.000000, 4.000000, 4.000000, 4.000000, 4.000000
57.000000, 0.000000, 4206.153809, 4276.922852, 4194.871582, 4191.281738, 4197.948730, 4198.974121, 4209.230469, 4212.820313, 4197.436035, 4198.974121, 4208.205078, 4176.922852, 4205.127930, 4189.230469, 0.000000, 8173.000000, 8174.000000, 0.000000, 0.000000, 0.000000, -22281.000000, 850.769226, 4.000000, 4.000000, 4.000000, 4.000000, 4.000000, 4.000000, 4.000000, 4.000000, 4.000000, 4.000000, 4.000000, 4.000000, 4.000000, 4.000000, 4.000000, 4.000000
58.000000, 0.000000, 4208.717773, 4281.025391, 4201.025391, 4200.512695, 4203.076660, 4201.025391, 4209.743652, 4221.025391, 4202.563965, 4203.589844, 4208.717773, 4178.974121, 4207.179199, 4190.769043, 0.000000, 8173.000000, 8174.000000, 0.000000, 0.000000, 0.000000, -22281.000000, 858.461548, 4.000000, 4.000000, 4.000000, 4.000000, 4.000000, 4.000000, 4.000000, 4.000000, 4.000000, 4.000000, 4.000000, 4.000000, 4.000000, 4.000000, 4.000000, 4.000000
59.000000, 0.000000, 4203.589844, 4284.102539, 4200.512695, 4199.487305, 4199.487305, 4204.102539, 4214.358887, 4217.436035, 4198.974121, 4200.512695, 4201.538574, 4172.820313, 4202.563965, 4191.794922, 0.000000, 8180.000000, 8173.000000, 0.000000, 0.000000, 0.000000, -22281.000000, 866.153809, 4.000000, 4.000000, 4.000000, 4.000000, 4.000000, 4.000000, 4.000000, 4.000000, 4.000000, 4.000000, 4.000000, 4.000000, 4.000000, 4.000000, 4.000000, 4.000000
60.000000, 0.000000, 4203.076660, 4285.127930, 4197.436035, 4192.307617, 4193.333008, 4200.000000, 4213.333008, 4215.897461, 4195.897461, 4191.794922, 4196.922852, 4166.153809, 4196.922852, 4186.666504, 0.000000, 8180.000000, 8173.000000, 0.000000, 0.000000, 0.000000, -22281.000000, 873.846130, 4.000000, 4.000000, 4.000000, 4.000000, 4.000000, 4.000000, 4.000000, 4.000000, 4.000000, 4.000000, 4.000000, 4.000000, 4.000000, 4.000000, 4.000000, 4.000000
61.000000, 0.000000, 4203.076660, 4281.025391, 4200.000000, 4188.717773, 4190.256348, 4198.974121, 4213.333008, 4216.922852, 4192.307617, 4189.230469, 4193.846191, 4168.205078, 4196.410156, 4190.769043, 0.000000, 8190.000000, 8165.000000, 0.000000, 0.000000, 0.000000, -22281.000000, 882.051270, 4.000000, 4.000000, 4.000000, 4.000000, 4.000000, 4.000000, 4.000000, 4.000000, 4.000000, 4.000000, 4.000000, 4.000000, 4.000000, 4.000000, 4.000000, 4.000000
62.000000, 0.000000, 4199.487305, 4273.846191, 4200.000000, 4187.179199, 4189.743652, 4197.436035, 4212.307617, 4202.563965, 4183.076660, 4184.615234, 4185.641113, 4165.127930, 4191.281738, 4189.743652, 0.000000, 8190.000000, 8165.000000, 0.000000, 0.000000, 0.000000, -22281.000000, 890.256409, 4.000000, 4.000000, 4.000000, 4.000000, 4.000000, 4.000000, 4.000000, 4.000000, 4.000000, 4.000000, 4.000000, 4.000000, 4.000000, 4.000000, 4.000000, 4.000000
63.000000, 0.000000, 4192.820313, 4273.333008, 4195.897461, 4182.051270, 4186.666504, 4190.256348, 4207.179199, 4196.410156, 4184.102539, 4181.538574, 4181.025391, 4157.436035, 4183.076660, 4186.666504, 0.000000, 8196.000000, 8157.000000, 0.000000, 0.000000, 0.000000, -22281.000000, 897.948669, 4.000000, 4.000000, 4.000000, 4.000000, 4.000000, 4.000000, 4.000000, 4.000000, 4.000000, 4.000000, 4.000000, 4.000000, 4.000000, 4.000000, 4.000000, 4.000000
64.000000, 0.000000, 4193.846191, 4283.589844, 4197.436035, 4183.589844, 4184.102539, 4191.281738, 4204.102539, 4208.717773, 4192.820313, 4187.179199, 4188.205078, 4161.538574, 4187.692383, 4193.333008, 3320.000000, 8196.000000, 8157.000000, 0.000000, 0.000000, 0.000000, -22281.000000, 905.640991, 4.000000, 4.000000, 4.000000, 4.000000, 4.000000, 4.000000, 4.000000, 4.000000, 4.000000, 4.000000, 4.000000, 4.000000, 4.000000, 4.000000, 4.000000, 4.000000
65.000000, 0.000000, 4203.076660, 4291.794922, 4200.000000, 4188.717773, 4189.230469, 4201.025391, 4206.153809, 4206.666504, 4190.769043, 4191.794922, 4195.897461, 4170.256348, 4197.436035, 4192.820313, 3488.000000, 8200.000000, 8145.000000, 0.000000, 0.000000, 0.000000, -22281.000000, 913.846130, 4.000000, 4.000000, 4.000000, 4.000000, 4.000000, 4.000000, 4.000000, 4.000000, 4.000000, 4.000000, 4.000000, 4.000000, 4.000000, 4.000000, 4.000000, 4.000000
66.000000, 0.000000, 4203.076660, 4293.333008, 4200.000000, 4187.179199, 4194.358887, 4204.102539, 4214.358887, 4200.512695, 4192.820313, 4192.820313, 4194.871582, 4172.307617, 4195.897461, 4193.846191, 2737.000000, 8200.000000, 8145.000000, 0.000000, 0.000000, 0.000000, -22281.000000, 921.538452, 4.000000, 4.000000, 4.000000, 4.000000, 4.000000, 4.000000, 4.000000, 4.000000, 4.000000, 4.000000, 4.000000, 4.000000, 4.000000, 4.000000, 4.000000, 4.000000
67.000000, 0.000000, 4200.512695, 4294.871582, 4198.974121, 4185.641113, 4195.384277, 4203.589844, 4212.307617, 4207.692383, 4206.153809, 4199.487305, 4197.436035, 4172.820313, 4194.871582, 4195.384277, 2018.000000, 8204.000000, 8135.000000, 0.000000, 0.000000, 0.000000, -22281.000000, 929.743591, 4.000000, 4.000000, 4.000000, 4.000000, 4.000000, 4.000000, 4.000000, 4.000000, 4.000000, 4.000000, 4.000000, 4.000000, 4.000000, 4.000000, 4.000000, 4.000000
68.000000, 0.000000, 4203.076660, 4298.461426, 4199.487305, 4188.717773, 4198.974121, 4204.615234, 4205.127930, 4205.641113, 4208.205078, 4203.589844, 4203.076660, 4174.358887, 4198.974121, 4193.333008, 3513.000000, 8204.000000, 8135.000000, 0.000000, 0.000000, 0.000000, -22281.000000, 937.435852, 4.000000, 4.000000, 4.000000, 4.000000, 4.000000, 4.000000, 4.000000, 4.000000, 4.000000, 4.000000, 4.000000, 4.000000, 4.000000, 4.000000, 4.000000, 4.000000
69.000000, 0.000000, 4200.000000, 4302.563965, 4199.487305, 4188.205078, 4198.974121, 4205.641113, 4207.692383, 4205.127930, 4206.153809, 4198.974121, 4198.974121, 4174.871582, 4198.974121, 4193.333008, 3532.000000, 8203.000000, 8117.000000, 0.000000, 0.000000, 0.000000, -22281.000000, 945.128174, 4.000000, 4.000000, 4.000000, 4.000000, 4.000000, 4.000000, 4.000000, 4.000000, 4.000000, 4.000000, 4.000000, 4.000000, 4.000000, 4.000000, 4.000000, 4.000000
70.000000, 0.000000, 4200.512695, 4309.230469, 4197.948730, 4188.717773, 4196.922852, 4209.230469, 4212.307617, 4216.922852, 4215.384277, 4202.051270, 4197.436035, 4174.871582, 4200.000000, 4193.333008, 3046.000000, 8203.000000, 8117.000000, 0.000000, 0.000000, 0.000000, -22281.000000, 953.333313, 4.000000, 4.000000, 4.000000, 4.000000, 4.000000, 4.000000, 4.000000, 4.000000, 4.000000, 4.000000, 4.000000, 4.000000, 4.000000, 4.000000, 4.000000, 4.000000
71.000000, 0.000000, 4206.153809, 4314.358887, 4199.487305, 4191.281738, 4200.512695, 4209.230469, 4211.794922, 4211.281738, 4212.307617, 4204.615234, 4201.025391, 4174.358887, 4200.000000, 4196.410156, 3513.000000, 8201.000000, 8100.000000, 0.000000, 0.000000, 0.000000, -22281.000000, 961.025635, 4.000000, 4.000000, 4.000000, 4.000000, 4.000000, 4.000000, 4.000000, 4.000000, 4.000000, 4.000000, 4.000000, 4.000000, 4.000000, 4.000000, 4.000000, 4.000000
72.000000, 0.000000, 4211.794922, 4316.922852, 4200.000000, 4191.794922, 4200.512695, 4205.127930, 4213.333008, 4197.436035, 4198.974121, 4200.000000, 4197.948730, 4173.846191, 4198.461426, 4191.794922, 3510.000000, 8201.000000, 8100.000000, 0.000000, 0.000000, 0.000000, -22281.000000, 968.717896, 4.000000, 4.000000, 4.000000, 4.000000, 4.000000, 4.000000, 4.000000, 4.000000, 4.000000, 4.000000, 4.000000, 4.000000, 4.000000, 4.000000, 4.000000, 4.000000
73.000000, 0.000000, 4213.333008, 4319.487305, 4192.820313, 4188.717773, 4189.743652, 4201.025391, 4213.846191, 4205.641113, 4200.512695, 4203.589844, 4195.384277, 4172.307617, 4200.512695, 4186.666504, 3537.000000, 8199.000000, 8081.000000, 0.000000, 0.000000, 0.000000, -22281.000000, 976.923035, 4.000000, 4.000000, 4.000000, 4.000000, 4.000000, 4.000000, 4.000000, 4.000000, 4.000000, 4.000000, 4.000000, 4.000000, 4.000000, 4.000000, 4.000000, 4.000000
74.000000, 0.000000, 4196.922852, 4310.256348, 4182.563965, 4174.358887, 4181.538574, 4201.538574, 4211.794922, 4208.717773, 4206.666504, 4196.410156, 4183.076660, 4160.512695, 4176.410156, 4189.230469, 3545.000000, 8199.000000, 8081.000000, 0.000000, 0.000000, 0.000000, -22281.000000, 985.128174, 4.000000, 4.000000, 4.000000, 4.000000, 4.000000, 4.000000, 4.000000, 4.000000, 4.000000, 4.000000, 4.000000, 4.000000, 4.000000, 4.000000, 4.000000, 4.000000
75.000000, 0.000000, 4182.051270, 4301.025391, 4181.538574, 4163.589844, 4186.153809, 4205.127930, 4210.769043, 4191.794922, 4195.384277, 4182.051270, 4171.794922, 4148.717773, 4155.897461, 4186.666504, 1468.000000, 8175.000000, 7999.000000, 0.000000, 0.000000, 0.000000, -22281.000000, 992.820496, 4.000000, 4.000000, 4.000000, 4.000000, 4.000000, 4.000000, 4.000000, 4.000000, 4.000000, 4.000000, 4.000000, 4.000000, 4.000000, 4.000000, 4.000000, 4.000000
76.000000, 0.000000, 4193.333008, 4318.461426, 4186.153809, 4176.410156, 4190.256348, 4198.974121, 4208.717773, 4188.717773, 4177.436035, 4195.897461, 4186.666504, 4157.436035, 4187.692383, 4190.256348, 3471.000000, 8175.000000, 7999.000000, 0.000000, 0.000000, 0.000000, -22280.000000, 0.512820, 4.000000, 4.000000, 4.000000, 4.000000, 4.000000, 4.000000, 4.000000, 4.000000, 4.000000, 4.000000, 4.000000, 4.000000, 4.000000, 4.000000, 4.000000, 4.000000
77.000000, 0.000000, 4213.846191, 4334.871582, 4187.692383, 4189.230469, 4188.717773, 4188.717773, 4203.076660, 4195.897461, 4166.666504, 4213.333008, 4204.615234, 4167.692383, 4221.538574, 4192.820313, 3450.000000, 8156.000000, 7926.000000, 0.000000, 0.000000, 0.000000, -22280.000000, 8.717949, 4.000000, 4.000000, 4.000000, 4.000000, 4.000000, 4.000000, 4.000000, 4.000000, 4.000000, 4.000000, 4.000000, 4.000000, 4.000000, 4.000000, 4.000000, 4.000000
