title:neutral17, recorded:17.05.18 21.52.04, timestamp started:2018-05-12T20:28:52.032863+02:00            , sampling:128, subject:Noé, labels:COUNTER INTERPOLATED AF3 F7 F3 FC5 T7 P7 O1 O2 P8 T8 FC6 F4 F8 AF4 RAW_CQ GYROX GYROY MARKER MARKER_HARDWARE SYNC TIME_STAMP_s TIME_STAMP_ms CQ_AF3 CQ_F7 CQ_F3 CQ_FC5 CQ_T7 CQ_P7 CQ_O1 CQ_O2 CQ_P8 CQ_T8 CQ_FC6 CQ_F4 CQ_F8 CQ_AF4 CQ_CMS CQ_DRL, chan:40, samples:2582, units:emotiv
126.000000, 0.000000, 4126.666504, 4107.692383, 4185.127930, 4190.256348, 4181.025391, 4197.436035, 4205.641113, 4197.436035, 4182.563965, 4174.358887, 4165.127930, 4148.717773, 4166.153809, 4211.794922, 3556.000000, 8200.000000, 8170.000000, 0.000000, 0.000000, 0.000000, -21760.000000, 857.948669, 4.000000, 4.000000, 4.000000, 4.000000, 4.000000, 4.000000, 4.000000, 4.000000, 4.000000, 4.000000, 4.000000, 4.000000, 4.000000, 4.000000, 4.000000, 4.000000
127.000000, 0.000000, 4129.743652, 4105.641113, 4192.820313, 4197.436035, 4191.281738, 4191.794922, 4200.000000, 4201.025391, 4173.333008, 4171.794922, 4160.512695, 4150.769043, 4161.025391, 4212.820313, 54.000000, 8199.000000, 8174.000000, 0.000000, 0.000000, 0.000000, -21760.000000, 866.153809, 4.000000, 4.000000, 4.000000, 4.000000, 4.000000, 4.000000, 4.000000, 4.000000, 4.000000, 4.000000, 4.000000, 4.000000, 4.000000, 4.000000, 4.000000, 4.000000
0.000000, 0.000000, 4127.692383, 4106.153809, 4187.179199, 4190.769043, 4183.076660, 4183.076660, 4190.769043, 4193.846191, 4171.281738, 4155.384277, 4156.922852, 4151.794922, 4153.333008, 4220.000000, 3341.000000, 8199.000000, 8174.000000, 0.000000, 0.000000, 0.000000, -21760.000000, 873.846130, 4.000000, 4.000000, 4.000000, 4.000000, 4.000000, 4.000000, 4.000000, 4.000000, 4.000000, 4.000000, 4.000000, 4.000000, 4.000000, 4.000000, 4.000000, 4.000000
1.000000, 0.000000, 4125.641113, 4098.461426, 4176.922852, 4181.025391, 4184.615234, 4182.051270, 4181.538574, 4180.512695, 4166.153809, 4148.205078, 4152.820313, 4144.102539, 4152.307617, 4216.922852, 3431.000000, 8204.000000, 8172.000000, 0.000000, 0.000000, 0.000000, -21760.000000, 881.538452, 4.000000, 4.000000, 4.000000, 4.000000, 4.000000, 4.000000, 4.000000, 4.000000, 4.000000, 4.000000, 4.000000, 4.000000, 4.000000, 4.000000, 4.000000, 4.000000
2.000000, 0.000000, 4118.461426, 4078.461426, 4177.436035, 4185.641113, 4185.127930, 4185.641113, 4185.641113, 4187.692383, 4164.615234, 4162.051270, 4151.281738, 4139.487305, 4156.922852, 4215.384277, 2683.000000, 8204.000000, 8172.000000, 0.000000, 0.000000, 0.000000, -21760.000000, 889.743591, 4.000000, 4.000000, 4.000000, 4.000000, 4.000000, 4.000000, 4.000000, 4.000000, 4.000000, 4.000000, 4.000000, 4.000000, 4.000000, 4.000000, 4.000000, 4.000000
3.000000, 0.000000, 4108.717773, 4067.179443, 4178.974121, 4187.179199, 4175.384277, 4186.666504, 4194.871582, 4202.051270, 4171.794922, 4164.615234, 4152.307617, 4141.025391, 4156.410156, 4210.256348, 2007.000000, 8203.000000, 8176.000000, 0.000000, 0.000000, 0.000000, -21760.000000, 897.435852, 4.000000, 4.000000, 4.000000, 4.000000, 4.000000, 4.000000, 4.000000, 4.000000, 4.000000, 4.000000, 4.000000, 4.000000, 4.000000, 4.000000, 4.000000, 4.000000
4.000000, 0.000000, 4119.487305, 4074.871582, 4178.461426, 4185.641113, 4186.153809, 4192.307617, 4198.461426, 4205.641113, 4185.127930, 4163.076660, 4160.512695, 4145.127930, 4160.512695, 4198.461426, 3534.000000, 8203.000000, 8176.000000, 0.000000, 0.000000, 0.000000, -21760.000000, 905.640991, 4.000000, 4.000000, 4.000000, 4.000000, 4.000000, 4.000000, 4.000000, 4.000000, 4.000000, 4.000000, 4.000000, 4.000000, 4.000000, 4.000000, 4.000000, 4.000000
5.000000, 0.000000, 4123.076660, 4074.871582, 4188.205078, 4196.410156, 4201.538574, 4203.076660, 4202.051270, 4209.743652, 4196.410156, 4178.461426, 4171.281738, 4153.333008, 4175.384277, 4202.563965, 3537.000000, 8208.000000, 8178.000000, 0.000000, 0.000000, 0.000000, -21760.000000, 913.333313, 4.000000, 4.000000, 4.000000, 4.000000, 4.000000, 4.000000, 4.000000, 4.000000, 4.000000, 4.000000, 4.000000, 4.000000, 4.000000, 4.000000, 4.000000, 4.000000
6.000000, 0.000000, 4122.563965, 4068.717773, 4203.076660, 4198.974121, 4187.692383, 4204.615234, 4202.051270, 4217.436035, 4200.512695, 4188.717773, 4177.948730, 4165.127930, 4186.666504, 4202.051270, 3061.000000, 8208.000000, 8178.000000, 0.000000, 0.000000, 0.000000, -21760.000000, 921.025635, 4.000000, 4.000000, 4.000000, 4.000000, 4.000000, 4.000000, 4.000000, 4.000000, 4.000000, 4.000000, 4.000000, 4.000000, 4.000000, 4.000000, 4.000000, 4.000000
7.000000, 0.000000, 4124.102539, 4065.640869, 4210.256348, 4187.692383, 4167.179199, 4197.948730, 4201.025391, 4215.384277, 4206.153809, 4187.179199, 4185.127930, 4175.384277, 4187.692383, 4194.871582, 3504.000000, 8205.000000, 8174.000000, 0.000000, 0.000000, 0.000000, -21760.000000, 929.230774, 4.000000, 4.000000, 4.000000, 4.000000, 4.000000, 4.000000, 4.000000, 4.000000, 4.000000, 4.000000, 4.000000, 4.000000, 4.000000, 4.000000, 4.000000, 4.000000
8.000000, 0.000000, 4125.641113, 4068.205078, 4212.820313, 4194.358887, 4176.410156, 4204.615234, 4213.333008, 4216.410156, 4216.922852, 4194.358887, 4191.281738, 4183.589844, 4192.307617, 4204.615234, 3512.000000, 8205.000000, 8174.000000, 0.000000, 0.000000, 0.000000, -21760.000000, 936.923035, 4.000000, 4.000000, 4.000000, 4.000000, 4.000000, 4.000000, 4.000000, 4.000000, 4.000000, 4.000000, 4.000000, 4.000000, 4.000000, 4.000000, 4.000000, 4.000000
9.000000, 0.000000, 4138.461426, 4076.410156, 4214.871582, 4209.230469, 4203.076660, 4216.410156, 4221.025391, 4228.717773, 4218.974121, 4205.641113, 4192.820313, 4186.153809, 4201.025391, 4217.436035, 3527.000000, 8200.000000, 8173.000000, 0.000000, 0.000000, 0.000000, -21760.000000, 944.615356, 4.000000, 4.000000, 4.000000, 4.000000, 4.000000, 4.000000, 4.000000, 4.000000, 4.000000, 4.000000, 4.000000, 4.000000, 4.000000, 4.000000, 4.000000, 4.000000
10.000000, 0.000000, 4133.333008, 4076.923096, 4202.563965, 4200.000000, 4206.153809, 4209.743652, 4209.743652, 4220.512695, 4206.153809, 4192.820313, 4187.692383, 4178.461426, 4197.948730, 4212.307617, 3547.000000, 8200.000000, 8173.000000, 0.000000, 0.000000, 0.000000, -21760.000000, 952.307678, 4.000000, 4.000000, 4.000000, 4.000000, 4.000000, 4.000000, 4.000000, 4.000000, 4.000000, 4.000000, 4.000000, 4.000000, 4.000000, 4.000000, 4.000000, 4.000000
11.000000, 0.000000, 4122.051270, 4072.307617, 4184.102539, 4187.179199, 4191.281738, 4200.000000, 4204.102539, 4200.000000, 4194.871582, 4175.384277, 4177.948730, 4163.589844, 4185.641113, 4191.281738, 1000.000000, 8198.000000, 8174.000000, 0.000000, 0.000000, 0.000000, -21760.000000, 960.512817, 4.000000, 4.000000, 4.000000, 4.000000, 4.000000, 4.000000, 4.000000, 4.000000, 4.000000, 4.000000, 4.000000, 4.000000, 4.000000, 4.000000, 4.000000, 4.000000
12.000000, 0.000000, 4118.974121, 4071.794678, 4177.948730, 4196.922852, 4188.717773, 4202.051270, 4204.102539, 4194.358887, 4191.281738, 4170.769043, 4167.179199, 4151.281738, 4180.000000, 4188.205078, 3471.000000, 8198.000000, 8174.000000, 0.000000, 0.000000, 0.000000, -21760.000000, 968.205078, 4.000000, 4.000000, 4.000000, 4.000000, 4.000000, 4.000000, 4.000000, 4.000000, 4.000000, 4.000000, 4.000000, 4.000000, 4.000000, 4.000000, 4.000000, 4.000000
13.000000, 0.000000, 4113.846191, 4074.871582, 4181.025391, 4205.127930, 4201.025391, 4202.563965, 4192.820313, 4191.794922, 4183.589844, 4168.205078, 4164.102539, 4145.641113, 4175.384277, 4196.410156, 3421.000000, 8201.000000, 8171.000000, 0.000000, 0.000000, 0.000000, -21760.000000, 976.410217, 4.000000, 4.000000, 4.000000, 4.000000, 4.000000, 4.000000, 4.000000, 4.000000, 4.000000, 4.000000, 4.000000, 4.000000, 4.000000, 4.000000, 4.000000, 4.000000
14.000000, 0.000000, 4123.076660, 4083.589600, 4186.666504, 4200.000000, 4207.179199, 4199.487305, 4187.692383, 4189.230469, 4182.563965, 4173.846191, 4168.205078, 4151.794922, 4176.922852, 4185.127930, 3547.000000, 8201.000000, 8171.000000, 0.000000, 0.000000, 0.000000, -21760.000000, 984.102539, 4.000000, 4.000000, 4.000000, 4.000000, 4.000000, 4.000000, 4.000000, 4.000000, 4.000000, 4.000000, 4.000000, 4.000000, 4.000000, 4.000000, 4.000000, 4.000000
15.000000, 0.000000, 4128.205078, 4084.102539, 4190.256348, 4197.948730, 4197.948730, 4202.563965, 4200.000000, 4197.948730, 4194.871582, 4184.615234, 4176.410156, 4168.205078, 4193.846191, 4184.615234, 1000.000000, 8203.000000, 8169.000000, 0.000000, 0.000000, 0.000000, -21760.000000, 991.794861, 4.000000, 4.000000, 4.000000, 4.000000, 4.000000, 4.000000, 4.000000, 4.000000, 4.000000, 4.000000, 4.000000, 4.000000, 4.000000, 4.000000, 4.000000, 4.000000
16.000000, 0.000000, 4122.051270, 4075.897217, 4189.230469, 4203.076660, 4188.205078, 4204.615234, 4209.743652, 4204.615234, 4201.025391, 4181.538574, 4182.051270, 4172.820313, 4192.820313, 4193.333008, 0.000000, 8203.000000, 8169.000000, 0.000000, 0.000000, 0.000000, -21760.000000, 999.487183, 4.000000, 4.000000, 4.000000, 4.000000, 4.000000, 4.000000, 4.000000, 4.000000, 4.000000, 4.000000, 4.000000, 4.000000, 4.000000, 4.000000, 4.000000, 4.000000
17.000000, 0.000000, 4120.000000, 4076.923096, 4191.281738, 4201.025391, 4195.897461, 4203.589844, 4207.179199, 4204.102539, 4197.948730, 4181.538574, 4185.127930, 4171.794922, 4182.051270, 4195.897461, 0.000000, 8203.000000, 8167.000000, 0.000000, 0.000000, 0.000000, -21759.000000, 7.692307, 4.000000, 4.000000, 4.000000, 4.000000, 4.000000, 4.000000, 4.000000, 4.000000, 4.000000, 4.000000, 4.000000, 4.000000, 4.000000, 4.000000, 4.000000, 4.000000
18.000000, 0.000000, 4123.589844, 4083.589600, 4193.333008, 4197.948730, 4205.641113, 4204.102539, 4205.641113, 4211.794922, 4205.641113, 4195.897461, 4191.281738, 4178.974121, 4203.589844, 4200.512695, 0.000000, 8203.000000, 8167.000000, 0.000000, 0.000000, 0.000000, -21759.000000, 15.897435, 4.000000, 4.000000, 4.000000, 4.000000, 4.000000, 4.000000, 4.000000, 4.000000, 4.000000, 4.000000, 4.000000, 4.000000, 4.000000, 4.000000, 4.000000, 4.000000
19.000000, 0.000000, 4135.384277, 4087.692139, 4190.769043, 4210.769043, 4201.538574, 4205.641113, 4207.179199, 4213.333008, 4215.384277, 4203.589844, 4200.512695, 4179.487305, 4229.743652, 4200.000000, 0.000000, 8201.000000, 8165.000000, 0.000000, 0.000000, 0.000000, -21759.000000, 23.589743, 4.000000, 4.000000, 4.000000, 4.000000, 4.000000, 4.000000, 4.000000, 4.000000, 4.000000, 4.000000, 4.000000, 4.000000, 4.000000, 4.000000, 4.000000, 4.000000
20.000000, 0.000000, 4129.230469, 4085.640869, 4187.692383, 4215.384277, 4200.000000, 4203.076660, 4203.589844, 4205.641113, 4212.307617, 4207.692383, 4204.102539, 4173.333008, 4222.563965, 4194.871582, 0.000000, 8201.000000, 8165.000000, 0.000000, 0.000000, 0.000000, -21759.000000, 31.282051, 4.000000, 4.000000, 4.000000, 4.000000, 4.000000, 4.000000, 4.000000, 4.000000, 4.000000, 4.000000, 4.000000, 4.000000, 4.000000, 4.000000, 4.000000, 4.000000
21.000000, 0.000000, 4117.436035, 4081.538330, 4189.743652, 4201.025391, 4203.076660, 4198.461426, 4196.410156, 4200.512695, 4202.563965, 4214.871582, 4195.897461, 4168.205078, 4205.641113, 4178.974121, 0.000000, 8197.000000, 8170.000000, 0.000000, 0.000000, 0.000000, -21759.000000, 39.487179, 4.000000, 4.000000, 4.000000, 4.000000, 4.000000, 4.000000, 4.000000, 4.000000, 4.000000, 4.000000, 4.000000, 4.000000, 4.000000, 4.000000, 4.000000, 4.000000
22.000000, 0.000000, 4121.538574, 4080.512695, 4188.717773, 4197.436035, 4200.000000, 4200.000000, 4194.871582, 4192.307617, 4194.358887, 4209.743652, 4190.256348, 4164.615234, 4205.641113, 4169.743652, 0.000000, 8197.000000, 8170.000000, 0.000000, 0.000000, 0.000000, -21759.000000, 47.179485, 4.000000, 4.000000, 4.000000, 4.000000, 4.000000, 4.000000, 4.000000, 4.000000, 4.000000, 4.000000, 4.000000, 4.000000, 4.000000, 4.000000, 4.000000, 4.000000
23.000000, 0.000000, 4117.948730, 4076.923096, 4180.512695, 4197.948730, 4192.307617, 4200.000000, 4190.256348, 4180.000000, 4184.615234, 4197.436035, 4187.692383, 4162.051270, 4204.615234, 4182.563965, 0.000000, 8189.000000, 8177.000000, 0.000000, 0.000000, 0.000000, -21759.000000, 54.871792, 4.000000, 4.000000, 4.000000, 4.000000, 4.000000, 4.000000, 4.000000, 4.000000, 4.000000, 4.000000, 4.000000, 4.000000, 4.000000, 4.000000, 4.000000, 4.000000
24.000000, 0.000000, 4117.948730, 4075.384521, 4182.563965, 4188.717773, 4177.436035, 4193.846191, 4180.512695, 4180.512695, 4183.076660, 4198.974121, 4184.102539, 4165.127930, 4200.512695, 4185.641113, 0.000000, 8189.000000, 8177.000000, 0.000000, 0.000000, 0.000000, -21759.000000, 62.564102, 4.000000, 4.000000, 4.000000, 4.000000, 4.000000, 4.000000, 4.000000, 4.000000, 4.000000, 4.000000, 4.000000, 4.000000, 4.000000, 4.000000, 4.000000, 4.000000
25.000000, 0.000000, 4124.102539, 4078.974365, 4195.897461, 4192.307617, 4172.307617, 4196.922852, 4191.281738, 4195.897461, 4194.358887, 4206.153809, 4189.743652, 4171.794922, 4203.589844, 4183.589844, 0.000000, 8190.000000, 8176.000000, 0.000000, 0.000000, 0.000000, -21759.000000, 70.769226, 4.000000, 4.000000, 4.000000, 4.000000, 4.000000, 4.000000, 4.000000, 4.000000, 4.000000, 4.000000, 4.000000, 4.000000, 4.000000, 4.000000, 4.000000, 4.000000
26.000000, 0.000000, 4125.641113, 4083.076904, 4198.461426, 4198.461426, 4184.615234, 4203.589844, 4208.205078, 4205.641113, 4201.025391, 4201.025391, 4197.436035, 4173.333008, 4201.538574, 4189.743652, 0.000000, 8190.000000, 8176.000000, 0.000000, 0.000000, 0.000000, -21759.000000, 78.461540, 4.000000, 4.000000, 4.000000, 4.000000, 4.000000, 4.000000, 4.000000, 4.000000, 4.000000, 4.000000, 4.000000, 4.000000, 4.000000, 4.000000, 4.000000, 4.000000
27.000000, 0.000000, 4130.256348, 4086.666504, 4197.436035, 4190.769043, 4193.333008, 4202.051270, 4205.641113, 4210.256348, 4206.153809, 4197.948730, 4198.461426, 4178.461426, 4201.538574, 4194.871582, 0.000000, 8192.000000, 8174.000000, 0.000000, 0.000000, 0.000000, -21759.000000, 86.666664, 4.000000, 4.000000, 4.000000, 4.000000, 4.000000, 4.000000, 4.000000, 4.000000, 4.000000, 4.000000, 4.000000, 4.000000, 4.000000, 4.000000, 4.000000, 4.000000
28.000000, 0.000000, 4132.820313, 4086.153809, 4202.051270, 4195.384277, 4189.743652, 4198.974121, 4201.025391, 4216.410156, 4213.846191, 4208.205078, 4199.487305, 4188.205078, 4212.307617, 4192.307617, 0.000000, 8192.000000, 8174.000000, 0.000000, 0.000000, 0.000000, -21759.000000, 94.358971, 4.000000, 4.000000, 4.000000, 4.000000, 4.000000, 4.000000, 4.000000, 4.000000, 4.000000, 4.000000, 4.000000, 4.000000, 4.000000, 4.000000, 4.000000, 4.000000
29.000000, 0.000000, 4135.897461, 4084.102539, 4206.153809, 4201.025391, 4182.051270, 4198.974121, 4202.051270, 4216.410156, 4215.384277, 4212.820313, 4198.974121, 4181.538574, 4216.922852, 4185.641113, 0.000000, 8193.000000, 8175.000000, 0.000000, 0.000000, 0.000000, -21759.000000, 102.051277, 4.000000, 4.000000, 4.000000, 4.000000, 4.000000, 4.000000, 4.000000, 4.000000, 4.000000, 4.000000, 4.000000, 4.000000, 4.000000, 4.000000, 4.000000, 4.000000
30.000000, 0.000000, 4132.820313, 4085.128174, 4201.538574, 4191.281738, 4182.051270, 4198.461426, 4203.589844, 4209.230469, 4208.717773, 4206.153809, 4192.307617, 4167.179199, 4209.743652, 4188.205078, 0.000000, 8193.000000, 8175.000000, 0.000000, 0.000000, 0.000000, -21759.000000, 110.256409, 4.000000, 4.000000, 4.000000, 4.000000, 4.000000, 4.000000, 4.000000, 4.000000, 4.000000, 4.000000, 4.000000, 4.000000, 4.000000, 4.000000, 4.000000, 4.000000
31.000000, 0.000000, 4122.563965, 4084.102539, 4192.307617, 4183.589844, 4188.205078, 4197.948730, 4204.615234, 4199.487305, 4194.871582, 4196.410156, 4180.512695, 4164.102539, 4198.974121, 4182.563965, 0.000000, 8195.000000, 8167.000000, 0.000000, 0.000000, 0.000000, -21759.000000, 117.948715, 4.000000, 4.000000, 4.000000, 4.000000, 4.000000, 4.000000, 4.000000, 4.000000, 4.000000, 4.000000, 4.000000, 4.000000, 4.000000, 4.000000, 4.000000, 4.000000
32.000000, 0.000000, 4116.922852, 4076.923096, 4186.666504, 4186.153809, 4183.589844, 4201.538574, 4203.589844, 4196.410156, 4182.563965, 4181.025391, 4165.127930, 4163.589844, 4181.025391, 4168.205078, 0.000000, 8195.000000, 8167.000000, 0.000000, 0.000000, 0.000000, -21759.000000, 125.641022, 4.000000, 4.000000, 4.000000, 4.000000, 4.000000, 4.000000, 4.000000, 4.000000, 4.000000, 4.000000, 4.000000, 4.000000, 4.000000, 4.000000, 4.000000, 4.000000
33.000000, 0.000000, 4112.820313, 4073.845947, 4191.281738, 4191.794922, 4177.436035, 4212.307617, 4206.153809, 4203.589844, 4181.025391, 4167.179199, 4156.922852, 4159.487305, 4163.589844, 4172.820313, 0.000000, 8194.000000, 8170.000000, 0.000000, 0.000000, 0.000000, -21759.000000, 133.846146, 4.000000, 4.000000, 4.000000, 4.000000, 4.000000, 4.000000, 4.000000, 4.000000, 4.000000, 4.000000, 4.000000, 4.000000, 4.000000, 4.000000, 4.000000, 4.000000
34.000000, 0.000000, 4122.563965, 4078.461426, 4202.051270, 4194.871582, 4194.358887, 4218.461426, 4213.333008, 4214.871582, 4194.871582, 4175.384277, 4164.615234, 4163.589844, 4168.717773, 4178.461426, 0.000000, 8194.000000, 8170.000000, 0.000000, 0.000000, 0.000000, -21759.000000, 141.538452, 4.000000, 4.000000, 4.000000, 4.000000, 4.000000, 4.000000, 4.000000, 4.000000, 4.000000, 4.000000, 4.000000, 4.000000, 4.000000, 4.000000, 4.000000, 4.000000
35.000000, 0.000000, 4131.794922, 4081.025635, 4203.076660, 4194.358887, 4207.179199, 4208.717773, 4210.769043, 4220.512695, 4212.820313, 4191.794922, 4172.820313, 4171.281738, 4189.743652, 4182.563965, 0.000000, 8193.000000, 8170.000000, 0.000000, 0.000000, 0.000000, -21759.000000, 149.743591, 4.000000, 4.000000, 4.000000, 4.000000, 4.000000, 4.000000, 4.000000, 4.000000, 4.000000, 4.000000, 4.000000, 4.000000, 4.000000, 4.000000, 4.000000, 4.000000
36.000000, 0.000000, 4129.743652, 4081.025635, 4195.897461, 4196.922852, 4198.461426, 4200.000000, 4201.538574, 4218.974121, 4220.000000, 4198.974121, 4177.948730, 4174.358887, 4199.487305, 4188.717773, 0.000000, 8193.000000, 8170.000000, 0.000000, 0.000000, 0.000000, -21759.000000, 157.435898, 4.000000, 4.000000, 4.000000, 4.000000, 4.000000, 4.000000, 4.000000, 4.000000, 4.000000, 4.000000, 4.000000, 4.000000, 4.000000, 4.000000, 4.000000, 4.000000
37.000000, 0.000000, 4136.922852, 4090.256348, 4198.461426, 4203.589844, 4198.461426, 4196.922852, 4202.051270, 4213.846191, 4211.794922, 4203.589844, 4188.205078, 4176.922852, 4198.974121, 4191.794922, 0.000000, 8197.000000, 8167.000000, 0.000000, 0.000000, 0.000000, -21759.000000, 165.641022, 4.000000, 4.000000, 4.000000, 4.000000, 4.000000, 4.000000, 4.000000, 4.000000, 4.000000, 4.000000, 4.000000, 4.000000, 4.000000, 4.000000, 4.000000, 4.000000
38.000000, 0.000000, 4138.461426, 4095.384521, 4206.153809, 4200.000000, 4201.538574, 4189.230469, 4200.000000, 4207.179199, 4201.025391, 4204.102539, 4190.769043, 4183.076660, 4205.641113, 4199.487305, 0.000000, 8197.000000, 8167.000000, 0.000000, 0.000000, 0.000000, -21759.000000, 173.333328, 4.000000, 4.000000, 4.000000, 4.000000, 4.000000, 4.000000, 4.000000, 4.000000, 4.000000, 4.000000, 4.000000, 4.000000, 4.000000, 4.000000, 4.000000, 4.000000
39.000000, 0.000000, 4144.102539, 4094.871582, 4210.256348, 4201.538574, 4191.281738, 4190.256348, 4189.743652, 4190.256348, 4188.717773, 4196.922852, 4186.153809, 4182.563965, 4217.948730, 4202.563965, 0.000000, 8197.000000, 8171.000000, 0.000000, 0.000000, 0.000000, -21759.000000, 181.538452, 4.000000, 4.000000, 4.000000, 4.000000, 4.000000, 4.000000, 4.000000, 4.000000, 4.000000, 4.000000, 4.000000, 4.000000, 4.000000, 4.000000, 4.000000, 4.000000
40.000000, 0.000000, 4150.256348, 4098.974121, 4213.333008, 4215.897461, 4189.743652, 4194.358887, 4184.615234, 4170.256348, 4174.871582, 4189.743652, 4184.615234, 4174.871582, 4215.897461, 4197.436035, 0.000000, 8197.000000, 8171.000000, 0.000000, 0.000000, 0.000000, -21759.000000, 189.230759, 4.000000, 4.000000, 4.000000, 4.000000, 4.000000, 4.000000, 4.000000, 4.000000, 4.000000, 4.000000, 4.000000, 4.000000, 4.000000, 4.000000, 4.000000, 4.000000
41.000000, 0.000000, 4145.641113, 4096.410156, 4211.794922, 4213.846191, 4202.051270, 4185.641113, 4183.589844, 4170.769043, 4169.230469, 4186.153809, 4183.076660, 4171.281738, 4202.563965, 4195.384277, 0.000000, 8205.000000, 8172.000000, 0.000000, 0.000000, 0.000000, -21759.000000, 196.923065, 4.000000, 4.000000, 4.000000, 4.000000, 4.000000, 4.000000, 4.000000, 4.000000, 4.000000, 4.000000, 4.000000, 4.000000, 4.000000, 4.000000, 4.000000, 4.000000
42.000000, 0.000000, 4151.794922, 4095.384521, 4209.743652, 4207.692383, 4197.948730, 4188.205078, 4185.641113, 4180.000000, 4173.846191, 4186.153809, 4185.641113, 4175.897461, 4206.666504, 4202.563965, 0.000000, 8205.000000, 8172.000000, 0.000000, 0.000000, 0.000000, -21759.000000, 204.615387, 4.000000, 4.000000, 4.000000, 4.000000, 4.000000, 4.000000, 4.000000, 4.000000, 4.000000, 4.000000, 4.000000, 4.000000, 4.000000, 4.000000, 4.000000, 4.000000
43.000000, 0.000000, 4151.794922, 4096.410156, 4207.179199, 4216.922852, 4185.127930, 4198.461426, 4189.743652, 4171.281738, 4176.410156, 4191.794922, 4188.717773, 4175.897461, 4220.512695, 4213.333008, 0.000000, 8203.000000, 8168.000000, 0.000000, 0.000000, 0.000000, -21759.000000, 212.820511, 4.000000, 4.000000, 4.000000, 4.000000, 4.000000, 4.000000, 4.000000, 4.000000, 4.000000, 4.000000, 4.000000, 4.000000, 4.000000, 4.000000, 4.000000, 4.000000
44.000000, 0.000000, 4146.153809, 4097.436035, 4200.000000, 4217.436035, 4192.820313, 4192.820313, 4186.153809, 4166.153809, 4180.512695, 4197.436035, 4187.179199, 4165.641113, 4217.436035, 4206.666504, 0.000000, 8203.000000, 8168.000000, 0.000000, 0.000000, 0.000000, -21759.000000, 220.512817, 4.000000, 4.000000, 4.000000, 4.000000, 4.000000, 4.000000, 4.000000, 4.000000, 4.000000, 4.000000, 4.000000, 4.000000, 4.000000, 4.000000, 4.000000, 4.000000
45.000000, 0.000000, 4143.076660, 4095.384521, 4194.871582, 4198.974121, 4209.743652, 4191.794922, 4185.127930, 4183.589844, 4192.820313, 4202.051270, 4191.794922, 4163.589844, 4212.307617, 4200.512695, 0.000000, 8204.000000, 8156.000000, 0.000000, 0.000000, 0.000000, -21759.000000, 228.717941, 4.000000, 4.000000, 4.000000, 4.000000, 4.000000, 4.000000, 4.000000, 4.000000, 4.000000, 4.000000, 4.000000, 4.000000, 4.000000, 4.000000, 4.000000, 4.000000
46.000000, 0.000000, 4137.436035, 4090.769043, 4196.410156, 4197.436035, 4208.717773, 4203.076660, 4192.307617, 4193.846191, 4201.025391, 4211.794922, 4201.538574, 4175.384277, 4222.051270, 4204.102539, 0.000000, 8204.000000, 8156.000000, 0.000000, 0.000000, 0.000000, -21759.000000, 236.410248, 4.000000, 4.000000, 4.000000, 4.000000, 4.000000, 4.000000, 4.000000, 4.000000, 4.000000, 4.000000, 4.000000, 4.000000, 4.000000, 4.000000, 4.000000, 4.000000
47.000000, 0.000000, 4147.179199, 4094.871582, 4202.051270, 4215.384277, 4200.512695, 4202.563965, 4186.153809, 4185.127930, 4198.461426, 4217.948730, 4200.512695, 4179.487305, 4230.769043, 4200.000000, 0.000000, 8204.000000, 8158.000000, 0.000000, 0.000000, 0.000000, -21759.000000, 244.102554, 4.000000, 4.000000, 4.000000, 4.000000, 4.000000, 4.000000, 4.000000, 4.000000, 4.000000, 4.000000, 4.000000, 4.000000, 4.000000, 4.000000, 4.000000, 4.000000
48.000000, 0.000000, 4155.384277, 4097.436035, 4205.127930, 4215.384277, 4206.153809, 4197.436035, 4180.512695, 4186.153809, 4198.974121, 4215.384277, 4202.563965, 4176.410156, 4230.769043, 4203.076660, 0.000000, 8204.000000, 8158.000000, 0.000000, 0.000000, 0.000000, -21759.000000, 251.794861, 4.000000, 4.000000, 4.000000, 4.000000, 4.000000, 4.000000, 4.000000, 4.000000, 4.000000, 4.000000, 4.000000, 4.000000, 4.000000, 4.000000, 4.000000, 4.000000
49.000000, 0.000000, 4161.538574, 4102.051270, 4212.307617, 4213.846191, 4207.179199, 4201.538574, 4190.769043, 4205.127930, 4209.230469, 4218.974121, 4215.897461, 4183.589844, 4236.410156, 4202.051270, 0.000000, 8189.000000, 8171.000000, 0.000000, 0.000000, 0.000000, -21759.000000, 260.000000, 4.000000, 4.000000, 4.000000, 4.000000, 4.000000, 4.000000, 4.000000, 4.000000, 4.000000, 4.000000, 4.000000, 4.000000, 4.000000, 4.000000, 4.000000, 4.000000
50.000000, 0.000000, 4170.769043, 4117.436035, 4223.589844, 4224.102539, 4191.281738, 4200.512695, 4193.333008, 4215.384277, 4221.025391, 4230.256348, 4223.589844, 4200.000000, 4249.230469, 4195.384277, 0.000000, 8189.000000, 8171.000000, 0.000000, 0.000000, 0.000000, -21759.000000, 267.692291, 4.000000, 4.000000, 4.000000, 4.000000, 4.000000, 4.000000, 4.000000, 4.000000, 4.000000, 4.000000, 4.000000, 4.000000, 4.000000, 4.000000, 4.000000, 4.000000
51.000000, 0.000000, 4168.717773, 4132.307617, 4227.179199, 4225.127930, 4188.717773, 4197.948730, 4193.333008, 4208.717773, 4220.000000, 4232.307617, 4223.076660, 4205.641113, 4251.794922, 4202.051270, 0.000000, 8189.000000, 8171.000000, 0.000000, 0.000000, 0.000000, -21759.000000, 275.897430, 4.000000, 4.000000, 4.000000, 4.000000, 4.000000, 4.000000, 4.000000, 4.000000, 4.000000, 4.000000, 4.000000, 4.000000, 4.000000, 4.000000, 4.000000, 4.000000
52.000000, 0.000000, 4170.769043, 4135.384277, 4223.076660, 4218.461426, 4204.102539, 4201.538574, 4201.025391, 4197.436035, 4207.692383, 4225.127930, 4218.974121, 4197.948730, 4236.410156, 4202.563965, 0.000000, 8189.000000, 8171.000000, 0.000000, 0.000000, 0.000000, -21759.000000, 283.589722, 4.000000, 4.000000, 4.000000, 4.000000, 4.000000, 4.000000, 4.000000, 4.000000, 4.000000, 4.000000, 4.000000, 4.000000, 4.000000, 4.000000, 4.000000, 4.000000
53.000000, 0.000000, 4164.102539, 4124.102539, 4214.358887, 4210.256348, 4204.615234, 4199.487305, 4203.076660, 4190.256348, 4197.436035, 4215.384277, 4210.256348, 4191.794922, 4221.538574, 4194.871582, 0.000000, 8192.000000, 8171.000000, 0.000000, 0.000000, 0.000000, -21759.000000, 291.282043, 4.000000, 4.000000, 4.000000, 4.000000, 4.000000, 4.000000, 4.000000, 4.000000, 4.000000, 4.000000, 4.000000, 4.000000, 4.000000, 4.000000, 4.000000, 4.000000
54.000000, 0.000000, 4154.871582, 4113.846191, 4207.179199, 4202.563965, 4195.897461, 4191.794922, 4198.461426, 4192.307617, 4197.436035, 4203.589844, 4201.025391, 4187.692383, 4220.000000, 4187.692383, 0.000000, 8192.000000, 8171.000000, 0.000000, 0.000000, 0.000000, -21759.000000, 299.487183, 4.000000, 4.000000, 4.000000, 4.000000, 4.000000, 4.000000, 4.000000, 4.000000, 4.000000, 4.000000, 4.000000, 4.000000, 4.000000, 4.000000, 4.000000, 4.000000
55.000000, 0.000000, 4158.974121, 4113.333008, 4205.127930, 4200.000000, 4201.025391, 4194.871582, 4201.025391, 4197.948730, 4198.461426, 4198.974121, 4199.487305, 4183.589844, 4218.974121, 4190.769043, 0.000000, 8191.000000, 8181.000000, 0.000000, 0.000000, 0.000000, -21759.000000, 307.179474, 4.000000, 4.000000, 4.000000, 4.000000, 4.000000, 4.000000, 4.000000, 4.000000, 4.000000, 4.000000, 4.000000, 4.000000, 4.000000, 4.000000, 4.000000, 4.000000
56.000000, 0.000000, 4157.436035, 4114.358887, 4202.563965, 4196.410156, 4200.512695, 4199.487305, 4202.051270, 4201.025391, 4191.281738, 4202.051270, 4201.025391, 4182.051270, 4206.666504, 4196.410156, 0.000000, 8191.000000, 8181.000000, 0.000000, 0.000000, 0.000000, -21759.000000, 315.384613, 4.000000, 4.000000, 4.000000, 4.000000, 4.000000, 4.000000, 4.000000, 4.000000, 4.000000, 4.000000, 4.000000, 4.000000, 4.000000, 4.000000, 4.000000, 4.000000
57.000000, 0.000000, 4157.948730, 4109.230469, 4201.025391, 4191.794922, 4192.820313, 4196.410156, 4195.897461, 4201.538574, 4183.076660, 4209.743652, 4194.358887, 4177.948730, 4197.948730, 4189.743652, 0.000000, 8193.000000, 8176.000000, 0.000000, 0.000000, 0.000000, -21759.000000, 323.076904, 4.000000, 4.000000, 4.000000, 4.000000, 4.000000, 4.000000, 4.000000, 4.000000, 4.000000, 4.000000, 4.000000, 4.000000, 4.000000, 4.000000, 4.000000, 4.000000
58.000000, 0.000000, 4158.461426, 4101.538574, 4204.102539, 4195.897461, 4197.948730, 4195.897461, 4197.436035, 4200.512695, 4187.692383, 4214.871582, 4188.717773, 4179.487305, 4203.589844, 4191.281738, 0.000000, 8193.000000, 8176.000000, 0.000000, 0.000000, 0.000000, -21759.000000, 330.769226, 4.000000, 4.000000, 4.000000, 4.000000, 4.000000, 4.000000, 4.000000, 4.000000, 4.000000, 4.000000, 4.000000, 4.000000, 4.000000, 4.000000, 4.000000, 4.000000
59.000000, 0.000000, 4159.487305, 4105.127930, 4210.256348, 4200.000000, 4203.076660, 4199.487305, 4201.025391, 4201.025391, 4198.461426, 4206.153809, 4190.769043, 4184.615234, 4202.563965, 4194.358887, 0.000000, 8203.000000, 8173.000000, 0.000000, 0.000000, 0.000000, -21759.000000, 338.974365, 4.000000, 4.000000, 4.000000, 4.000000, 4.000000, 4.000000, 4.000000, 4.000000, 4.000000, 4.000000, 4.000000, 4.000000, 4.000000, 4.000000, 4.000000, 4.000000
60.000000, 0.000000, 4161.538574, 4115.384277, 4208.205078, 4189.230469, 4197.436035, 4200.512695, 4203.076660, 4202.051270, 4196.922852, 4201.025391, 4191.281738, 4181.538574, 4191.281738, 4188.205078, 0.000000, 8203.000000, 8173.000000, 0.000000, 0.000000, 0.000000, -21759.000000, 346.666656, 4.000000, 4.000000, 4.000000, 4.000000, 4.000000, 4.000000, 4.000000, 4.000000, 4.000000, 4.000000, 4.000000, 4.000000, 4.000000, 4.000000, 4.000000, 4.000000
61.000000, 0.000000, 4152.307617, 4110.256348, 4200.512695, 4182.563965, 4188.717773, 4197.948730, 4202.051270, 4198.974121, 4192.820313, 4211.794922, 4187.692383, 4177.948730, 4192.307617, 4189.230469, 0.000000, 8199.000000, 8170.000000, 0.000000, 0.000000, 0.000000, -21759.000000, 354.871796, 4.000000, 4.000000, 4.000000, 4.000000, 4.000000, 4.000000, 4.000000, 4.000000, 4.000000, 4.000000, 4.000000, 4.000000, 4.000000, 4.000000, 4.000000, 4.000000
62.000000, 0.000000, 4155.897461, 4105.127930, 4205.127930, 4192.307617, 4185.127930, 4205.127930, 4200.512695, 4200.000000, 4198.974121, 4213.333008, 4186.666504, 4181.538574, 4196.410156, 4190.769043, 0.000000, 8199.000000, 8170.000000, 0.000000, 0.000000, 0.000000, -21759.000000, 362.564087, 4.000000, 4.000000, 4.000000, 4.000000, 4.000000, 4.000000, 4.000000, 4.000000, 4.000000, 4.000000, 4.000000, 4.000000, 4.000000, 4.000000, 4.000000, 4.000000
63.000000, 0.000000, 4160.512695, 4110.256348, 4211.281738, 4200.000000, 4194.358887, 4216.922852, 4204.615234, 4202.051270, 4193.846191, 4202.051270, 4185.641113, 4180.000000, 4186.153809, 4195.897461, 0.000000, 8203.000000, 8164.000000, 0.000000, 0.000000, 0.000000, -21759.000000, 370.256409, 4.000000, 4.000000, 4.000000, 4.000000, 4.000000, 4.000000, 4.000000, 4.000000, 4.000000, 4.000000, 4.000000, 4.000000, 4.000000, 4.000000, 4.000000, 4.000000
64.000000, 0.000000, 4154.358887, 4110.256348, 4204.102539, 4201.025391, 4210.256348, 4213.333008, 4204.102539, 4186.666504, 4174.358887, 4189.230469, 4180.512695, 4167.692383, 4181.025391, 4197.948730, 3345.000000, 8203.000000, 8164.000000, 0.000000, 0.000000, 0.000000, -21759.000000, 377.948700, 4.000000, 4.000000, 4.000000, 4.000000, 4.000000, 4.000000, 4.000000, 4.000000, 4.000000, 4.000000, 4.000000, 4.000000, 4.000000, 4.000000, 4.000000, 4.000000
65.000000, 0.000000, 4150.769043, 4097.948730, 4195.897461, 4197.948730, 4209.230469, 4202.051270, 4195.384277, 4168.717773, 4163.076660, 4173.333008, 4169.743652, 4157.436035, 4171.794922, 4188.717773, 3498.000000, 8212.000000, 8163.000000, 0.000000, 0.000000, 0.000000, -21759.000000, 386.153839, 4.000000, 4.000000, 4.000000, 4.000000, 4.000000, 4.000000, 4.000000, 4.000000, 4.000000, 4.000000, 4.000000, 4.000000, 4.000000, 4.000000, 4.000000, 4.000000
66.000000, 0.000000, 4144.102539, 4092.307617, 4196.922852, 4190.769043, 4201.025391, 4201.025391, 4195.897461, 4172.307617, 4169.743652, 4168.205078, 4163.589844, 4160.000000, 4152.307617, 4192.307617, 2682.000000, 8212.000000, 8163.000000, 0.000000, 0.000000, 0.000000, -21759.000000, 393.846130, 4.000000, 4.000000, 4.000000, 4.000000, 4.000000, 4.000000, 4.000000, 4.000000, 4.000000, 4.000000, 4.000000, 4.000000, 4.000000, 4.000000, 4.000000, 4.000000
67.000000, 0.000000, 4156.922852, 4110.769043, 4203.076660, 4192.307617, 4203.076660, 4203.589844, 4196.922852, 4184.102539, 4183.076660, 4180.000000, 4178.461426, 4170.769043, 4170.256348, 4201.538574, 2007.000000, 8206.000000, 8157.000000, 0.000000, 0.000000, 0.000000, -21759.000000, 402.051270, 4.000000, 4.000000, 4.000000, 4.000000, 4.000000, 4.000000, 4.000000, 4.000000, 4.000000, 4.000000, 4.000000, 4.000000, 4.000000, 4.000000, 4.000000, 4.000000
68.000000, 0.000000, 4174.358887, 4125.127930, 4205.127930, 4202.051270, 4205.641113, 4199.487305, 4194.358887, 4188.205078, 4189.743652, 4196.922852, 4203.589844, 4182.563965, 4214.358887, 4201.538574, 3534.000000, 8206.000000, 8157.000000, 0.000000, 0.000000, 0.000000, -21759.000000, 409.743591, 4.000000, 4.000000, 4.000000, 4.000000, 4.000000, 4.000000, 4.000000, 4.000000, 4.000000, 4.000000, 4.000000, 4.000000, 4.000000, 4.000000, 4.000000, 4.000000
69.000000, 0.000000, 4166.666504, 4113.333008, 4195.897461, 4198.461426, 4200.512695, 4197.948730, 4195.897461, 4186.153809, 4187.179199, 4207.692383, 4209.230469, 4184.615234, 4223.589844, 4193.333008, 3537.000000, 8211.000000, 8155.000000, 0.000000, 0.000000, 0.000000, -21759.000000, 417.948700, 4.000000, 4.000000, 4.000000, 4.000000, 4.000000, 4.000000, 4.000000, 4.000000, 4.000000, 4.000000, 4.000000, 4.000000, 4.000000, 4.000000, 4.000000, 4.000000
70.000000, 0.000000, 4161.538574, 4104.615234, 4191.794922, 4189.230469, 4201.538574, 4200.512695, 4196.410156, 4186.153809, 4193.333008, 4211.281738, 4210.256348, 4184.615234, 4219.487305, 4182.563965, 3056.000000, 8211.000000, 8155.000000, 0.000000, 0.000000, 0.000000, -21759.000000, 425.641022, 4.000000, 4.000000, 4.000000, 4.000000, 4.000000, 4.000000, 4.000000, 4.000000, 4.000000, 4.000000, 4.000000, 4.000000, 4.000000, 4.000000, 4.000000, 4.000000
71.000000, 0.000000, 4163.589844, 4107.179199, 4195.897461, 4194.358887, 4201.538574, 4202.051270, 4196.410156, 4192.820313, 4203.076660, 4211.794922, 4224.102539, 4189.743652, 4241.025391, 4177.948730, 3507.000000, 8210.000000, 8158.000000, 0.000000, 0.000000, 0.000000, -21759.000000, 433.333313, 4.000000, 4.000000, 4.000000, 4.000000, 4.000000, 4.000000, 4.000000, 4.000000, 4.000000, 4.000000, 4.000000, 4.000000, 4.000000, 4.000000, 4.000000, 4.000000
72.000000, 0.000000, 4167.692383, 4106.153809, 4194.871582, 4200.512695, 4191.281738, 4201.538574, 4195.384277, 4199.487305, 4201.538574, 4215.384277, 4229.230469, 4186.666504, 4251.281738, 4169.230469, 3507.000000, 8210.000000, 8158.000000, 0.000000, 0.000000, 0.000000, -21759.000000, 441.025635, 4.000000, 4.000000, 4.000000, 4.000000, 4.000000, 4.000000, 4.000000, 4.000000, 4.000000, 4.000000, 4.000000, 4.000000, 4.000000, 4.000000, 4.000000, 4.000000
73.000000, 0.000000, 4167.179199, 4102.051270, 4192.307617, 4197.436035, 4194.358887, 4198.974121, 4191.794922, 4202.051270, 4199.487305, 4217.948730, 4221.538574, 4182.051270, 4240.000000, 4168.717773, 3524.000000, 8206.000000, 8156.000000, 0.000000, 0.000000, 0.000000, -21759.000000, 449.230743, 4.000000, 4.000000, 4.000000, 4.000000, 4.000000, 4.000000, 4.000000, 4.000000, 4.000000, 4.000000, 4.000000, 4.000000, 4.000000, 4.000000, 4.000000, 4.000000
74.000000, 0.000000, 4165.127930, 4106.153809, 4197.948730, 4198.974121, 4213.846191, 4204.102539, 4195.384277, 4203.076660, 4203.076660, 4219.487305, 4220.512695, 4184.102539, 4240.000000, 4172.820313, 3547.000000, 8206.000000, 8156.000000, 0.000000, 0.000000, 0.000000, -21759.000000, 456.923065, 4.000000, 4.000000, 4.000000, 4.000000, 4.000000, 4.000000, 4.000000, 4.000000, 4.000000, 4.000000, 4.000000, 4.000000, 4.000000, 4.000000, 4.000000, 4.000000
75.000000, 0.000000, 4169.743652, 4107.692383, 4201.538574, 4204.102539, 4218.974121, 4209.743652, 4205.641113, 4202.051270, 4203.589844, 4213.333008, 4214.871582, 4178.974121, 4235.897461, 4167.179199, 1004.000000, 8205.000000, 8161.000000, 0.000000, 0.000000, 0.000000, -21759.000000, 465.128204, 4.000000, 4.000000, 4.000000, 4.000000, 4.000000, 4.000000, 4.000000, 4.000000, 4.000000, 4.000000, 4.000000, 4.000000, 4.000000, 4.000000, 4.000000, 4.000000
76.000000, 0.000000, 4160.512695, 4098.974121, 4193.846191, 4202.051270, 4209.743652, 4205.641113, 4204.102539, 4200.000000, 4200.000000, 4202.563965, 4204.615234, 4169.230469, 4222.051270, 4172.307617, 3465.000000, 8205.000000, 8161.000000, 0.000000, 0.000000, 0.000000, -21759.000000, 472.820496, 4.000000, 4.000000, 4.000000, 4.000000, 4.000000, 4.000000, 4.000000, 4.000000, 4.000000, 4.000000, 4.000000, 4.000000, 4.000000, 4.000000, 4.000000, 4.000000
77.000000, 0.000000, 4154.358887, 4102.051270, 4190.256348, 4197.436035, 4210.256348, 4202.051270, 4196.922852, 4203.589844, 4195.384277, 4208.205078, 4208.205078, 4168.205078, 4224.102539, 4171.794922, 3421.000000, 8198.000000, 8163.000000, 0.000000, 0.000000, 0.000000, -21759.000000, 480.512817, 4.000000, 4.000000, 4.000000, 4.000000, 4.000000, 4.000000, 4.000000, 4.000000, 4.000000, 4.000000, 4.000000, 4.000000, 4.000000, 4.000000, 4.000000, 4.000000
78.000000, 0.000000, 4155.897461, 4109.230469, 4190.256348, 4201.025391, 4207.692383, 4205.641113, 4196.922852, 4200.000000, 4196.922852, 4215.384277, 4213.333008, 4167.179199, 4235.384277, 4166.153809, 3547.000000, 8198.000000, 8163.000000, 0.000000, 0.000000, 0.000000, -21759.000000, 488.205109, 4.000000, 4.000000, 4.000000, 4.000000, 4.000000, 4.000000, 4.000000, 4.000000, 4.000000, 4.000000, 4.000000, 4.000000, 4.000000, 4.000000, 4.000000, 4.000000
79.000000, 0.000000, 4149.230469, 4102.563965, 4185.127930, 4201.025391, 4196.410156, 4205.641113, 4193.333008, 4187.692383, 4198.461426, 4204.102539, 4203.589844, 4158.974121, 4227.179199, 4168.717773, 1004.000000, 8200.000000, 8161.000000, 0.000000, 0.000000, 0.000000, -21759.000000, 496.410248, 4.000000, 4.000000, 4.000000, 4.000000, 4.000000, 4.000000, 4.000000, 4.000000, 4.000000, 4.000000, 4.000000, 4.000000, 4.000000, 4.000000, 4.000000, 4.000000
80.000000, 0.000000, 4148.205078, 4097.948730, 4186.666504, 4190.256348, 4198.461426, 4201.025391, 4192.307617, 4184.102539, 4190.256348, 4194.871582, 4191.794922, 4149.230469, 4216.922852, 4166.153809, 3465.000000, 8200.000000, 8161.000000, 0.000000, 0.000000, 0.000000, -21759.000000, 504.102539, 4.000000, 4.000000, 4.000000, 4.000000, 4.000000, 4.000000, 4.000000, 4.000000, 4.000000, 4.000000, 4.000000, 4.000000, 4.000000, 4.000000, 4.000000, 4.000000
81.000000, 0.000000, 4145.127930, 4101.025391, 4193.846191, 4190.256348, 4209.230469, 4202.563965, 4200.000000, 4185.641113, 4183.589844, 4194.871582, 4189.230469, 4144.615234, 4216.410156, 4168.717773, 3421.000000, 8202.000000, 8160.000000, 0.000000, 0.000000, 0.000000, -21759.000000, 512.307678, 4.000000, 4.000000, 4.000000, 4.000000, 4.000000, 4.000000, 4.000000, 4.000000, 4.000000, 4.000000, 4.000000, 4.000000, 4.000000, 4.000000, 4.000000, 4.000000
82.000000, 0.000000, 4146.153809, 4103.076660, 4192.820313, 4202.563965, 4208.205078, 4205.641113, 4203.589844, 4185.641113, 4187.692383, 4192.307617, 4186.153809, 4145.127930, 4213.333008, 4178.461426, 3547.000000, 8202.000000, 8160.000000, 0.000000, 0.000000, 0.000000, -21759.000000, 520.000000, 4.000000, 4.000000, 4.000000, 4.000000, 4.000000, 4.000000, 4.000000, 4.000000, 4.000000, 4.000000, 4.000000, 4.000000, 4.000000, 4.000000, 4.000000, 4.000000
83.000000, 0.000000, 4148.717773, 4098.974121, 4187.692383, 4197.436035, 4198.974121, 4200.512695, 4199.487305, 4191.794922, 4190.256348, 4195.897461, 4185.127930, 4148.205078, 4213.333008, 4186.153809, 1004.000000, 8194.000000, 8159.000000, 0.000000, 0.000000, 0.000000, -21759.000000, 528.205139, 4.000000, 4.000000, 4.000000, 4.000000, 4.000000, 4.000000, 4.000000, 4.000000, 4.000000, 4.000000, 4.000000, 4.000000, 4.000000, 4.000000, 4.000000, 4.000000
84.000000, 0.000000, 4141.538574, 4095.384521, 4194.358887, 4186.666504, 4197.948730, 4197.948730, 4197.948730, 4201.025391, 4193.333008, 4202.563965, 4193.333008, 4157.436035, 4216.410156, 4190.256348, 3465.000000, 8194.000000, 8159.000000, 0.000000, 0.000000, 0.000000, -21759.000000, 535.897400, 4.000000, 4.000000, 4.000000, 4.000000, 4.000000, 4.000000, 4.000000, 4.000000, 4.000000, 4.000000, 4.000000, 4.000000, 4.000000, 4.000000, 4.000000, 4.000000
85.000000, 0.000000, 4147.179199, 4098.974121, 4206.153809, 4194.358887, 4205.127930, 4202.563965, 4201.538574, 4203.589844, 4202.051270, 4198.974121, 4199.487305, 4165.641113, 4218.461426, 4188.717773, 3421.000000, 8195.000000, 8160.000000, 0.000000, 0.000000, 0.000000, -21759.000000, 543.589722, 4.000000, 4.000000, 4.000000, 4.000000, 4.000000, 4.000000, 4.000000, 4.000000, 4.000000, 4.000000, 4.000000, 4.000000, 4.000000, 4.000000, 4.000000, 4.000000
86.000000, 0.000000, 4144.615234, 4089.230713, 4200.000000, 4195.384277, 4195.897461, 4203.589844, 4202.051270, 4203.589844, 4204.615234, 4200.000000, 4196.410156, 4162.051270, 4218.461426, 4191.281738, 3547.000000, 8195.000000, 8160.000000, 0.000000, 0.000000, 0.000000, -21759.000000, 551.794861, 4.000000, 4.000000, 4.000000, 4.000000, 4.000000, 4.000000, 4.000000, 4.000000, 4.000000, 4.000000, 4.000000, 4.000000, 4.000000, 4.000000, 4.000000, 4.000000
87.000000, 0.000000, 4132.820313, 4078.974365, 4188.717773, 4185.127930, 4182.563965, 4201.538574, 4201.025391, 4203.076660, 4200.000000, 4209.230469, 4193.846191, 4156.410156, 4212.307617, 4191.281738, 1004.000000, 8199.000000, 8162.000000, 0.000000, 0.000000, 0.000000, -21759.000000, 559.487183, 4.000000, 4.000000, 4.000000, 4.000000, 4.000000, 4.000000, 4.000000, 4.000000, 4.000000, 4.000000, 4.000000, 4.000000, 4.000000, 4.000000, 4.000000, 4.000000
88.000000, 0.000000, 4139.487305, 4100.000000, 4195.897461, 4191.794922, 4195.897461, 4203.076660, 4203.589844, 4202.563965, 4202.563965, 4215.384277, 4202.051270, 4165.641113, 4217.436035, 4196.410156, 3465.000000, 8199.000000, 8162.000000, 0.000000, 0.000000, 0.000000, -21759.000000, 567.179443, 4.000000, 4.000000, 4.000000, 4.000000, 4.000000, 4.000000, 4.000000, 4.000000, 4.000000, 4.000000, 4.000000, 4.000000, 4.000000, 4.000000, 4.000000, 4.000000
89.000000, 0.000000, 4142.051270, 4117.436035, 4200.512695, 4202.051270, 4211.281738, 4205.641113, 4207.179199, 4205.641113, 4205.641113, 4210.769043, 4205.641113, 4174.871582, 4226.666504, 4198.974121, 3421.000000, 8190.000000, 8171.000000, 0.000000, 0.000000, 0.000000, -21759.000000, 575.384583, 4.000000, 4.000000, 4.000000, 4.000000, 4.000000, 4.000000, 4.000000, 4.000000, 4.000000, 4.000000, 4.000000, 4.000000, 4.000000, 4.000000, 4.000000, 4.000000
90.000000, 0.000000, 4138.974121, 4100.000000, 4191.281738, 4193.846191, 4200.512695, 4204.102539, 4204.615234, 4199.487305, 4193.846191, 4198.461426, 4197.436035, 4168.205078, 4220.000000, 4183.589844, 3547.000000, 8190.000000, 8171.000000, 0.000000, 0.000000, 0.000000, -21759.000000, 583.076904, 4.000000, 4.000000, 4.000000, 4.000000, 4.000000, 4.000000, 4.000000, 4.000000, 4.000000, 4.000000, 4.000000, 4.000000, 4.000000, 4.000000, 4.000000, 4.000000
91.000000, 0.000000, 4133.846191, 4081.538330, 4190.256348, 4186.153809, 4190.769043, 4195.897461, 4199.487305, 4186.666504, 4184.102539, 4194.871582, 4193.333008, 4166.153809, 4211.794922, 4183.589844, 1004.000000, 8191.000000, 8174.000000, 0.000000, 0.000000, 0.000000, -21759.000000, 591.282043, 4.000000, 4.000000, 4.000000, 4.000000, 4.000000, 4.000000, 4.000000, 4.000000, 4.000000, 4.000000, 4.000000, 4.000000, 4.000000, 4.000000, 4.000000, 4.000000
92.000000, 0.000000, 4128.717773, 4082.051270, 4192.307617, 4186.666504, 4183.589844, 4184.615234, 4194.358887, 4177.436035, 4180.512695, 4192.820313, 4189.743652, 4169.230469, 4209.230469, 4195.384277, 3465.000000, 8191.000000, 8174.000000, 0.000000, 0.000000, 0.000000, -21759.000000, 598.974365, 4.000000, 4.000000, 4.000000, 4.000000, 4.000000, 4.000000, 4.000000, 4.000000, 4.000000, 4.000000, 4.000000, 4.000000, 4.000000, 4.000000, 4.000000, 4.000000
93.000000, 0.000000, 4129.230469, 4084.615234, 4189.230469, 4185.641113, 4167.179199, 4180.512695, 4189.230469, 4171.281738, 4174.358887, 4185.641113, 4185.127930, 4165.127930, 4201.538574, 4194.871582, 3421.000000, 8197.000000, 8175.000000, 0.000000, 0.000000, 0.000000, -21759.000000, 606.666626, 4.000000, 4.000000, 4.000000, 4.000000, 4.000000, 4.000000, 4.000000, 4.000000, 4.000000, 4.000000, 4.000000, 4.000000, 4.000000, 4.000000, 4.000000, 4.000000
94.000000, 0.000000, 4128.717773, 4080.512695, 4188.717773, 4185.127930, 4173.333008, 4185.127930, 4187.692383, 4173.333008, 4174.871582, 4185.641113, 4184.102539, 4162.051270, 4199.487305, 4194.871582, 3547.000000, 8197.000000, 8175.000000, 0.000000, 0.000000, 0.000000, -21759.000000, 614.358948, 4.000000, 4.000000, 4.000000, 4.000000, 4.000000, 4.000000, 4.000000, 4.000000, 4.000000, 4.000000, 4.000000, 4.000000, 4.000000, 4.000000, 4.000000, 4.000000
95.000000, 0.000000, 4134.871582, 4076.410156, 4193.333008, 4187.692383, 4191.794922, 4187.179199, 4186.666504, 4181.538574, 4184.615234, 4198.974121, 4185.127930, 4165.641113, 4203.589844, 4192.307617, 1004.000000, 8202.000000, 8173.000000, 0.000000, 0.000000, 0.000000, -21759.000000, 622.564087, 4.000000, 4.000000, 4.000000, 4.000000, 4.000000, 4.000000, 4.000000, 4.000000, 4.000000, 4.000000, 4.000000, 4.000000, 4.000000, 4.000000, 4.000000, 4.000000
96.000000, 0.000000, 4135.384277, 4072.820313, 4194.871582, 4192.307617, 4188.717773, 4188.205078, 4186.666504, 4186.153809, 4192.307617, 4203.589844, 4185.127930, 4170.769043, 4202.051270, 4191.794922, 3465.000000, 8202.000000, 8173.000000, 0.000000, 0.000000, 0.000000, -21759.000000, 630.256409, 4.000000, 4.000000, 4.000000, 4.000000, 4.000000, 4.000000, 4.000000, 4.000000, 4.000000, 4.000000, 4.000000, 4.000000, 4.000000, 4.000000, 4.000000, 4.000000
97.000000, 0.000000, 4134.358887, 4069.743408, 4196.922852, 4198.461426, 4184.615234, 4193.846191, 4191.281738, 4190.256348, 4194.358887, 4196.410156, 4188.205078, 4168.205078, 4203.076660, 4194.358887, 3421.000000, 8203.000000, 8169.000000, 0.000000, 0.000000, 0.000000, -21759.000000, 638.461548, 4.000000, 4.000000, 4.000000, 4.000000, 4.000000, 4.000000, 4.000000, 4.000000, 4.000000, 4.000000, 4.000000, 4.000000, 4.000000, 4.000000, 4.000000, 4.000000
98.000000, 0.000000, 4147.179199, 4073.333252, 4207.692383, 4202.563965, 4200.000000, 4200.512695, 4194.871582, 4200.512695, 4196.922852, 4209.230469, 4197.948730, 4168.717773, 4216.922852, 4193.846191, 3547.000000, 8203.000000, 8169.000000, 0.000000, 0.000000, 0.000000, -21759.000000, 646.153809, 4.000000, 4.000000, 4.000000, 4.000000, 4.000000, 4.000000, 4.000000, 4.000000, 4.000000, 4.000000, 4.000000, 4.000000, 4.000000, 4.000000, 4.000000, 4.000000
99.000000, 0.000000, 4146.666504, 4074.358887, 4211.281738, 4202.563965, 4198.974121, 4199.487305, 4198.974121, 4204.102539, 4198.974121, 4220.000000, 4202.563965, 4180.512695, 4227.692383, 4190.769043, 1004.000000, 8211.000000, 8171.000000, 0.000000, 0.000000, 0.000000, -21759.000000, 654.358948, 4.000000, 4.000000, 4.000000, 4.000000, 4.000000, 4.000000, 4.000000, 4.000000, 4.000000, 4.000000, 4.000000, 4.000000, 4.000000, 4.000000, 4.000000, 4.000000
100.000000, 0.000000, 4145.127930, 4072.820313, 4208.205078, 4201.538574, 4181.538574, 4193.846191, 4194.358887, 4198.461426, 4202.051270, 4206.666504, 4201.025391, 4185.641113, 4224.615234, 4180.512695, 3465.000000, 8211.000000, 8171.000000, 0.000000, 0.000000, 0.000000, -21759.000000, 662.051270, 4.000000, 4.000000, 4.000000, 4.000000, 4.000000, 4.000000, 4.000000, 4.000000, 4.000000, 4.000000, 4.000000, 4.000000, 4.000000, 4.000000, 4.000000, 4.000000
101.000000, 0.000000, 4150.256348, 4069.230713, 4209.230469, 4202.051270, 4190.256348, 4199.487305, 4189.743652, 4201.538574, 4204.615234, 4204.615234, 4204.615234, 4186.666504, 4222.051270, 4183.076660, 3421.000000, 8211.000000, 8173.000000, 0.000000, 0.000000, 0.000000, -21759.000000, 669.743591, 4.000000, 4.000000, 4.000000, 4.000000, 4.000000, 4.000000, 4.000000, 4.000000, 4.000000, 4.000000, 4.000000, 4.000000, 4.000000, 4.000000, 4.000000, 4.000000
102.000000, 0.000000, 4146.666504, 4052.820313, 4205.127930, 4200.000000, 4199.487305, 4201.538574, 4193.333008, 4206.666504, 4202.563965, 4217.436035, 4206.153809, 4188.205078, 4223.589844, 4189.743652, 3547.000000, 8211.000000, 8173.000000, 0.000000, 0.000000, 0.000000, -21759.000000, 677.435852, 4.000000, 4.000000, 4.000000, 4.000000, 4.000000, 4.000000, 4.000000, 4.000000, 4.000000, 4.000000, 4.000000, 4.000000, 4.000000, 4.000000, 4.000000, 4.000000
103.000000, 0.000000, 4147.692383, 4046.153809, 4198.974121, 4200.512695, 4189.743652, 4187.692383, 4190.256348, 4199.487305, 4200.000000, 4215.384277, 4198.974121, 4181.538574, 4218.461426, 4183.589844, 1004.000000, 8208.000000, 8171.000000, 0.000000, 0.000000, 0.000000, -21759.000000, 685.640991, 4.000000, 4.000000, 4.000000, 4.000000, 4.000000, 4.000000, 4.000000, 4.000000, 4.000000, 4.000000, 4.000000, 4.000000, 4.000000, 4.000000, 4.000000, 4.000000
104.000000, 0.000000, 4152.820313, 4059.487061, 4200.512695, 4201.538574, 4189.743652, 4187.692383, 4184.615234, 4190.256348, 4203.076660, 4214.871582, 4205.127930, 4180.512695, 4223.076660, 4185.127930, 3465.000000, 8208.000000, 8171.000000, 0.000000, 0.000000, 0.000000, -21759.000000, 693.333313, 4.000000, 4.000000, 4.000000, 4.000000, 4.000000, 4.000000, 4.000000, 4.000000, 4.000000, 4.000000, 4.000000, 4.000000, 4.000000, 4.000000, 4.000000, 4.000000
105.000000, 0.000000, 4163.589844, 4066.153809, 4206.666504, 4203.076660, 4201.538574, 4207.179199, 4193.846191, 4194.358887, 4209.230469, 4230.256348, 4223.076660, 4192.820313, 4244.615234, 4186.666504, 3421.000000, 8209.000000, 8171.000000, 0.000000, 0.000000, 0.000000, -21759.000000, 701.538452, 4.000000, 4.000000, 4.000000, 4.000000, 4.000000, 4.000000, 4.000000, 4.000000, 4.000000, 4.000000, 4.000000, 4.000000, 4.000000, 4.000000, 4.000000, 4.000000
106.000000, 0.000000, 4166.153809, 4054.358887, 4211.281738, 4209.743652, 4206.153809, 4209.743652, 4206.153809, 4204.102539, 4209.230469, 4236.410156, 4224.102539, 4196.410156, 4252.820313, 4184.615234, 3547.000000, 8209.000000, 8171.000000, 0.000000, 0.000000, 0.000000, -21759.000000, 709.230774, 4.000000, 4.000000, 4.000000, 4.000000, 4.000000, 4.000000, 4.000000, 4.000000, 4.000000, 4.000000, 4.000000, 4.000000, 4.000000, 4.000000, 4.000000, 4.000000
107.000000, 0.000000, 4159.487305, 4046.666504, 4211.794922, 4210.769043, 4198.461426, 4200.000000, 4201.025391, 4201.025391, 4209.743652, 4233.846191, 4215.384277, 4192.820313, 4244.615234, 4181.025391, 1004.000000, 8210.000000, 8161.000000, 0.000000, 0.000000, 0.000000, -21759.000000, 716.923035, 4.000000, 4.000000, 4.000000, 4.000000, 4.000000, 4.000000, 4.000000, 4.000000, 4.000000, 4.000000, 4.000000, 4.000000, 4.000000, 4.000000, 4.000000, 4.000000
108.000000, 0.000000, 4168.717773, 4052.820313, 4213.333008, 4209.743652, 4187.692383, 4201.538574, 4194.358887, 4191.794922, 4211.281738, 4231.794922, 4215.897461, 4193.333008, 4242.563965, 4176.410156, 3465.000000, 8210.000000, 8161.000000, 0.000000, 0.000000, 0.000000, -21759.000000, 725.128174, 4.000000, 4.000000, 4.000000, 4.000000, 4.000000, 4.000000, 4.000000, 4.000000, 4.000000, 4.000000, 4.000000, 4.000000, 4.000000, 4.000000, 4.000000, 4.000000
109.000000, 0.000000, 4174.358887, 4054.871582, 4211.281738, 4212.820313, 4192.820313, 4206.153809, 4198.461426, 4202.563965, 4216.922852, 4231.281738, 4221.025391, 4196.922852, 4251.794922, 4187.179199, 3421.000000, 8208.000000, 8158.000000, 0.000000, 0.000000, 0.000000, -21759.000000, 732.820496, 4.000000, 4.000000, 4.000000, 4.000000, 4.000000, 4.000000, 4.000000, 4.000000, 4.000000, 4.000000, 4.000000, 4.000000, 4.000000, 4.000000, 4.000000, 4.000000
110.000000, 0.000000, 4171.281738, 4043.589600, 4207.692383, 4207.692383, 4207.692383, 4205.127930, 4203.589844, 4225.127930, 4227.179199, 4234.871582, 4222.563965, 4200.000000, 4252.307617, 4186.153809, 3547.000000, 8208.000000, 8158.000000, 0.000000, 0.000000, 0.000000, -21759.000000, 740.512817, 4.000000, 4.000000, 4.000000, 4.000000, 4.000000, 4.000000, 4.000000, 4.000000, 4.000000, 4.000000, 4.000000, 4.000000, 4.000000, 4.000000, 4.000000, 4.000000
111.000000, 0.000000, 4166.666504, 4031.794678, 4209.230469, 4202.051270, 4204.102539, 4204.615234, 4206.153809, 4221.025391, 4226.666504, 4238.461426, 4221.538574, 4202.051270, 4239.487305, 4177.948730, 1004.000000, 8204.000000, 8164.000000, 0.000000, 0.000000, 0.000000, -21759.000000, 748.717957, 4.000000, 4.000000, 4.000000, 4.000000, 4.000000, 4.000000, 4.000000, 4.000000, 4.000000, 4.000000, 4.000000, 4.000000, 4.000000, 4.000000, 4.000000, 4.000000
112.000000, 0.000000, 4166.666504, 4039.487061, 4210.769043, 4212.820313, 4198.974121, 4204.615234, 4201.538574, 4200.512695, 4215.384277, 4230.769043, 4214.358887, 4197.436035, 4234.358887, 4181.025391, 3465.000000, 8204.000000, 8164.000000, 0.000000, 0.000000, 0.000000, -21759.000000, 756.410217, 4.000000, 4.000000, 4.000000, 4.000000, 4.000000, 4.000000, 4.000000, 4.000000, 4.000000, 4.000000, 4.000000, 4.000000, 4.000000, 4.000000, 4.000000, 4.000000
113.000000, 0.000000, 4181.538574, 4055.384521, 4208.205078, 4221.025391, 4204.102539, 4203.589844, 4198.974121, 4205.127930, 4215.384277, 4220.512695, 4206.666504, 4187.692383, 4237.436035, 4181.538574, 3421.000000, 8198.000000, 8168.000000, 0.000000, 0.000000, 0.000000, -21759.000000, 764.615356, 4.000000, 4.000000, 4.000000, 4.000000, 4.000000, 4.000000, 4.000000, 4.000000, 4.000000, 4.000000, 4.000000, 4.000000, 4.000000, 4.000000, 4.000000, 4.000000
114.000000, 0.000000, 4183.076660, 4053.333252, 4204.615234, 4216.410156, 4202.563965, 4204.102539, 4203.589844, 4218.974121, 4217.948730, 4218.974121, 4204.615234, 4180.000000, 4225.127930, 4181.025391, 3547.000000, 8198.000000, 8168.000000, 0.000000, 0.000000, 0.000000, -21759.000000, 772.307678, 4.000000, 4.000000, 4.000000, 4.000000, 4.000000, 4.000000, 4.000000, 4.000000, 4.000000, 4.000000, 4.000000, 4.000000, 4.000000, 4.000000, 4.000000, 4.000000
115.000000, 0.000000, 4180.512695, 4051.281982, 4205.127930, 4217.948730, 4201.538574, 4198.974121, 4199.487305, 4202.563965, 4200.512695, 4213.333008, 4192.307617, 4171.281738, 4200.512695, 4180.512695, 1004.000000, 8200.000000, 8168.000000, 0.000000, 0.000000, 0.000000, -21759.000000, 780.512817, 4.000000, 4.000000, 4.000000, 4.000000, 4.000000, 4.000000, 4.000000, 4.000000, 4.000000, 4.000000, 4.000000, 4.000000, 4.000000, 4.000000, 4.000000, 4.000000
116.000000, 0.000000, 4188.717773, 4064.102539, 4205.127930, 4221.025391, 4200.512695, 4189.230469, 4188.205078, 4186.153809, 4190.769043, 4195.384277, 4178.461426, 4168.205078, 4189.743652, 4185.641113, 3465.000000, 8200.000000, 8168.000000, 0.000000, 0.000000, 0.000000, -21759.000000, 788.205139, 4.000000, 4.000000, 4.000000, 4.000000, 4.000000, 4.000000, 4.000000, 4.000000, 4.000000, 4.000000, 4.000000, 4.000000, 4.000000, 4.000000, 4.000000, 4.000000
117.000000, 0.000000, 4191.794922, 4068.205078, 4202.051270, 4222.051270, 4184.615234, 4184.102539, 4185.641113, 4196.922852, 4199.487305, 4187.179199, 4177.948730, 4170.256348, 4185.641113, 4190.256348, 3421.000000, 8195.000000, 8167.000000, 0.000000, 0.000000, 0.000000, -21759.000000, 796.410217, 4.000000, 4.000000, 4.000000, 4.000000, 4.000000, 4.000000, 4.000000, 4.000000, 4.000000, 4.000000, 4.000000, 4.000000, 4.000000, 4.000000, 4.000000, 4.000000
118.000000, 0.000000, 4197.436035, 4064.615234, 4204.102539, 4227.692383, 4178.974121, 4187.692383, 4188.717773, 4202.051270, 4197.436035, 4196.922852, 4179.487305, 4169.743652, 4176.410156, 4181.538574, 3547.000000, 8195.000000, 8167.000000, 0.000000, 0.000000, 0.000000, -21759.000000, 804.102539, 4.000000, 4.000000, 4.000000, 4.000000, 4.000000, 4.000000, 4.000000, 4.000000, 4.000000, 4.000000, 4.000000, 4.000000, 4.000000, 4.000000, 4.000000, 4.000000
119.000000, 0.000000, 4195.897461, 4062.563965, 4207.692383, 4231.281738, 4195.384277, 4197.436035, 4193.333008, 4191.794922, 4191.794922, 4203.589844, 4179.487305, 4172.307617, 4179.487305, 4172.307617, 1004.000000, 8193.000000, 8167.000000, 0.000000, 0.000000, 0.000000, -21759.000000, 811.794861, 4.000000, 4.000000, 4.000000, 4.000000, 4.000000, 4.000000, 4.000000, 4.000000, 4.000000, 4.000000, 4.000000, 4.000000, 4.000000, 4.000000, 4.000000, 4.000000
120.000000, 0.000000, 4193.333008, 4062.051270, 4210.256348, 4227.692383, 4207.179199, 4201.025391, 4195.897461, 4186.153809, 4193.846191, 4200.512695, 4180.512695, 4174.871582, 4181.025391, 4170.256348, 3465.000000, 8193.000000, 8167.000000, 0.000000, 0.000000, 0.000000, -21759.000000, 819.487183, 4.000000, 4.000000, 4.000000, 4.000000, 4.000000, 4.000000, 4.000000, 4.000000, 4.000000, 4.000000, 4.000000, 4.000000, 4.000000, 4.000000, 4.000000, 4.000000
121.000000, 0.000000, 4198.974121, 4064.615234, 4210.256348, 4225.127930, 4194.871582, 4197.948730, 4190.769043, 4187.692383, 4189.230469, 4198.974121, 4183.076660, 4176.410156, 4173.846191, 4176.410156, 3421.000000, 8192.000000, 8172.000000, 0.000000, 0.000000, 0.000000, -21759.000000, 827.692261, 4.000000, 4.000000, 4.000000, 4.000000, 4.000000, 4.000000, 4.000000, 4.000000, 4.000000, 4.000000, 4.000000, 4.000000, 4.000000, 4.000000, 4.000000, 4.000000
122.000000, 0.000000, 4196.410156, 4065.640869, 4210.256348, 4227.179199, 4186.153809, 4197.436035, 4190.256348, 4187.692383, 4181.025391, 4199.487305, 4188.717773, 4185.127930, 4177.948730, 4182.051270, 3547.000000, 8192.000000, 8172.000000, 0.000000, 0.000000, 0.000000, -21759.000000, 835.384583, 4.000000, 4.000000, 4.000000, 4.000000, 4.000000, 4.000000, 4.000000, 4.000000, 4.000000, 4.000000, 4.000000, 4.000000, 4.000000, 4.000000, 4.000000, 4.000000
123.000000, 0.000000, 4200.000000, 4061.025635, 4213.333008, 4224.615234, 4195.897461, 4200.512695, 4196.410156, 4185.641113, 4184.102539, 4196.410156, 4187.179199, 4191.281738, 4183.589844, 4177.436035, 1004.000000, 8200.000000, 8167.000000, 0.000000, 0.000000, 0.000000, -21759.000000, 843.589722, 4.000000, 4.000000, 4.000000, 4.000000, 4.000000, 4.000000, 4.000000, 4.000000, 4.000000, 4.000000, 4.000000, 4.000000, 4.000000, 4.000000, 4.000000, 4.000000
124.000000, 0.000000, 4196.410156, 4050.256348, 4211.281738, 4216.922852, 4191.281738, 4198.974121, 4194.358887, 4181.538574, 4184.102539, 4184.615234, 4174.871582, 4186.153809, 4172.307617, 4178.974121, 3465.000000, 8200.000000, 8167.000000, 0.000000, 0.000000, 0.000000, -21759.000000, 851.282043, 4.000000, 4.000000, 4.000000, 4.000000, 4.000000, 4.000000, 4.000000, 4.000000, 4.000000, 4.000000, 4.000000, 4.000000, 4.000000, 4.000000, 4.000000, 4.000000
125.000000, 0.000000, 4198.461426, 4052.820313, 4214.871582, 4222.563965, 4184.102539, 4197.436035, 4194.358887, 4187.692383, 4181.025391, 4176.922852, 4174.358887, 4184.102539, 4168.717773, 4181.538574, 3421.000000, 8195.000000, 8169.000000, 0.000000, 0.000000, 0.000000, -21759.000000, 858.974365, 4.000000, 4.000000, 4.000000, 4.000000, 4.000000, 4.000000, 4.000000, 4.000000, 4.000000, 4.000000, 4.000000, 4.000000, 4.000000, 4.000000, 4.000000, 4.000000
126.000000, 0.000000, 4217.948730, 4068.717773, 4228.205078, 4235.384277, 4200.000000, 4202.051270, 4203.589844, 4197.436035, 4191.281738, 4193.846191, 4189.743652, 4189.230469, 4183.076660, 4176.922852, 3547.000000, 8195.000000, 8169.000000, 0.000000, 0.000000, 0.000000, -21759.000000, 867.179443, 4.000000, 4.000000, 4.000000, 4.000000, 4.000000, 4.000000, 4.000000, 4.000000, 4.000000, 4.000000, 4.000000, 4.000000, 4.000000, 4.000000, 4.000000, 4.000000
127.000000, 0.000000, 4218.974121, 4066.666504, 4230.256348, 4235.384277, 4203.589844, 4205.127930, 4204.615234, 4197.948730, 4197.436035, 4207.179199, 4197.948730, 4195.384277, 4186.666504, 4177.436035, 54.000000, 8197.000000, 8172.000000, 0.000000, 0.000000, 0.000000, -21759.000000, 874.871765, 4.000000, 4.000000, 4.000000, 4.000000, 4.000000, 4.000000, 4.000000, 4.000000, 4.000000, 4.000000, 4.000000, 4.000000, 4.000000, 4.000000, 4.000000, 4.000000
0.000000, 0.000000, 4217.948730, 4055.384521, 4221.538574, 4231.794922, 4189.743652, 4204.102539, 4200.512695, 4208.205078, 4200.000000, 4202.563965, 4193.846191, 4196.410156, 4185.127930, 4173.846191, 3349.000000, 8197.000000, 8172.000000, 0.000000, 0.000000, 0.000000, -21759.000000, 882.564087, 4.000000, 4.000000, 4.000000, 4.000000, 4.000000, 4.000000, 4.000000, 4.000000, 4.000000, 4.000000, 4.000000, 4.000000, 4.000000, 4.000000, 4.000000, 4.000000
1.000000, 0.000000, 4217.436035, 4053.845947, 4216.410156, 4231.281738, 4197.948730, 4203.589844, 4202.563965, 4226.153809, 4210.256348, 4207.179199, 4197.436035, 4193.846191, 4190.256348, 4171.794922, 3501.000000, 8198.000000, 8168.000000, 0.000000, 0.000000, 0.000000, -21759.000000, 890.769226, 4.000000, 4.000000, 4.000000, 4.000000, 4.000000, 4.000000, 4.000000, 4.000000, 4.000000, 4.000000, 4.000000, 4.000000, 4.000000, 4.000000, 4.000000, 4.000000
2.000000, 0.000000, 4210.256348, 4054.358887, 4209.230469, 4223.076660, 4202.051270, 4201.538574, 4201.538574, 4219.487305, 4214.358887, 4214.358887, 4199.487305, 4188.205078, 4188.717773, 4174.358887, 2683.000000, 8198.000000, 8168.000000, 0.000000, 0.000000, 0.000000, -21759.000000, 898.461487, 4.000000, 4.000000, 4.000000, 4.000000, 4.000000, 4.000000, 4.000000, 4.000000, 4.000000, 4.000000, 4.000000, 4.000000, 4.000000, 4.000000, 4.000000, 4.000000
3.000000, 0.000000, 4211.281738, 4051.794678, 4206.153809, 4214.871582, 4185.127930, 4200.512695, 4204.102539, 4208.717773, 4211.794922, 4210.256348, 4190.256348, 4182.051270, 4188.205078, 4176.922852, 2010.000000, 8194.000000, 8170.000000, 0.000000, 0.000000, 0.000000, -21759.000000, 906.666626, 4.000000, 4.000000, 4.000000, 4.000000, 4.000000, 4.000000, 4.000000, 4.000000, 4.000000, 4.000000, 4.000000, 4.000000, 4.000000, 4.000000, 4.000000, 4.000000
4.000000, 0.000000, 4209.230469, 4050.256348, 4207.692383, 4214.358887, 4191.794922, 4207.692383, 4215.384277, 4220.512695, 4220.000000, 4210.256348, 4188.205078, 4181.538574, 4191.794922, 4180.512695, 3530.000000, 8194.000000, 8170.000000, 0.000000, 0.000000, 0.000000, -21759.000000, 914.358948, 4.000000, 4.000000, 4.000000, 4.000000, 4.000000, 4.000000, 4.000000, 4.000000, 4.000000, 4.000000, 4.000000, 4.000000, 4.000000, 4.000000, 4.000000, 4.000000
5.000000, 0.000000, 4212.820313, 4056.410156, 4208.717773, 4221.538574, 4208.205078, 4215.897461, 4213.846191, 4231.281738, 4227.179199, 4218.461426, 4197.436035, 4182.051270, 4191.794922, 4175.897461, 3535.000000, 8201.000000, 8167.000000, 0.000000, 0.000000, 0.000000, -21759.000000, 922.564087, 4.000000, 4.000000, 4.000000, 4.000000, 4.000000, 4.000000, 4.000000, 4.000000, 4.000000, 4.000000, 4.000000, 4.000000, 4.000000, 4.000000, 4.000000, 4.000000
6.000000, 0.000000, 4214.358887, 4058.461426, 4212.307617, 4227.692383, 4200.512695, 4211.794922, 4203.076660, 4227.179199, 4221.025391, 4215.897461, 4195.897461, 4178.974121, 4190.769043, 4176.922852, 3062.000000, 8201.000000, 8167.000000, 0.000000, 0.000000, 0.000000, -21759.000000, 930.256409, 4.000000, 4.000000, 4.000000, 4.000000, 4.000000, 4.000000, 4.000000, 4.000000, 4.000000, 4.000000, 4.000000, 4.000000, 4.000000, 4.000000, 4.000000, 4.000000
7.000000, 0.000000, 4209.230469, 4050.256348, 4212.820313, 4222.563965, 4184.102539, 4205.127930, 4203.076660, 4219.487305, 4214.871582, 4204.102539, 4184.615234, 4174.871582, 4187.179199, 4182.563965, 3506.000000, 8198.000000, 8171.000000, 0.000000, 0.000000, 0.000000, -21759.000000, 937.948669, 4.000000, 4.000000, 4.000000, 4.000000, 4.000000, 4.000000, 4.000000, 4.000000, 4.000000, 4.000000, 4.000000, 4.000000, 4.000000, 4.000000, 4.000000, 4.000000
8.000000, 0.000000, 4211.281738, 4047.179443, 4206.666504, 4215.897461, 4170.769043, 4205.127930, 4208.205078, 4214.871582, 4212.307617, 4200.000000, 4183.076660, 4175.897461, 4182.051270, 4187.179199, 3512.000000, 8198.000000, 8171.000000, 0.000000, 0.000000, 0.000000, -21759.000000, 945.640991, 4.000000, 4.000000, 4.000000, 4.000000, 4.000000, 4.000000, 4.000000, 4.000000, 4.000000, 4.000000, 4.000000, 4.000000, 4.000000, 4.000000, 4.000000, 4.000000
9.000000, 0.000000, 4209.743652, 4049.743408, 4202.051270, 4213.846191, 4168.717773, 4203.589844, 4204.615234, 4212.307617, 4207.692383, 4199.487305, 4185.641113, 4173.846191, 4182.563965, 4197.436035, 3540.000000, 8201.000000, 8176.000000, 0.000000, 0.000000, 0.000000, -21759.000000, 953.846130, 4.000000, 4.000000, 4.000000, 4.000000, 4.000000, 4.000000, 4.000000, 4.000000, 4.000000, 4.000000, 4.000000, 4.000000, 4.000000, 4.000000, 4.000000, 4.000000
10.000000, 0.000000, 4209.743652, 4051.794678, 4204.102539, 4213.846191, 4188.717773, 4199.487305, 4195.384277, 4201.538574, 4199.487305, 4195.384277, 4182.051270, 4166.153809, 4183.589844, 4194.871582, 3557.000000, 8201.000000, 8176.000000, 0.000000, 0.000000, 0.000000, -21759.000000, 961.538452, 4.000000, 4.000000, 4.000000, 4.000000, 4.000000, 4.000000, 4.000000, 4.000000, 4.000000, 4.000000, 4.000000, 4.000000, 4.000000, 4.000000, 4.000000, 4.000000
11.000000, 0.000000, 4211.794922, 4061.538330, 4204.615234, 4218.461426, 4207.692383, 4202.563965, 4195.897461, 4194.871582, 4196.922852, 4202.563965, 4183.076660, 4167.692383, 4185.127930, 4194.358887, 1000.000000, 8202.000000, 8175.000000, 0.000000, 0.000000, 0.000000, -21759.000000, 969.743591, 4.000000, 4.000000, 4.000000, 4.000000, 4.000000, 4.000000, 4.000000, 4.000000, 4.000000, 4.000000, 4.000000, 4.000000, 4.000000, 4.000000, 4.000000, 4.000000
12.000000, 0.000000, 4212.820313, 4067.179443, 4196.922852, 4220.512695, 4206.666504, 4205.641113, 4202.051270, 4206.666504, 4207.692383, 4214.358887, 4190.769043, 4169.743652, 4193.333008, 4204.615234, 3470.000000, 8202.000000, 8175.000000, 0.000000, 0.000000, 0.000000, -21759.000000, 977.435852, 4.000000, 4.000000, 4.000000, 4.000000, 4.000000, 4.000000, 4.000000, 4.000000, 4.000000, 4.000000, 4.000000, 4.000000, 4.000000, 4.000000, 4.000000, 4.000000
13.000000, 0.000000, 4218.974121, 4064.102539, 4187.692383, 4221.025391, 4200.000000, 4203.076660, 4202.051270, 4219.487305, 4217.948730, 4215.384277, 4197.948730, 4166.153809, 4201.025391, 4199.487305, 3421.000000, 8198.000000, 8171.000000, 0.000000, 0.000000, 0.000000, -21759.000000, 985.128174, 4.000000, 4.000000, 4.000000, 4.000000, 4.000000, 4.000000, 4.000000, 4.000000, 4.000000, 4.000000, 4.000000, 4.000000, 4.000000, 4.000000, 4.000000, 4.000000
14.000000, 0.000000, 4216.922852, 4064.102539, 4183.076660, 4225.127930, 4205.641113, 4206.666504, 4201.025391, 4218.461426, 4219.487305, 4225.641113, 4201.538574, 4175.384277, 4208.717773, 4197.948730, 3557.000000, 8198.000000, 8171.000000, 0.000000, 0.000000, 0.000000, -21759.000000, 993.333313, 4.000000, 4.000000, 4.000000, 4.000000, 4.000000, 4.000000, 4.000000, 4.000000, 4.000000, 4.000000, 4.000000, 4.000000, 4.000000, 4.000000, 4.000000, 4.000000
15.000000, 0.000000, 4217.948730, 4070.769043, 4187.179199, 4223.076660, 4206.666504, 4211.281738, 4203.589844, 4217.436035, 4216.410156, 4236.410156, 4203.076660, 4184.615234, 4213.333008, 4202.051270, 1000.000000, 8201.000000, 8170.000000, 0.000000, 0.000000, 0.000000, -21758.000000, 1.025641, 4.000000, 4.000000, 4.000000, 4.000000, 4.000000, 4.000000, 4.000000, 4.000000, 4.000000, 4.000000, 4.000000, 4.000000, 4.000000, 4.000000, 4.000000, 4.000000
16.000000, 0.000000, 4218.974121, 4068.717773, 4195.897461, 4215.897461, 4183.589844, 4203.076660, 4203.076660, 4215.897461, 4214.871582, 4228.205078, 4202.563965, 4176.922852, 4208.717773, 4202.563965, 0.000000, 8201.000000, 8170.000000, 0.000000, 0.000000, 0.000000, -21758.000000, 8.717949, 4.000000, 4.000000, 4.000000, 4.000000, 4.000000, 4.000000, 4.000000, 4.000000, 4.000000, 4.000000, 4.000000, 4.000000, 4.000000, 4.000000, 4.000000, 4.000000
17.000000, 0.000000, 4209.743652, 4056.410156, 4208.205078, 4211.794922, 4165.641113, 4198.974121, 4200.000000, 4216.922852, 4221.538574, 4221.025391, 4198.974121, 4177.948730, 4198.974121, 4201.025391, 0.000000, 8201.000000, 8170.000000, 0.000000, 0.000000, 0.000000, -21758.000000, 16.410255, 4.000000, 4.000000, 4.000000, 4.000000, 4.000000, 4.000000, 4.000000, 4.000000, 4.000000, 4.000000, 4.000000, 4.000000, 4.000000, 4.000000, 4.000000, 4.000000
18.000000, 0.000000, 4216.410156, 4055.897217, 4220.000000, 4208.205078, 4175.897461, 4205.641113, 4201.538574, 4218.974121, 4226.666504, 4222.051270, 4201.025391, 4194.871582, 4200.000000, 4198.974121, 0.000000, 8201.000000, 8170.000000, 0.000000, 0.000000, 0.000000, -21758.000000, 24.615383, 4.000000, 4.000000, 4.000000, 4.000000, 4.000000, 4.000000, 4.000000, 4.000000, 4.000000, 4.000000, 4.000000, 4.000000, 4.000000, 4.000000, 4.000000, 4.000000
19.000000, 0.000000, 4224.615234, 4063.076904, 4220.512695, 4209.230469, 4188.717773, 4206.153809, 4205.127930, 4215.384277, 4218.974121, 4226.153809, 4210.769043, 4200.512695, 4216.410156, 4202.563965, 0.000000, 8202.000000, 8175.000000, 0.000000, 0.000000, 0.000000, -21758.000000, 32.307690, 4.000000, 4.000000, 4.000000, 4.000000, 4.000000, 4.000000, 4.000000, 4.000000, 4.000000, 4.000000, 4.000000, 4.000000, 4.000000, 4.000000, 4.000000, 4.000000
20.000000, 0.000000, 4223.589844, 4065.128174, 4210.769043, 4217.948730, 4185.127930, 4202.563965, 4206.153809, 4214.358887, 4216.410156, 4227.179199, 4210.769043, 4191.281738, 4221.538574, 4201.025391, 0.000000, 8202.000000, 8175.000000, 0.000000, 0.000000, 0.000000, -21758.000000, 40.000000, 4.000000, 4.000000, 4.000000, 4.000000, 4.000000, 4.000000, 4.000000, 4.000000, 4.000000, 4.000000, 4.000000, 4.000000, 4.000000, 4.000000, 4.000000, 4.000000
21.000000, 0.000000, 4218.461426, 4064.102539, 4191.794922, 4213.333008, 4183.076660, 4203.589844, 4204.102539, 4215.897461, 4223.076660, 4219.487305, 4196.410156, 4175.384277, 4205.127930, 4198.461426, 0.000000, 8196.000000, 8176.000000, 0.000000, 0.000000, 0.000000, -21758.000000, 48.205128, 4.000000, 4.000000, 4.000000, 4.000000, 4.000000, 4.000000, 4.000000, 4.000000, 4.000000, 4.000000, 4.000000, 4.000000, 4.000000, 4.000000, 4.000000, 4.000000
22.000000, 0.000000, 4209.230469, 4065.640869, 4166.153809, 4198.461426, 4191.281738, 4200.512695, 4202.051270, 4205.127930, 4214.358887, 4212.820313, 4186.666504, 4158.461426, 4193.846191, 4196.922852, 0.000000, 8196.000000, 8176.000000, 0.000000, 0.000000, 0.000000, -21758.000000, 55.897434, 4.000000, 4.000000, 4.000000, 4.000000, 4.000000, 4.000000, 4.000000, 4.000000, 4.000000, 4.000000, 4.000000, 4.000000, 4.000000, 4.000000, 4.000000, 4.000000
23.000000, 0.000000, 4209.743652, 4070.256348, 4156.410156, 4198.461426, 4190.769043, 4198.461426, 4196.410156, 4190.256348, 4200.000000, 4215.384277, 4188.205078, 4147.692383, 4199.487305, 4185.641113, 0.000000, 8198.000000, 8171.000000, 0.000000, 0.000000, 0.000000, -21758.000000, 63.589741, 4.000000, 4.000000, 4.000000, 4.000000, 4.000000, 4.000000, 4.000000, 4.000000, 4.000000, 4.000000, 4.000000, 4.000000, 4.000000, 4.000000, 4.000000, 4.000000
24.000000, 0.000000, 4203.589844, 4067.692139, 4162.563965, 4204.615234, 4183.076660, 4206.153809, 4190.256348, 4194.358887, 4202.563965, 4209.230469, 4180.512695, 4143.589844, 4193.333008, 4188.717773, 0.000000, 8198.000000, 8171.000000, 0.000000, 0.000000, 0.000000, -21758.000000, 71.794868, 4.000000, 4.000000, 4.000000, 4.000000, 4.000000, 4.000000, 4.000000, 4.000000, 4.000000, 4.000000, 4.000000, 4.000000, 4.000000, 4.000000, 4.000000, 4.000000
25.000000, 0.000000, 4193.846191, 4064.102539, 4162.051270, 4201.025391, 4190.769043, 4214.871582, 4190.769043, 4197.436035, 4201.538574, 4192.820313, 4163.076660, 4138.974121, 4173.846191, 4200.000000, 0.000000, 8195.000000, 8166.000000, 0.000000, 0.000000, 0.000000, -21758.000000, 79.487175, 4.000000, 4.000000, 4.000000, 4.000000, 4.000000, 4.000000, 4.000000, 4.000000, 4.000000, 4.000000, 4.000000, 4.000000, 4.000000, 4.000000, 4.000000, 4.000000
26.000000, 0.000000, 4199.487305, 4068.717773, 4164.615234, 4199.487305, 4207.692383, 4225.127930, 4200.000000, 4199.487305, 4202.563965, 4196.922852, 4169.230469, 4145.127930, 4176.410156, 4201.538574, 0.000000, 8195.000000, 8166.000000, 0.000000, 0.000000, 0.000000, -21758.000000, 87.179482, 4.000000, 4.000000, 4.000000, 4.000000, 4.000000, 4.000000, 4.000000, 4.000000, 4.000000, 4.000000, 4.000000, 4.000000, 4.000000, 4.000000, 4.000000, 4.000000
27.000000, 0.000000, 4210.769043, 4073.845947, 4185.127930, 4210.769043, 4204.615234, 4231.794922, 4214.871582, 4223.589844, 4224.615234, 4223.076660, 4196.410156, 4170.256348, 4201.025391, 4201.025391, 0.000000, 8194.000000, 8162.000000, 0.000000, 0.000000, 0.000000, -21758.000000, 95.384613, 4.000000, 4.000000, 4.000000, 4.000000, 4.000000, 4.000000, 4.000000, 4.000000, 4.000000, 4.000000, 4.000000, 4.000000, 4.000000, 4.000000, 4.000000, 4.000000
28.000000, 0.000000, 4227.692383, 4080.512695, 4206.666504, 4221.025391, 4194.871582, 4222.563965, 4220.512695, 4243.076660, 4245.127930, 4245.641113, 4212.307617, 4190.769043, 4220.000000, 4200.512695, 0.000000, 8194.000000, 8162.000000, 0.000000, 0.000000, 0.000000, -21758.000000, 103.076920, 4.000000, 4.000000, 4.000000, 4.000000, 4.000000, 4.000000, 4.000000, 4.000000, 4.000000, 4.000000, 4.000000, 4.000000, 4.000000, 4.000000, 4.000000, 4.000000
29.000000, 0.000000, 4232.820313, 4086.153809, 4211.794922, 4218.461426, 4198.461426, 4215.384277, 4219.487305, 4239.487305, 4248.717773, 4247.692383, 4218.974121, 4202.563965, 4228.205078, 4205.641113, 0.000000, 8191.000000, 8160.000000, 0.000000, 0.000000, 0.000000, -21758.000000, 111.282051, 4.000000, 4.000000, 4.000000, 4.000000, 4.000000, 4.000000, 4.000000, 4.000000, 4.000000, 4.000000, 4.000000, 4.000000, 4.000000, 4.000000, 4.000000, 4.000000
30.000000, 0.000000, 4235.897461, 4090.256348, 4210.256348, 4217.948730, 4193.333008, 4218.461426, 4218.461426, 4233.333008, 4242.051270, 4249.743652, 4226.666504, 4211.794922, 4235.384277, 4203.076660, 0.000000, 8191.000000, 8160.000000, 0.000000, 0.000000, 0.000000, -21758.000000, 118.974358, 4.000000, 4.000000, 4.000000, 4.000000, 4.000000, 4.000000, 4.000000, 4.000000, 4.000000, 4.000000, 4.000000, 4.000000, 4.000000, 4.000000, 4.000000, 4.000000
31.000000, 0.000000, 4238.974121, 4090.256348, 4213.333008, 4222.051270, 4182.051270, 4212.307617, 4212.820313, 4227.692383, 4226.666504, 4252.820313, 4221.538574, 4207.692383, 4234.358887, 4195.384277, 0.000000, 8193.000000, 8162.000000, 0.000000, 0.000000, 0.000000, -21758.000000, 126.666664, 4.000000, 4.000000, 4.000000, 4.000000, 4.000000, 4.000000, 4.000000, 4.000000, 4.000000, 4.000000, 4.000000, 4.000000, 4.000000, 4.000000, 4.000000, 4.000000
32.000000, 0.000000, 4224.615234, 4083.076904, 4208.205078, 4218.461426, 4189.743652, 4207.179199, 4206.153809, 4217.948730, 4213.333008, 4232.307617, 4206.153809, 4196.410156, 4219.487305, 4194.358887, 0.000000, 8193.000000, 8162.000000, 0.000000, 0.000000, 0.000000, -21758.000000, 134.871796, 4.000000, 4.000000, 4.000000, 4.000000, 4.000000, 4.000000, 4.000000, 4.000000, 4.000000, 4.000000, 4.000000, 4.000000, 4.000000, 4.000000, 4.000000, 4.000000
33.000000, 0.000000, 4222.563965, 4082.563965, 4203.589844, 4215.897461, 4205.127930, 4215.897461, 4206.153809, 4211.281738, 4214.358887, 4211.794922, 4200.512695, 4190.256348, 4207.692383, 4187.692383, 0.000000, 8198.000000, 8156.000000, 0.000000, 0.000000, 0.000000, -21758.000000, 142.564102, 4.000000, 4.000000, 4.000000, 4.000000, 4.000000, 4.000000, 4.000000, 4.000000, 4.000000, 4.000000, 4.000000, 4.000000, 4.000000, 4.000000, 4.000000, 4.000000
34.000000, 0.000000, 4226.666504, 4085.128174, 4205.127930, 4221.025391, 4207.179199, 4219.487305, 4206.666504, 4206.666504, 4213.333008, 4214.358887, 4198.974121, 4186.666504, 4205.127930, 4187.692383, 0.000000, 8198.000000, 8156.000000, 0.000000, 0.000000, 0.000000, -21758.000000, 150.769226, 4.000000, 4.000000, 4.000000, 4.000000, 4.000000, 4.000000, 4.000000, 4.000000, 4.000000, 4.000000, 4.000000, 4.000000, 4.000000, 4.000000, 4.000000, 4.000000
35.000000, 0.000000, 4219.487305, 4083.589600, 4202.563965, 4218.974121, 4199.487305, 4212.307617, 4202.051270, 4206.153809, 4210.256348, 4218.974121, 4195.384277, 4180.000000, 4201.025391, 4192.307617, 0.000000, 8198.000000, 8147.000000, 0.000000, 0.000000, 0.000000, -21758.000000, 158.461533, 4.000000, 4.000000, 4.000000, 4.000000, 4.000000, 4.000000, 4.000000, 4.000000, 4.000000, 4.000000, 4.000000, 4.000000, 4.000000, 4.000000, 4.000000, 4.000000
36.000000, 0.000000, 4222.051270, 4082.051270, 4206.666504, 4213.333008, 4188.205078, 4205.641113, 4201.025391, 4214.871582, 4215.384277, 4215.384277, 4195.897461, 4182.563965, 4201.538574, 4187.179199, 0.000000, 8198.000000, 8147.000000, 0.000000, 0.000000, 0.000000, -21758.000000, 166.153839, 4.000000, 4.000000, 4.000000, 4.000000, 4.000000, 4.000000, 4.000000, 4.000000, 4.000000, 4.000000, 4.000000, 4.000000, 4.000000, 4.000000, 4.000000, 4.000000
37.000000, 0.000000, 4228.205078, 4083.589600, 4218.974121, 4214.358887, 4176.410156, 4196.410156, 4197.436035, 4215.384277, 4215.384277, 4215.384277, 4197.436035, 4190.769043, 4207.692383, 4185.127930, 0.000000, 8206.000000, 8145.000000, 0.000000, 0.000000, 0.000000, -21758.000000, 174.358963, 4.000000, 4.000000, 4.000000, 4.000000, 4.000000, 4.000000, 4.000000, 4.000000, 4.000000, 4.000000, 4.000000, 4.000000, 4.000000, 4.000000, 4.000000, 4.000000
38.000000, 0.000000, 4240.512695, 4091.281982, 4226.666504, 4219.487305, 4187.692383, 4196.922852, 4197.436035, 4213.333008, 4212.820313, 4224.102539, 4202.563965, 4198.461426, 4216.922852, 4189.230469, 0.000000, 8206.000000, 8145.000000, 0.000000, 0.000000, 0.000000, -21758.000000, 182.051285, 4.000000, 4.000000, 4.000000, 4.000000, 4.000000, 4.000000, 4.000000, 4.000000, 4.000000, 4.000000, 4.000000, 4.000000, 4.000000, 4.000000, 4.000000, 4.000000
39.000000, 0.000000, 4245.127930, 4095.384521, 4222.051270, 4220.000000, 4198.974121, 4212.307617, 4212.307617, 4221.538574, 4216.410156, 4236.410156, 4215.384277, 4205.127930, 4227.179199, 4196.922852, 0.000000, 8202.000000, 8146.000000, 0.000000, 0.000000, 0.000000, -21758.000000, 189.743591, 4.000000, 4.000000, 4.000000, 4.000000, 4.000000, 4.000000, 4.000000, 4.000000, 4.000000, 4.000000, 4.000000, 4.000000, 4.000000, 4.000000, 4.000000, 4.000000
40.000000, 0.000000, 4240.000000, 4096.410156, 4211.794922, 4218.974121, 4189.743652, 4221.025391, 4221.025391, 4228.205078, 4224.102539, 4240.000000, 4221.025391, 4201.538574, 4230.769043, 4198.461426, 0.000000, 8202.000000, 8146.000000, 0.000000, 0.000000, 0.000000, -21758.000000, 197.948715, 4.000000, 4.000000, 4.000000, 4.000000, 4.000000, 4.000000, 4.000000, 4.000000, 4.000000, 4.000000, 4.000000, 4.000000, 4.000000, 4.000000, 4.000000, 4.000000
41.000000, 0.000000, 4242.563965, 4103.076660, 4207.179199, 4220.000000, 4188.205078, 4218.461426, 4218.461426, 4232.820313, 4234.871582, 4236.410156, 4218.461426, 4198.974121, 4230.769043, 4192.307617, 0.000000, 8202.000000, 8151.000000, 0.000000, 0.000000, 0.000000, -21758.000000, 205.641022, 4.000000, 4.000000, 4.000000, 4.000000, 4.000000, 4.000000, 4.000000, 4.000000, 4.000000, 4.000000, 4.000000, 4.000000, 4.000000, 4.000000, 4.000000, 4.000000
42.000000, 0.000000, 4235.384277, 4101.025391, 4205.127930, 4214.358887, 4193.846191, 4219.487305, 4218.974121, 4230.769043, 4233.846191, 4236.922852, 4218.461426, 4205.127930, 4228.205078, 4194.358887, 0.000000, 8202.000000, 8151.000000, 0.000000, 0.000000, 0.000000, -21758.000000, 213.333328, 4.000000, 4.000000, 4.000000, 4.000000, 4.000000, 4.000000, 4.000000, 4.000000, 4.000000, 4.000000, 4.000000, 4.000000, 4.000000, 4.000000, 4.000000, 4.000000
43.000000, 0.000000, 4230.256348, 4092.820313, 4207.179199, 4207.692383, 4191.794922, 4218.461426, 4214.871582, 4212.307617, 4213.846191, 4226.153809, 4213.846191, 4204.102539, 4217.948730, 4195.897461, 0.000000, 8199.000000, 8166.000000, 0.000000, 0.000000, 0.000000, -21758.000000, 221.538452, 4.000000, 4.000000, 4.000000, 4.000000, 4.000000, 4.000000, 4.000000, 4.000000, 4.000000, 4.000000, 4.000000, 4.000000, 4.000000, 4.000000, 4.000000, 4.000000
44.000000, 0.000000, 4226.666504, 4089.230713, 4202.051270, 4204.615234, 4182.563965, 4206.153809, 4203.076660, 4200.512695, 4199.487305, 4205.641113, 4196.922852, 4187.692383, 4200.000000, 4194.871582, 0.000000, 8199.000000, 8166.000000, 0.000000, 0.000000, 0.000000, -21758.000000, 229.230759, 4.000000, 4.000000, 4.000000, 4.000000, 4.000000, 4.000000, 4.000000, 4.000000, 4.000000, 4.000000, 4.000000, 4.000000, 4.000000, 4.000000, 4.000000, 4.000000
45.000000, 0.000000, 4214.871582, 4083.589600, 4190.256348, 4202.051270, 4177.436035, 4197.436035, 4197.948730, 4196.410156, 4195.897461, 4192.820313, 4181.538574, 4170.769043, 4182.563965, 4192.307617, 0.000000, 8196.000000, 8168.000000, 0.000000, 0.000000, 0.000000, -21758.000000, 237.435898, 4.000000, 4.000000, 4.000000, 4.000000, 4.000000, 4.000000, 4.000000, 4.000000, 4.000000, 4.000000, 4.000000, 4.000000, 4.000000, 4.000000, 4.000000, 4.000000
46.000000, 0.000000, 4220.000000, 4088.717773, 4192.820313, 4207.692383, 4188.717773, 4201.538574, 4194.871582, 4188.205078, 4190.256348, 4190.256348, 4182.051270, 4168.717773, 4181.538574, 4190.769043, 0.000000, 8196.000000, 8168.000000, 0.000000, 0.000000, 0.000000, -21758.000000, 245.128204, 4.000000, 4.000000, 4.000000, 4.000000, 4.000000, 4.000000, 4.000000, 4.000000, 4.000000, 4.000000, 4.000000, 4.000000, 4.000000, 4.000000, 4.000000, 4.000000
47.000000, 0.000000, 4224.615234, 4100.000000, 4198.461426, 4212.820313, 4206.153809, 4204.102539, 4195.897461, 4182.051270, 4183.589844, 4191.281738, 4186.666504, 4172.307617, 4185.641113, 4193.333008, 0.000000, 8190.000000, 8170.000000, 0.000000, 0.000000, 0.000000, -21758.000000, 253.333328, 4.000000, 4.000000, 4.000000, 4.000000, 4.000000, 4.000000, 4.000000, 4.000000, 4.000000, 4.000000, 4.000000, 4.000000, 4.000000, 4.000000, 4.000000, 4.000000
48.000000, 0.000000, 4221.025391, 4096.922852, 4190.256348, 4210.769043, 4205.641113, 4202.051270, 4203.076660, 4181.538574, 4182.051270, 4192.307617, 4177.436035, 4166.153809, 4173.333008, 4182.563965, 0.000000, 8190.000000, 8170.000000, 0.000000, 0.000000, 0.000000, -21758.000000, 261.025635, 4.000000, 4.000000, 4.000000, 4.000000, 4.000000, 4.000000, 4.000000, 4.000000, 4.000000, 4.000000, 4.000000, 4.000000, 4.000000, 4.000000, 4.000000, 4.000000
49.000000, 0.000000, 4218.974121, 4095.384521, 4187.692383, 4212.820313, 4201.538574, 4204.615234, 4204.615234, 4189.230469, 4191.281738, 4202.563965, 4175.897461, 4163.589844, 4165.127930, 4178.974121, 0.000000, 8197.000000, 8168.000000, 0.000000, 0.000000, 0.000000, -21758.000000, 269.230774, 4.000000, 4.000000, 4.000000, 4.000000, 4.000000, 4.000000, 4.000000, 4.000000, 4.000000, 4.000000, 4.000000, 4.000000, 4.000000, 4.000000, 4.000000, 4.000000
50.000000, 0.000000, 4215.384277, 4102.051270, 4191.794922, 4214.358887, 4200.000000, 4208.717773, 4208.717773, 4200.000000, 4200.000000, 4209.230469, 4184.102539, 4169.743652, 4175.384277, 4190.769043, 0.000000, 8197.000000, 8168.000000, 0.000000, 0.000000, 0.000000, -21758.000000, 276.923065, 4.000000, 4.000000, 4.000000, 4.000000, 4.000000, 4.000000, 4.000000, 4.000000, 4.000000, 4.000000, 4.000000, 4.000000, 4.000000, 4.000000, 4.000000, 4.000000
51.000000, 0.000000, 4218.461426, 4100.512695, 4194.871582, 4207.179199, 4186.153809, 4205.641113, 4211.794922, 4202.563965, 4202.051270, 4203.589844, 4185.127930, 4172.307617, 4177.436035, 4188.205078, 0.000000, 8197.000000, 8166.000000, 0.000000, 0.000000, 0.000000, -21758.000000, 284.615387, 4.000000, 4.000000, 4.000000, 4.000000, 4.000000, 4.000000, 4.000000, 4.000000, 4.000000, 4.000000, 4.000000, 4.000000, 4.000000, 4.000000, 4.000000, 4.000000
52.000000, 0.000000, 4221.025391, 4097.948730, 4199.487305, 4205.127930, 4183.589844, 4201.025391, 4205.641113, 4200.000000, 4206.666504, 4210.769043, 4192.820313, 4180.512695, 4179.487305, 4189.230469, 0.000000, 8197.000000, 8166.000000, 0.000000, 0.000000, 0.000000, -21758.000000, 292.307678, 4.000000, 4.000000, 4.000000, 4.000000, 4.000000, 4.000000, 4.000000, 4.000000, 4.000000, 4.000000, 4.000000, 4.000000, 4.000000, 4.000000, 4.000000, 4.000000
53.000000, 0.000000, 4232.820313, 4111.794922, 4210.256348, 4210.256348, 4198.461426, 4205.127930, 4202.051270, 4204.615234, 4211.794922, 4229.743652, 4207.692383, 4193.846191, 4196.410156, 4193.846191, 0.000000, 8199.000000, 8163.000000, 0.000000, 0.000000, 0.000000, -21758.000000, 300.512817, 4.000000, 4.000000, 4.000000, 4.000000, 4.000000, 4.000000, 4.000000, 4.000000, 4.000000, 4.000000, 4.000000, 4.000000, 4.000000, 4.000000, 4.000000, 4.000000
54.000000, 0.000000, 4236.922852, 4112.820313, 4214.358887, 4204.615234, 4200.000000, 4216.410156, 4211.281738, 4209.230469, 4206.666504, 4226.666504, 4197.948730, 4193.333008, 4183.589844, 4188.205078, 0.000000, 8199.000000, 8163.000000, 0.000000, 0.000000, 0.000000, -21758.000000, 308.205109, 4.000000, 4.000000, 4.000000, 4.000000, 4.000000, 4.000000, 4.000000, 4.000000, 4.000000, 4.000000, 4.000000, 4.000000, 4.000000, 4.000000, 4.000000, 4.000000
55.000000, 0.000000, 4219.487305, 4092.307617, 4210.256348, 4197.436035, 4187.179199, 4217.436035, 4212.820313, 4200.000000, 4201.538574, 4210.769043, 4181.025391, 4183.076660, 4151.794922, 4184.615234, 0.000000, 8195.000000, 8163.000000, 0.000000, 0.000000, 0.000000, -21758.000000, 316.410248, 4.000000, 4.000000, 4.000000, 4.000000, 4.000000, 4.000000, 4.000000, 4.000000, 4.000000, 4.000000, 4.000000, 4.000000, 4.000000, 4.000000, 4.000000, 4.000000
56.000000, 0.000000, 4223.589844, 4089.230713, 4211.794922, 4200.000000, 4181.538574, 4206.666504, 4204.102539, 4187.692383, 4197.948730, 4210.769043, 4191.794922, 4182.563965, 4164.615234, 4192.307617, 0.000000, 8195.000000, 8163.000000, 0.000000, 0.000000, 0.000000, -21758.000000, 324.102570, 4.000000, 4.000000, 4.000000, 4.000000, 4.000000, 4.000000, 4.000000, 4.000000, 4.000000, 4.000000, 4.000000, 4.000000, 4.000000, 4.000000, 4.000000, 4.000000
57.000000, 0.000000, 4235.384277, 4102.051270, 4212.820313, 4203.076660, 4187.179199, 4200.512695, 4201.538574, 4181.538574, 4188.205078, 4212.307617, 4204.102539, 4188.717773, 4195.384277, 4205.127930, 0.000000, 8195.000000, 8162.000000, 0.000000, 0.000000, 0.000000, -21758.000000, 331.794861, 4.000000, 4.000000, 4.000000, 4.000000, 4.000000, 4.000000, 4.000000, 4.000000, 4.000000, 4.000000, 4.000000, 4.000000, 4.000000, 4.000000, 4.000000, 4.000000
58.000000, 0.000000, 4236.410156, 4104.615234, 4209.230469, 4202.051270, 4190.256348, 4202.563965, 4200.000000, 4182.051270, 4182.563965, 4204.102539, 4198.974121, 4186.153809, 4195.897461, 4196.410156, 0.000000, 8195.000000, 8162.000000, 0.000000, 0.000000, 0.000000, -21758.000000, 340.000000, 4.000000, 4.000000, 4.000000, 4.000000, 4.000000, 4.000000, 4.000000, 4.000000, 4.000000, 4.000000, 4.000000, 4.000000, 4.000000, 4.000000, 4.000000, 4.000000
59.000000, 0.000000, 4236.922852, 4098.461426, 4205.641113, 4200.000000, 4179.487305, 4201.025391, 4197.436035, 4183.076660, 4183.589844, 4197.436035, 4194.871582, 4177.436035, 4192.307617, 4185.127930, 0.000000, 8193.000000, 8159.000000, 0.000000, 0.000000, 0.000000, -21758.000000, 348.205109, 4.000000, 4.000000, 4.000000, 4.000000, 4.000000, 4.000000, 4.000000, 4.000000, 4.000000, 4.000000, 4.000000, 4.000000, 4.000000, 4.000000, 4.000000, 4.000000
60.000000, 0.000000, 4234.871582, 4096.410156, 4201.025391, 4199.487305, 4179.487305, 4200.512695, 4196.922852, 4182.051270, 4187.692383, 4196.410156, 4197.436035, 4175.897461, 4205.641113, 4193.846191, 0.000000, 8193.000000, 8159.000000, 0.000000, 0.000000, 0.000000, -21758.000000, 355.897430, 4.000000, 4.000000, 4.000000, 4.000000, 4.000000, 4.000000, 4.000000, 4.000000, 4.000000, 4.000000, 4.000000, 4.000000, 4.000000, 4.000000, 4.000000, 4.000000
61.000000, 0.000000, 4239.487305, 4101.538574, 4200.000000, 4200.000000, 4199.487305, 4201.538574, 4198.461426, 4189.743652, 4194.358887, 4207.179199, 4204.615234, 4181.025391, 4215.897461, 4192.820313, 0.000000, 8186.000000, 8159.000000, 0.000000, 0.000000, 0.000000, -21758.000000, 363.589722, 4.000000, 4.000000, 4.000000, 4.000000, 4.000000, 4.000000, 4.000000, 4.000000, 4.000000, 4.000000, 4.000000, 4.000000, 4.000000, 4.000000, 4.000000, 4.000000
62.000000, 0.000000, 4243.076660, 4097.948730, 4204.102539, 4201.538574, 4204.102539, 4200.512695, 4202.051270, 4202.563965, 4201.538574, 4214.871582, 4216.410156, 4189.743652, 4226.153809, 4196.410156, 0.000000, 8186.000000, 8159.000000, 0.000000, 0.000000, 0.000000, -21758.000000, 371.794861, 4.000000, 4.000000, 4.000000, 4.000000, 4.000000, 4.000000, 4.000000, 4.000000, 4.000000, 4.000000, 4.000000, 4.000000, 4.000000, 4.000000, 4.000000, 4.000000
63.000000, 0.000000, 4247.179199, 4090.769043, 4209.743652, 4204.615234, 4190.256348, 4205.127930, 4207.179199, 4205.641113, 4207.692383, 4210.256348, 4230.256348, 4202.051270, 4243.589844, 4206.153809, 0.000000, 8192.000000, 8159.000000, 0.000000, 0.000000, 0.000000, -21758.000000, 379.487183, 4.000000, 4.000000, 4.000000, 4.000000, 4.000000, 4.000000, 4.000000, 4.000000, 4.000000, 4.000000, 4.000000, 4.000000, 4.000000, 4.000000, 4.000000, 4.000000
64.000000, 0.000000, 4254.358887, 4097.948730, 4213.846191, 4204.102539, 4193.846191, 4215.384277, 4212.820313, 4207.179199, 4213.846191, 4224.615234, 4243.076660, 4213.333008, 4261.538574, 4203.076660, 3355.000000, 8192.000000, 8159.000000, 0.000000, 0.000000, 0.000000, -21758.000000, 387.179474, 4.000000, 4.000000, 4.000000, 4.000000, 4.000000, 4.000000, 4.000000, 4.000000, 4.000000, 4.000000, 4.000000, 4.000000, 4.000000, 4.000000, 4.000000, 4.000000
65.000000, 0.000000, 4248.205078, 4100.000000, 4218.461426, 4195.897461, 4201.025391, 4218.461426, 4221.538574, 4221.025391, 4221.538574, 4248.717773, 4252.820313, 4218.974121, 4273.333008, 4201.025391, 3506.000000, 8196.000000, 8158.000000, 0.000000, 0.000000, 0.000000, -21758.000000, 394.871796, 4.000000, 4.000000, 4.000000, 4.000000, 4.000000, 4.000000, 4.000000, 4.000000, 4.000000, 4.000000, 4.000000, 4.000000, 4.000000, 4.000000, 4.000000, 4.000000
66.000000, 0.000000, 4245.641113, 4090.769043, 4221.538574, 4185.641113, 4180.000000, 4217.436035, 4227.179199, 4232.820313, 4231.281738, 4251.281738, 4259.487305, 4216.410156, 4276.410156, 4197.948730, 2679.000000, 8196.000000, 8158.000000, 0.000000, 0.000000, 0.000000, -21758.000000, 403.076904, 4.000000, 4.000000, 4.000000, 4.000000, 4.000000, 4.000000, 4.000000, 4.000000, 4.000000, 4.000000, 4.000000, 4.000000, 4.000000, 4.000000, 4.000000, 4.000000
67.000000, 0.000000, 4247.692383, 4088.717773, 4219.487305, 4184.102539, 4167.692383, 4215.897461, 4221.538574, 4231.794922, 4235.897461, 4255.384277, 4267.692383, 4217.948730, 4284.615234, 4194.871582, 2015.000000, 8198.000000, 8155.000000, 0.000000, 0.000000, 0.000000, -21758.000000, 410.769226, 4.000000, 4.000000, 4.000000, 4.000000, 4.000000, 4.000000, 4.000000, 4.000000, 4.000000, 4.000000, 4.000000, 4.000000, 4.000000, 4.000000, 4.000000, 4.000000
68.000000, 0.000000, 4244.615234, 4089.743408, 4218.461426, 4187.179199, 4185.641113, 4216.922852, 4224.102539, 4232.307617, 4233.333008, 4272.307617, 4269.230469, 4223.589844, 4292.820313, 4190.256348, 3523.000000, 8198.000000, 8155.000000, 0.000000, 0.000000, 0.000000, -21758.000000, 418.974335, 4.000000, 4.000000, 4.000000, 4.000000, 4.000000, 4.000000, 4.000000, 4.000000, 4.000000, 4.000000, 4.000000, 4.000000, 4.000000, 4.000000, 4.000000, 4.000000
69.000000, 0.000000, 4247.692383, 4089.230713, 4220.512695, 4186.666504, 4193.846191, 4220.000000, 4230.256348, 4237.948730, 4238.974121, 4275.897461, 4266.153809, 4218.974121, 4288.205078, 4186.153809, 3538.000000, 8199.000000, 8153.000000, 0.000000, 0.000000, 0.000000, -21758.000000, 426.666656, 4.000000, 4.000000, 4.000000, 4.000000, 4.000000, 4.000000, 4.000000, 4.000000, 4.000000, 4.000000, 4.000000, 4.000000, 4.000000, 4.000000, 4.000000, 4.000000
70.000000, 0.000000, 4248.205078, 4094.358887, 4221.025391, 4187.692383, 4182.051270, 4213.846191, 4220.000000, 4236.922852, 4246.666504, 4264.102539, 4263.076660, 4212.307617, 4274.871582, 4188.205078, 3063.000000, 8199.000000, 8153.000000, 0.000000, 0.000000, 0.000000, -21758.000000, 434.358978, 4.000000, 4.000000, 4.000000, 4.000000, 4.000000, 4.000000, 4.000000, 4.000000, 4.000000, 4.000000, 4.000000, 4.000000, 4.000000, 4.000000, 4.000000, 4.000000
71.000000, 0.000000, 4251.281738, 4102.563965, 4221.025391, 4195.384277, 4180.000000, 4202.051270, 4209.230469, 4230.256348, 4238.974121, 4256.410156, 4253.846191, 4209.743652, 4266.666504, 4184.102539, 3515.000000, 8195.000000, 8154.000000, 0.000000, 0.000000, 0.000000, -21758.000000, 442.051270, 4.000000, 4.000000, 4.000000, 4.000000, 4.000000, 4.000000, 4.000000, 4.000000, 4.000000, 4.000000, 4.000000, 4.000000, 4.000000, 4.000000, 4.000000, 4.000000
72.000000, 0.000000, 4250.769043, 4103.076660, 4224.102539, 4201.538574, 4190.769043, 4200.000000, 4216.922852, 4231.794922, 4228.717773, 4248.205078, 4246.666504, 4210.769043, 4264.102539, 4182.051270, 3522.000000, 8195.000000, 8154.000000, 0.000000, 0.000000, 0.000000, -21758.000000, 450.256409, 4.000000, 4.000000, 4.000000, 4.000000, 4.000000, 4.000000, 4.000000, 4.000000, 4.000000, 4.000000, 4.000000, 4.000000, 4.000000, 4.000000, 4.000000, 4.000000
73.000000, 0.000000, 4249.743652, 4106.666504, 4226.666504, 4200.512695, 4184.102539, 4202.051270, 4217.436035, 4231.281738, 4226.153809, 4236.922852, 4247.179199, 4211.281738, 4258.461426, 4185.641113, 3540.000000, 8202.000000, 8147.000000, 0.000000, 0.000000, 0.000000, -21758.000000, 457.948700, 4.000000, 4.000000, 4.000000, 4.000000, 4.000000, 4.000000, 4.000000, 4.000000, 4.000000, 4.000000, 4.000000, 4.000000, 4.000000, 4.000000, 4.000000, 4.000000
74.000000, 0.000000, 4255.384277, 4114.358887, 4223.076660, 4200.000000, 4171.281738, 4196.922852, 4202.563965, 4212.820313, 4220.512695, 4233.333008, 4246.153809, 4207.179199, 4251.794922, 4184.615234, 3559.000000, 8202.000000, 8147.000000, 0.000000, 0.000000, 0.000000, -21758.000000, 466.153839, 4.000000, 4.000000, 4.000000, 4.000000, 4.000000, 4.000000, 4.000000, 4.000000, 4.000000, 4.000000, 4.000000, 4.000000, 4.000000, 4.000000, 4.000000, 4.000000
75.000000, 0.000000, 4250.256348, 4109.230469, 4220.512695, 4198.461426, 4181.025391, 4200.000000, 4207.179199, 4208.205078, 4216.922852, 4233.846191, 4245.641113, 4208.205078, 4251.794922, 4182.051270, 997.000000, 8195.000000, 8149.000000, 0.000000, 0.000000, 0.000000, -21758.000000, 473.846130, 4.000000, 4.000000, 4.000000, 4.000000, 4.000000, 4.000000, 4.000000, 4.000000, 4.000000, 4.000000, 4.000000, 4.000000, 4.000000, 4.000000, 4.000000, 4.000000
76.000000, 0.000000, 4249.230469, 4105.641113, 4222.563965, 4190.769043, 4195.897461, 4208.717773, 4222.563965, 4223.589844, 4218.974121, 4231.794922, 4243.589844, 4210.769043, 4249.743652, 4177.436035, 3476.000000, 8195.000000, 8149.000000, 0.000000, 0.000000, 0.000000, -21758.000000, 481.538452, 4.000000, 4.000000, 4.000000, 4.000000, 4.000000, 4.000000, 4.000000, 4.000000, 4.000000, 4.000000, 4.000000, 4.000000, 4.000000, 4.000000, 4.000000, 4.000000
77.000000, 0.000000, 4250.256348, 4110.256348, 4216.410156, 4185.127930, 4188.717773, 4205.127930, 4222.051270, 4224.615234, 4216.922852, 4229.743652, 4236.922852, 4207.179199, 4236.922852, 4183.589844, 3423.000000, 8198.000000, 8147.000000, 0.000000, 0.000000, 0.000000, -21758.000000, 489.743591, 4.000000, 4.000000, 4.000000, 4.000000, 4.000000, 4.000000, 4.000000, 4.000000, 4.000000, 4.000000, 4.000000, 4.000000, 4.000000, 4.000000, 4.000000, 4.000000
78.000000, 0.000000, 4247.692383, 4114.871582, 4213.333008, 4189.743652, 4184.102539, 4202.563965, 4221.025391, 4222.051270, 4220.512695, 4233.333008, 4234.871582, 4204.102539, 4235.384277, 4190.769043, 3559.000000, 8198.000000, 8147.000000, 0.000000, 0.000000, 0.000000, -21758.000000, 497.435883, 4.000000, 4.000000, 4.000000, 4.000000, 4.000000, 4.000000, 4.000000, 4.000000, 4.000000, 4.000000, 4.000000, 4.000000, 4.000000, 4.000000, 4.000000, 4.000000
79.000000, 0.000000, 4256.410156, 4120.512695, 4223.589844, 4196.922852, 4183.589844, 4204.102539, 4227.179199, 4234.358887, 4231.281738, 4235.897461, 4238.974121, 4207.179199, 4247.692383, 4185.127930, 997.000000, 8192.000000, 8146.000000, 0.000000, 0.000000, 0.000000, -21758.000000, 505.128204, 4.000000, 4.000000, 4.000000, 4.000000, 4.000000, 4.000000, 4.000000, 4.000000, 4.000000, 4.000000, 4.000000, 4.000000, 4.000000, 4.000000, 4.000000, 4.000000
80.000000, 0.000000, 4250.769043, 4118.461426, 4224.615234, 4195.897461, 4167.692383, 4200.512695, 4224.615234, 4239.487305, 4235.384277, 4231.794922, 4234.871582, 4205.127930, 4242.563965, 4187.179199, 3476.000000, 8192.000000, 8146.000000, 0.000000, 0.000000, 0.000000, -21758.000000, 513.333313, 4.000000, 4.000000, 4.000000, 4.000000, 4.000000, 4.000000, 4.000000, 4.000000, 4.000000, 4.000000, 4.000000, 4.000000, 4.000000, 4.000000, 4.000000, 4.000000
81.000000, 0.000000, 4242.051270, 4115.897461, 4213.846191, 4190.769043, 4168.205078, 4197.436035, 4221.025391, 4229.743652, 4229.743652, 4231.794922, 4225.641113, 4197.436035, 4228.717773, 4190.769043, 3423.000000, 8195.000000, 8141.000000, 0.000000, 0.000000, 0.000000, -21758.000000, 521.025635, 4.000000, 4.000000, 4.000000, 4.000000, 4.000000, 4.000000, 4.000000, 4.000000, 4.000000, 4.000000, 4.000000, 4.000000, 4.000000, 4.000000, 4.000000, 4.000000
82.000000, 0.000000, 4245.127930, 4123.076660, 4211.281738, 4187.692383, 4188.717773, 4203.589844, 4221.538574, 4228.717773, 4229.743652, 4229.743652, 4228.717773, 4198.974121, 4233.333008, 4188.205078, 3559.000000, 8195.000000, 8141.000000, 0.000000, 0.000000, 0.000000, -21758.000000, 528.717957, 4.000000, 4.000000, 4.000000, 4.000000, 4.000000, 4.000000, 4.000000, 4.000000, 4.000000, 4.000000, 4.000000, 4.000000, 4.000000, 4.000000, 4.000000, 4.000000
83.000000, 0.000000, 4241.538574, 4124.615234, 4211.281738, 4186.666504, 4188.717773, 4203.589844, 4208.717773, 4234.358887, 4231.794922, 4225.641113, 4234.358887, 4202.563965, 4237.436035, 4180.512695, 997.000000, 8195.000000, 8142.000000, 0.000000, 0.000000, 0.000000, -21758.000000, 536.923035, 4.000000, 4.000000, 4.000000, 4.000000, 4.000000, 4.000000, 4.000000, 4.000000, 4.000000, 4.000000, 4.000000, 4.000000, 4.000000, 4.000000, 4.000000, 4.000000
84.000000, 0.000000, 4240.512695, 4118.974121, 4208.717773, 4185.127930, 4177.436035, 4193.333008, 4197.948730, 4228.205078, 4231.281738, 4227.179199, 4231.794922, 4194.871582, 4230.769043, 4171.281738, 3476.000000, 8195.000000, 8142.000000, 0.000000, 0.000000, 0.000000, -21758.000000, 544.615356, 4.000000, 4.000000, 4.000000, 4.000000, 4.000000, 4.000000, 4.000000, 4.000000, 4.000000, 4.000000, 4.000000, 4.000000, 4.000000, 4.000000, 4.000000, 4.000000
85.000000, 0.000000, 4236.922852, 4123.076660, 4208.205078, 4187.692383, 4185.641113, 4193.846191, 4203.589844, 4221.025391, 4231.281738, 4230.769043, 4232.307617, 4194.358887, 4231.794922, 4180.512695, 3423.000000, 8190.000000, 8151.000000, 0.000000, 0.000000, 0.000000, -21758.000000, 552.820496, 4.000000, 4.000000, 4.000000, 4.000000, 4.000000, 4.000000, 4.000000, 4.000000, 4.000000, 4.000000, 4.000000, 4.000000, 4.000000, 4.000000, 4.000000, 4.000000
86.000000, 0.000000, 4236.410156, 4130.769043, 4206.666504, 4189.230469, 4184.615234, 4196.922852, 4202.563965, 4212.307617, 4224.102539, 4224.102539, 4231.794922, 4196.922852, 4227.179199, 4188.205078, 3559.000000, 8190.000000, 8151.000000, 0.000000, 0.000000, 0.000000, -21758.000000, 560.512817, 4.000000, 4.000000, 4.000000, 4.000000, 4.000000, 4.000000, 4.000000, 4.000000, 4.000000, 4.000000, 4.000000, 4.000000, 4.000000, 4.000000, 4.000000, 4.000000
87.000000, 0.000000, 4237.436035, 4127.179199, 4204.615234, 4182.563965, 4165.641113, 4193.846191, 4197.436035, 4204.102539, 4215.384277, 4213.333008, 4223.589844, 4190.256348, 4212.820313, 4188.205078, 997.000000, 8191.000000, 8152.000000, 0.000000, 0.000000, 0.000000, -21758.000000, 568.205139, 4.000000, 4.000000, 4.000000, 4.000000, 4.000000, 4.000000, 4.000000, 4.000000, 4.000000, 4.000000, 4.000000, 4.000000, 4.000000, 4.000000, 4.000000, 4.000000
88.000000, 0.000000, 4233.333008, 4122.563965, 4209.230469, 4178.974121, 4166.666504, 4195.897461, 4207.179199, 4207.179199, 4214.358887, 4214.358887, 4222.051270, 4192.820313, 4215.897461, 4193.846191, 3476.000000, 8191.000000, 8152.000000, 0.000000, 0.000000, 0.000000, -21758.000000, 575.897400, 4.000000, 4.000000, 4.000000, 4.000000, 4.000000, 4.000000, 4.000000, 4.000000, 4.000000, 4.000000, 4.000000, 4.000000, 4.000000, 4.000000, 4.000000, 4.000000
89.000000, 0.000000, 4242.563965, 4132.307617, 4220.000000, 4186.666504, 4182.051270, 4202.563965, 4212.820313, 4215.897461, 4217.948730, 4226.153809, 4232.307617, 4208.205078, 4230.256348, 4199.487305, 3423.000000, 8190.000000, 8154.000000, 0.000000, 0.000000, 0.000000, -21758.000000, 584.102539, 4.000000, 4.000000, 4.000000, 4.000000, 4.000000, 4.000000, 4.000000, 4.000000, 4.000000, 4.000000, 4.000000, 4.000000, 4.000000, 4.000000, 4.000000, 4.000000
90.000000, 0.000000, 4248.717773, 4141.025391, 4225.127930, 4188.717773, 4185.127930, 4203.076660, 4210.769043, 4217.436035, 4224.102539, 4235.384277, 4242.051270, 4216.922852, 4235.384277, 4210.256348, 3559.000000, 8190.000000, 8154.000000, 0.000000, 0.000000, 0.000000, -21758.000000, 591.794861, 4.000000, 4.000000, 4.000000, 4.000000, 4.000000, 4.000000, 4.000000, 4.000000, 4.000000, 4.000000, 4.000000, 4.000000, 4.000000, 4.000000, 4.000000, 4.000000
91.000000, 0.000000, 4252.307617, 4138.974121, 4227.179199, 4187.179199, 4181.538574, 4200.000000, 4209.743652, 4214.358887, 4231.281738, 4232.307617, 4247.179199, 4218.974121, 4239.487305, 4211.281738, 997.000000, 8197.000000, 8160.000000, 0.000000, 0.000000, 0.000000, -21758.000000, 600.000000, 4.000000, 4.000000, 4.000000, 4.000000, 4.000000, 4.000000, 4.000000, 4.000000, 4.000000, 4.000000, 4.000000, 4.000000, 4.000000, 4.000000, 4.000000, 4.000000
92.000000, 0.000000, 4255.897461, 4137.436035, 4230.769043, 4191.281738, 4182.563965, 4201.538574, 4207.179199, 4217.948730, 4235.897461, 4226.153809, 4242.051270, 4222.563965, 4242.051270, 4201.025391, 3476.000000, 8197.000000, 8160.000000, 0.000000, 0.000000, 0.000000, -21758.000000, 607.692322, 4.000000, 4.000000, 4.000000, 4.000000, 4.000000, 4.000000, 4.000000, 4.000000, 4.000000, 4.000000, 4.000000, 4.000000, 4.000000, 4.000000, 4.000000, 4.000000
93.000000, 0.000000, 4248.717773, 4141.025391, 4227.692383, 4195.384277, 4186.666504, 4202.563965, 4207.179199, 4222.563965, 4235.897461, 4230.256348, 4232.820313, 4220.000000, 4229.743652, 4199.487305, 3423.000000, 8195.000000, 8161.000000, 0.000000, 0.000000, 0.000000, -21758.000000, 615.897400, 4.000000, 4.000000, 4.000000, 4.000000, 4.000000, 4.000000, 4.000000, 4.000000, 4.000000, 4.000000, 4.000000, 4.000000, 4.000000, 4.000000, 4.000000, 4.000000
94.000000, 0.000000, 4253.333008, 4149.230469, 4221.538574, 4191.281738, 4192.307617, 4203.589844, 4209.743652, 4222.051270, 4232.820313, 4232.307617, 4231.281738, 4210.256348, 4227.692383, 4200.512695, 3559.000000, 8195.000000, 8161.000000, 0.000000, 0.000000, 0.000000, -21758.000000, 623.589722, 4.000000, 4.000000, 4.000000, 4.000000, 4.000000, 4.000000, 4.000000, 4.000000, 4.000000, 4.000000, 4.000000, 4.000000, 4.000000, 4.000000, 4.000000, 4.000000
95.000000, 0.000000, 4253.333008, 4148.717773, 4215.897461, 4187.179199, 4183.076660, 4202.051270, 4209.743652, 4216.922852, 4227.179199, 4221.538574, 4237.436035, 4207.179199, 4244.615234, 4205.641113, 997.000000, 8194.000000, 8162.000000, 0.000000, 0.000000, 0.000000, -21758.000000, 631.282043, 4.000000, 4.000000, 4.000000, 4.000000, 4.000000, 4.000000, 4.000000, 4.000000, 4.000000, 4.000000, 4.000000, 4.000000, 4.000000, 4.000000, 4.000000, 4.000000
96.000000, 0.000000, 4246.666504, 4146.666504, 4213.333008, 4191.794922, 4171.794922, 4198.461426, 4202.051270, 4212.307617, 4225.127930, 4211.281738, 4242.563965, 4210.769043, 4247.692383, 4206.153809, 3476.000000, 8194.000000, 8162.000000, 0.000000, 0.000000, 0.000000, -21758.000000, 639.487183, 4.000000, 4.000000, 4.000000, 4.000000, 4.000000, 4.000000, 4.000000, 4.000000, 4.000000, 4.000000, 4.000000, 4.000000, 4.000000, 4.000000, 4.000000, 4.000000
97.000000, 0.000000, 4255.897461, 4155.897461, 4216.410156, 4197.436035, 4188.205078, 4200.000000, 4197.948730, 4215.384277, 4228.205078, 4216.922852, 4249.743652, 4217.948730, 4247.692383, 4205.641113, 3423.000000, 8195.000000, 8164.000000, 0.000000, 0.000000, 0.000000, -21758.000000, 647.179443, 4.000000, 4.000000, 4.000000, 4.000000, 4.000000, 4.000000, 4.000000, 4.000000, 4.000000, 4.000000, 4.000000, 4.000000, 4.000000, 4.000000, 4.000000, 4.000000
98.000000, 0.000000, 4264.102539, 4163.589844, 4221.025391, 4205.641113, 4206.666504, 4204.102539, 4202.051270, 4216.922852, 4228.717773, 4227.692383, 4257.948730, 4226.153809, 4265.127930, 4209.230469, 3559.000000, 8195.000000, 8164.000000, 0.000000, 0.000000, 0.000000, -21758.000000, 654.871765, 4.000000, 4.000000, 4.000000, 4.000000, 4.000000, 4.000000, 4.000000, 4.000000, 4.000000, 4.000000, 4.000000, 4.000000, 4.000000, 4.000000, 4.000000, 4.000000
99.000000, 0.000000, 4268.717773, 4162.051270, 4224.102539, 4215.384277, 4199.487305, 4205.641113, 4203.076660, 4217.948730, 4232.307617, 4231.281738, 4260.512695, 4228.717773, 4272.307617, 4202.051270, 997.000000, 8200.000000, 8159.000000, 0.000000, 0.000000, 0.000000, -21758.000000, 663.076904, 4.000000, 4.000000, 4.000000, 4.000000, 4.000000, 4.000000, 4.000000, 4.000000, 4.000000, 4.000000, 4.000000, 4.000000, 4.000000, 4.000000, 4.000000, 4.000000
100.000000, 0.000000, 4261.538574, 4154.358887, 4216.410156, 4204.615234, 4187.179199, 4203.076660, 4203.589844, 4220.512695, 4235.897461, 4233.846191, 4255.897461, 4225.127930, 4262.563965, 4192.307617, 3476.000000, 8200.000000, 8159.000000, 0.000000, 0.000000, 0.000000, -21758.000000, 670.769226, 4.000000, 4.000000, 4.000000, 4.000000, 4.000000, 4.000000, 4.000000, 4.000000, 4.000000, 4.000000, 4.000000, 4.000000, 4.000000, 4.000000, 4.000000, 4.000000
101.000000, 0.000000, 4248.717773, 4153.333008, 4205.127930, 4184.615234, 4183.076660, 4202.051270, 4211.281738, 4220.000000, 4232.307617, 4228.717773, 4248.717773, 4215.897461, 4254.358887, 4181.025391, 3423.000000, 8190.000000, 8164.000000, 0.000000, 0.000000, 0.000000, -21758.000000, 678.974365, 4.000000, 4.000000, 4.000000, 4.000000, 4.000000, 4.000000, 4.000000, 4.000000, 4.000000, 4.000000, 4.000000, 4.000000, 4.000000, 4.000000, 4.000000, 4.000000
102.000000, 0.000000, 4246.153809, 4156.410156, 4205.641113, 4187.692383, 4185.127930, 4203.589844, 4213.846191, 4223.076660, 4233.846191, 4218.461426, 4247.692383, 4214.871582, 4250.769043, 4172.820313, 3559.000000, 8190.000000, 8164.000000, 0.000000, 0.000000, 0.000000, -21758.000000, 686.666626, 4.000000, 4.000000, 4.000000, 4.000000, 4.000000, 4.000000, 4.000000, 4.000000, 4.000000, 4.000000, 4.000000, 4.000000, 4.000000, 4.000000, 4.000000, 4.000000
103.000000, 0.000000, 4239.487305, 4152.820313, 4212.820313, 4197.948730, 4182.563965, 4203.076660, 4206.666504, 4224.102539, 4237.436035, 4224.615234, 4250.256348, 4219.487305, 4247.692383, 4176.922852, 997.000000, 8188.000000, 8167.000000, 0.000000, 0.000000, 0.000000, -21758.000000, 694.871765, 4.000000, 4.000000, 4.000000, 4.000000, 4.000000, 4.000000, 4.000000, 4.000000, 4.000000, 4.000000, 4.000000, 4.000000, 4.000000, 4.000000, 4.000000, 4.000000
104.000000, 0.000000, 4241.538574, 4155.384277, 4218.461426, 4192.307617, 4169.743652, 4203.076660, 4207.692383, 4218.461426, 4232.307617, 4229.743652, 4247.179199, 4216.922852, 4244.102539, 4176.410156, 3476.000000, 8188.000000, 8167.000000, 0.000000, 0.000000, 0.000000, -21758.000000, 702.564087, 4.000000, 4.000000, 4.000000, 4.000000, 4.000000, 4.000000, 4.000000, 4.000000, 4.000000, 4.000000, 4.000000, 4.000000, 4.000000, 4.000000, 4.000000, 4.000000
105.000000, 0.000000, 4240.512695, 4164.102539, 4218.461426, 4187.692383, 4174.871582, 4203.076660, 4212.307617, 4216.410156, 4228.717773, 4222.051270, 4239.487305, 4208.717773, 4239.487305, 4177.948730, 3423.000000, 8184.000000, 8166.000000, 0.000000, 0.000000, 0.000000, -21758.000000, 710.256409, 4.000000, 4.000000, 4.000000, 4.000000, 4.000000, 4.000000, 4.000000, 4.000000, 4.000000, 4.000000, 4.000000, 4.000000, 4.000000, 4.000000, 4.000000, 4.000000
106.000000, 0.000000, 4228.205078, 4165.127930, 4211.281738, 4187.692383, 4193.846191, 4205.127930, 4211.794922, 4220.000000, 4227.179199, 4213.846191, 4233.846191, 4202.051270, 4229.230469, 4178.974121, 3559.000000, 8184.000000, 8166.000000, 0.000000, 0.000000, 0.000000, -21758.000000, 718.461548, 4.000000, 4.000000, 4.000000, 4.000000, 4.000000, 4.000000, 4.000000, 4.000000, 4.000000, 4.000000, 4.000000, 4.000000, 4.000000, 4.000000, 4.000000, 4.000000
107.000000, 0.000000, 4226.666504, 4160.512695, 4207.692383, 4188.717773, 4192.307617, 4207.179199, 4211.281738, 4211.794922, 4212.820313, 4210.256348, 4231.794922, 4200.512695, 4220.000000, 4172.820313, 997.000000, 8188.000000, 8168.000000, 0.000000, 0.000000, 0.000000, -21758.000000, 726.153809, 4.000000, 4.000000, 4.000000, 4.000000, 4.000000, 4.000000, 4.000000, 4.000000, 4.000000, 4.000000, 4.000000, 4.000000, 4.000000, 4.000000, 4.000000, 4.000000
108.000000, 0.000000, 4223.589844, 4160.000000, 4208.205078, 4196.922852, 4181.025391, 4200.000000, 4208.205078, 4197.948730, 4200.512695, 4197.436035, 4226.666504, 4198.974121, 4221.538574, 4175.897461, 3476.000000, 8188.000000, 8168.000000, 0.000000, 0.000000, 0.000000, -21758.000000, 733.846130, 4.000000, 4.000000, 4.000000, 4.000000, 4.000000, 4.000000, 4.000000, 4.000000, 4.000000, 4.000000, 4.000000, 4.000000, 4.000000, 4.000000, 4.000000, 4.000000
109.000000, 0.000000, 4224.102539, 4171.794922, 4214.871582, 4203.076660, 4188.205078, 4192.820313, 4200.512695, 4202.051270, 4210.256348, 4191.794922, 4225.127930, 4198.461426, 4230.769043, 4177.948730, 3423.000000, 8185.000000, 8170.000000, 0.000000, 0.000000, 0.000000, -21758.000000, 742.051270, 4.000000, 4.000000, 4.000000, 4.000000, 4.000000, 4.000000, 4.000000, 4.000000, 4.000000, 4.000000, 4.000000, 4.000000, 4.000000, 4.000000, 4.000000, 4.000000
110.000000, 0.000000, 4229.743652, 4176.922852, 4221.538574, 4201.025391, 4186.666504, 4195.897461, 4200.512695, 4212.820313, 4220.000000, 4206.153809, 4231.794922, 4203.076660, 4232.820313, 4180.512695, 3559.000000, 8185.000000, 8170.000000, 0.000000, 0.000000, 0.000000, -21758.000000, 749.743591, 4.000000, 4.000000, 4.000000, 4.000000, 4.000000, 4.000000, 4.000000, 4.000000, 4.000000, 4.000000, 4.000000, 4.000000, 4.000000, 4.000000, 4.000000, 4.000000
111.000000, 0.000000, 4226.666504, 4167.179199, 4218.461426, 4195.897461, 4166.153809, 4202.051270, 4209.230469, 4214.358887, 4214.358887, 4216.410156, 4235.897461, 4207.692383, 4230.256348, 4181.538574, 997.000000, 8176.000000, 8186.000000, 0.000000, 0.000000, 0.000000, -21758.000000, 757.948669, 4.000000, 4.000000, 4.000000, 4.000000, 4.000000, 4.000000, 4.000000, 4.000000, 4.000000, 4.000000, 4.000000, 4.000000, 4.000000, 4.000000, 4.000000, 4.000000
112.000000, 0.000000, 4226.153809, 4170.256348, 4215.384277, 4191.281738, 4167.692383, 4202.563965, 4214.871582, 4219.487305, 4215.384277, 4216.922852, 4234.358887, 4206.153809, 4234.358887, 4175.897461, 3476.000000, 8176.000000, 8186.000000, 0.000000, 0.000000, 0.000000, -21758.000000, 765.640991, 4.000000, 4.000000, 4.000000, 4.000000, 4.000000, 4.000000, 4.000000, 4.000000, 4.000000, 4.000000, 4.000000, 4.000000, 4.000000, 4.000000, 4.000000, 4.000000
113.000000, 0.000000, 4218.461426, 4177.436035, 4212.307617, 4186.153809, 4185.127930, 4199.487305, 4218.974121, 4231.794922, 4228.717773, 4215.384277, 4233.333008, 4205.641113, 4235.897461, 4176.922852, 3423.000000, 8184.000000, 8193.000000, 0.000000, 0.000000, 0.000000, -21758.000000, 773.333313, 4.000000, 4.000000, 4.000000, 4.000000, 4.000000, 4.000000, 4.000000, 4.000000, 4.000000, 4.000000, 4.000000, 4.000000, 4.000000, 4.000000, 4.000000, 4.000000
114.000000, 0.000000, 4214.871582, 4172.820313, 4208.717773, 4183.589844, 4186.153809, 4206.666504, 4227.179199, 4234.871582, 4234.871582, 4218.974121, 4234.871582, 4211.794922, 4233.333008, 4177.436035, 3559.000000, 8184.000000, 8193.000000, 0.000000, 0.000000, 0.000000, -21758.000000, 781.538452, 4.000000, 4.000000, 4.000000, 4.000000, 4.000000, 4.000000, 4.000000, 4.000000, 4.000000, 4.000000, 4.000000, 4.000000, 4.000000, 4.000000, 4.000000, 4.000000
115.000000, 0.000000, 4214.871582, 4171.281738, 4212.307617, 4187.179199, 4181.025391, 4217.436035, 4235.384277, 4238.461426, 4235.384277, 4222.563965, 4237.436035, 4217.948730, 4232.307617, 4178.974121, 997.000000, 8188.000000, 8201.000000, 0.000000, 0.000000, 0.000000, -21758.000000, 789.230774, 4.000000, 4.000000, 4.000000, 4.000000, 4.000000, 4.000000, 4.000000, 4.000000, 4.000000, 4.000000, 4.000000, 4.000000, 4.000000, 4.000000, 4.000000, 4.000000
116.000000, 0.000000, 4206.666504, 4173.333008, 4221.025391, 4186.153809, 4182.051270, 4214.358887, 4234.871582, 4249.743652, 4236.922852, 4217.948730, 4235.384277, 4217.436035, 4233.846191, 4182.563965, 3476.000000, 8188.000000, 8201.000000, 0.000000, 0.000000, 0.000000, -21758.000000, 796.923035, 4.000000, 4.000000, 4.000000, 4.000000, 4.000000, 4.000000, 4.000000, 4.000000, 4.000000, 4.000000, 4.000000, 4.000000, 4.000000, 4.000000, 4.000000, 4.000000
117.000000, 0.000000, 4205.127930, 4169.743652, 4220.000000, 4175.897461, 4165.641113, 4202.563965, 4229.743652, 4239.487305, 4234.358887, 4214.358887, 4230.769043, 4212.307617, 4229.230469, 4177.436035, 3423.000000, 8192.000000, 8202.000000, 0.000000, 0.000000, 0.000000, -21758.000000, 805.128174, 4.000000, 4.000000, 4.000000, 4.000000, 4.000000, 4.000000, 4.000000, 4.000000, 4.000000, 4.000000, 4.000000, 4.000000, 4.000000, 4.000000, 4.000000, 4.000000
118.000000, 0.000000, 4202.051270, 4166.153809, 4216.410156, 4175.384277, 4154.358887, 4202.563965, 4224.102539, 4220.512695, 4230.769043, 4224.102539, 4236.922852, 4216.410156, 4224.615234, 4179.487305, 3559.000000, 8192.000000, 8202.000000, 0.000000, 0.000000, 0.000000, -21758.000000, 812.820496, 4.000000, 4.000000, 4.000000, 4.000000, 4.000000, 4.000000, 4.000000, 4.000000, 4.000000, 4.000000, 4.000000, 4.000000, 4.000000, 4.000000, 4.000000, 4.000000
119.000000, 0.000000, 4201.538574, 4173.846191, 4215.897461, 4188.717773, 4175.384277, 4205.127930, 4214.358887, 4220.000000, 4230.769043, 4231.281738, 4247.179199, 4223.076660, 4231.794922, 4180.000000, 997.000000, 8195.000000, 8210.000000, 0.000000, 0.000000, 0.000000, -21758.000000, 821.025635, 4.000000, 4.000000, 4.000000, 4.000000, 4.000000, 4.000000, 4.000000, 4.000000, 4.000000, 4.000000, 4.000000, 4.000000, 4.000000, 4.000000, 4.000000, 4.000000
120.000000, 0.000000, 4201.025391, 4185.641113, 4207.692383, 4190.769043, 4193.333008, 4202.051270, 4213.333008, 4225.641113, 4234.358887, 4225.641113, 4248.717773, 4222.563965, 4240.000000, 4182.051270, 3476.000000, 8195.000000, 8210.000000, 0.000000, 0.000000, 0.000000, -21758.000000, 828.717957, 4.000000, 4.000000, 4.000000, 4.000000, 4.000000, 4.000000, 4.000000, 4.000000, 4.000000, 4.000000, 4.000000, 4.000000, 4.000000, 4.000000, 4.000000, 4.000000
121.000000, 0.000000, 4194.358887, 4187.179199, 4196.922852, 4184.102539, 4187.179199, 4203.589844, 4215.897461, 4223.076660, 4232.307617, 4218.974121, 4241.025391, 4221.025391, 4235.897461, 4196.922852, 3423.000000, 8198.000000, 8206.000000, 0.000000, 0.000000, 0.000000, -21758.000000, 836.410217, 4.000000, 4.000000, 4.000000, 4.000000, 4.000000, 4.000000, 4.000000, 4.000000, 4.000000, 4.000000, 4.000000, 4.000000, 4.000000, 4.000000, 4.000000, 4.000000
122.000000, 0.000000, 4192.820313, 4182.051270, 4197.948730, 4184.102539, 4181.025391, 4197.436035, 4202.051270, 4210.256348, 4215.897461, 4208.205078, 4231.281738, 4212.307617, 4227.692383, 4206.153809, 3559.000000, 8198.000000, 8206.000000, 0.000000, 0.000000, 0.000000, -21758.000000, 844.615356, 4.000000, 4.000000, 4.000000, 4.000000, 4.000000, 4.000000, 4.000000, 4.000000, 4.000000, 4.000000, 4.000000, 4.000000, 4.000000, 4.000000, 4.000000, 4.000000
123.000000, 0.000000, 4184.615234, 4178.974121, 4205.127930, 4179.487305, 4188.205078, 4185.127930, 4188.205078, 4196.410156, 4206.666504, 4198.974121, 4229.230469, 4203.076660, 4230.769043, 4204.102539, 997.000000, 8199.000000, 8203.000000, 0.000000, 0.000000, 0.000000, -21758.000000, 852.307678, 4.000000, 4.000000, 4.000000, 4.000000, 4.000000, 4.000000, 4.000000, 4.000000, 4.000000, 4.000000, 4.000000, 4.000000, 4.000000, 4.000000, 4.000000, 4.000000
124.000000, 0.000000, 4178.974121, 4180.512695, 4208.205078, 4170.256348, 4184.102539, 4184.615234, 4191.794922, 4194.871582, 4212.307617, 4196.410156, 4225.127930, 4203.589844, 4228.717773, 4193.333008, 3476.000000, 8199.000000, 8203.000000, 0.000000, 0.000000, 0.000000, -21758.000000, 860.000000, 4.000000, 4.000000, 4.000000, 4.000000, 4.000000, 4.000000, 4.000000, 4.000000, 4.000000, 4.000000, 4.000000, 4.000000, 4.000000, 4.000000, 4.000000, 4.000000
125.000000, 0.000000, 4182.563965, 4183.589844, 4208.717773, 4173.846191, 4167.692383, 4188.717773, 4197.948730, 4200.000000, 4205.641113, 4191.281738, 4217.948730, 4203.589844, 4217.436035, 4187.692383, 3423.000000, 8187.000000, 8191.000000, 0.000000, 0.000000, 0.000000, -21758.000000, 868.205078, 4.000000, 4.000000, 4.000000, 4.000000, 4.000000, 4.000000, 4.000000, 4.000000, 4.000000, 4.000000, 4.000000, 4.000000, 4.000000, 4.000000, 4.000000, 4.000000
126.000000, 0.000000, 4177.436035, 4186.666504, 4207.179199, 4183.076660, 4175.384277, 4194.871582, 4200.000000, 4197.948730, 4196.922852, 4191.281738, 4221.538574, 4198.974121, 4222.563965, 4196.410156, 3559.000000, 8187.000000, 8191.000000, 0.000000, 0.000000, 0.000000, -21758.000000, 875.897400, 4.000000, 4.000000, 4.000000, 4.000000, 4.000000, 4.000000, 4.000000, 4.000000, 4.000000, 4.000000, 4.000000, 4.000000, 4.000000, 4.000000, 4.000000, 4.000000
127.000000, 0.000000, 4181.025391, 4190.256348, 4204.615234, 4185.641113, 4198.974121, 4207.179199, 4208.717773, 4203.589844, 4214.358887, 4204.102539, 4230.769043, 4206.153809, 4244.102539, 4197.948730, 54.000000, 8193.000000, 8189.000000, 0.000000, 0.000000, 0.000000, -21758.000000, 884.102539, 4.000000, 4.000000, 4.000000, 4.000000, 4.000000, 4.000000, 4.000000, 4.000000, 4.000000, 4.000000, 4.000000, 4.000000, 4.000000, 4.000000, 4.000000, 4.000000
0.000000, 0.000000, 4182.563965, 4189.743652, 4202.051270, 4183.076660, 4196.922852, 4217.436035, 4219.487305, 4225.127930, 4238.461426, 4220.512695, 4241.538574, 4220.000000, 4253.333008, 4194.871582, 3354.000000, 8193.000000, 8189.000000, 0.000000, 0.000000, 0.000000, -21758.000000, 891.794861, 4.000000, 4.000000, 4.000000, 4.000000, 4.000000, 4.000000, 4.000000, 4.000000, 4.000000, 4.000000, 4.000000, 4.000000, 4.000000, 4.000000, 4.000000, 4.000000
1.000000, 0.000000, 4177.948730, 4187.692383, 4204.102539, 4183.076660, 4175.897461, 4215.384277, 4223.589844, 4233.846191, 4244.615234, 4227.179199, 4245.127930, 4218.974121, 4246.666504, 4196.410156, 3506.000000, 8194.000000, 8183.000000, 0.000000, 0.000000, 0.000000, -21758.000000, 899.487183, 4.000000, 4.000000, 4.000000, 4.000000, 4.000000, 4.000000, 4.000000, 4.000000, 4.000000, 4.000000, 4.000000, 4.000000, 4.000000, 4.000000, 4.000000, 4.000000
2.000000, 0.000000, 4181.025391, 4193.846191, 4210.256348, 4186.153809, 4174.871582, 4207.179199, 4216.922852, 4227.179199, 4237.436035, 4223.589844, 4238.461426, 4209.230469, 4246.153809, 4194.871582, 2687.000000, 8194.000000, 8183.000000, 0.000000, 0.000000, 0.000000, -21758.000000, 907.179443, 4.000000, 4.000000, 4.000000, 4.000000, 4.000000, 4.000000, 4.000000, 4.000000, 4.000000, 4.000000, 4.000000, 4.000000, 4.000000, 4.000000, 4.000000, 4.000000
