title:neutral25, recorded:21.05.18 11.37.40, timestamp started:2018-05-12T20:28:52.032863+02:00            , sampling:128, subject:Noé, labels:COUNTER INTERPOLATED AF3 F7 F3 FC5 T7 P7 O1 O2 P8 T8 FC6 F4 F8 AF4 RAW_CQ GYROX GYROY MARKER MARKER_HARDWARE SYNC TIME_STAMP_s TIME_STAMP_ms CQ_AF3 CQ_F7 CQ_F3 CQ_FC5 CQ_T7 CQ_P7 CQ_O1 CQ_O2 CQ_P8 CQ_T8 CQ_FC6 CQ_F4 CQ_F8 CQ_AF4 CQ_CMS CQ_DRL, chan:40, samples:2592, units:emotiv
86.000000, 0.000000, 4237.436035, 4278.461426, 4214.358887, 4225.641113, 4233.333008, 4242.563965, 4232.307617, 4223.076660, 4202.051270, 4232.820313, 4239.487305, 4273.846191, 4245.127930, 4239.487305, 3560.000000, 8152.000000, 8080.000000, 0.000000, 0.000000, 0.000000, 24832.000000, 767.692261, 4.000000, 4.000000, 4.000000, 4.000000, 4.000000, 4.000000, 4.000000, 4.000000, 4.000000, 4.000000, 4.000000, 4.000000, 4.000000, 4.000000, 4.000000, 4.000000
87.000000, 0.000000, 4229.743652, 4271.794922, 4204.102539, 4216.922852, 4229.230469, 4246.153809, 4230.256348, 4232.307617, 4202.563965, 4238.974121, 4231.794922, 4264.615234, 4236.410156, 4229.743652, 3576.000000, 8151.000000, 8082.000000, 0.000000, 0.000000, 0.000000, 24832.000000, 775.384583, 4.000000, 4.000000, 4.000000, 4.000000, 4.000000, 4.000000, 4.000000, 4.000000, 4.000000, 4.000000, 4.000000, 4.000000, 4.000000, 4.000000, 4.000000, 4.000000
88.000000, 0.000000, 4224.615234, 4270.769043, 4211.794922, 4216.410156, 4233.333008, 4250.256348, 4242.563965, 4231.281738, 4201.538574, 4238.974121, 4231.794922, 4265.127930, 4226.666504, 4221.538574, 3519.000000, 8151.000000, 8082.000000, 0.000000, 0.000000, 0.000000, 24832.000000, 783.589722, 4.000000, 4.000000, 4.000000, 4.000000, 4.000000, 4.000000, 4.000000, 4.000000, 4.000000, 4.000000, 4.000000, 4.000000, 4.000000, 4.000000, 4.000000, 4.000000
89.000000, 0.000000, 4223.589844, 4273.333008, 4214.358887, 4218.974121, 4233.846191, 4251.794922, 4251.281738, 4225.127930, 4200.512695, 4234.871582, 4234.358887, 4265.641113, 4238.461426, 4225.127930, 3450.000000, 8144.000000, 8079.000000, 0.000000, 0.000000, 0.000000, 24832.000000, 791.282043, 4.000000, 4.000000, 4.000000, 4.000000, 4.000000, 4.000000, 4.000000, 4.000000, 4.000000, 4.000000, 4.000000, 4.000000, 4.000000, 4.000000, 4.000000, 4.000000
90.000000, 0.000000, 4227.692383, 4281.538574, 4212.307617, 4217.948730, 4229.230469, 4246.153809, 4233.333008, 4224.615234, 4198.974121, 4234.358887, 4235.897461, 4261.538574, 4253.333008, 4230.256348, 3560.000000, 8144.000000, 8079.000000, 0.000000, 0.000000, 0.000000, 24832.000000, 798.974365, 4.000000, 4.000000, 4.000000, 4.000000, 4.000000, 4.000000, 4.000000, 4.000000, 4.000000, 4.000000, 4.000000, 4.000000, 4.000000, 4.000000, 4.000000, 4.000000
91.000000, 0.000000, 4231.281738, 4281.025391, 4211.281738, 4219.487305, 4228.205078, 4242.563965, 4218.974121, 4221.025391, 4197.948730, 4237.436035, 4244.615234, 4266.153809, 4256.410156, 4234.871582, 3576.000000, 8146.000000, 8074.000000, 0.000000, 0.000000, 0.000000, 24832.000000, 806.666626, 4.000000, 4.000000, 4.000000, 4.000000, 4.000000, 4.000000, 4.000000, 4.000000, 4.000000, 4.000000, 4.000000, 4.000000, 4.000000, 4.000000, 4.000000, 4.000000
92.000000, 0.000000, 4230.769043, 4277.948730, 4210.256348, 4218.461426, 4228.717773, 4243.076660, 4228.205078, 4214.871582, 4199.487305, 4236.410156, 4248.717773, 4273.333008, 4260.000000, 4242.051270, 3519.000000, 8146.000000, 8074.000000, 0.000000, 0.000000, 0.000000, 24832.000000, 814.358948, 4.000000, 4.000000, 4.000000, 4.000000, 4.000000, 4.000000, 4.000000, 4.000000, 4.000000, 4.000000, 4.000000, 4.000000, 4.000000, 4.000000, 4.000000, 4.000000
93.000000, 0.000000, 4235.384277, 4281.025391, 4217.948730, 4220.512695, 4226.666504, 4242.051270, 4234.871582, 4220.512695, 4200.512695, 4238.461426, 4249.743652, 4275.897461, 4270.769043, 4247.692383, 3450.000000, 8141.000000, 8057.000000, 0.000000, 0.000000, 0.000000, 24832.000000, 822.051270, 4.000000, 4.000000, 4.000000, 4.000000, 4.000000, 4.000000, 4.000000, 4.000000, 4.000000, 4.000000, 4.000000, 4.000000, 4.000000, 4.000000, 4.000000, 4.000000
94.000000, 0.000000, 4246.153809, 4280.512695, 4225.127930, 4229.743652, 4230.256348, 4244.102539, 4230.769043, 4232.307617, 4201.025391, 4247.179199, 4262.051270, 4283.076660, 4286.153809, 4256.410156, 3560.000000, 8141.000000, 8057.000000, 0.000000, 0.000000, 0.000000, 24832.000000, 830.256409, 4.000000, 4.000000, 4.000000, 4.000000, 4.000000, 4.000000, 4.000000, 4.000000, 4.000000, 4.000000, 4.000000, 4.000000, 4.000000, 4.000000, 4.000000, 4.000000
95.000000, 0.000000, 4251.794922, 4277.948730, 4225.641113, 4229.230469, 4231.794922, 4247.179199, 4232.307617, 4236.410156, 4201.538574, 4250.256348, 4272.307617, 4294.871582, 4295.384277, 4265.641113, 3576.000000, 8139.000000, 8052.000000, 0.000000, 0.000000, 0.000000, 24832.000000, 837.948669, 4.000000, 4.000000, 4.000000, 4.000000, 4.000000, 4.000000, 4.000000, 4.000000, 4.000000, 4.000000, 4.000000, 4.000000, 4.000000, 4.000000, 4.000000, 4.000000
96.000000, 0.000000, 4245.127930, 4272.820313, 4221.538574, 4217.436035, 4218.461426, 4245.641113, 4238.974121, 4231.281738, 4200.000000, 4246.666504, 4264.102539, 4293.333008, 4288.717773, 4265.127930, 3519.000000, 8139.000000, 8052.000000, 0.000000, 0.000000, 0.000000, 24832.000000, 845.640991, 4.000000, 4.000000, 4.000000, 4.000000, 4.000000, 4.000000, 4.000000, 4.000000, 4.000000, 4.000000, 4.000000, 4.000000, 4.000000, 4.000000, 4.000000, 4.000000
97.000000, 0.000000, 4234.871582, 4267.692383, 4220.000000, 4212.820313, 4214.871582, 4244.102539, 4237.948730, 4229.230469, 4198.974121, 4243.589844, 4252.307617, 4281.025391, 4275.897461, 4255.897461, 3450.000000, 8146.000000, 8045.000000, 0.000000, 0.000000, 0.000000, 24832.000000, 853.333313, 4.000000, 4.000000, 4.000000, 4.000000, 4.000000, 4.000000, 4.000000, 4.000000, 4.000000, 4.000000, 4.000000, 4.000000, 4.000000, 4.000000, 4.000000, 4.000000
98.000000, 0.000000, 4236.922852, 4263.589844, 4216.410156, 4217.436035, 4226.666504, 4242.563965, 4234.871582, 4238.974121, 4201.025391, 4247.692383, 4260.000000, 4287.692383, 4280.512695, 4258.461426, 3560.000000, 8146.000000, 8045.000000, 0.000000, 0.000000, 0.000000, 24832.000000, 861.025635, 4.000000, 4.000000, 4.000000, 4.000000, 4.000000, 4.000000, 4.000000, 4.000000, 4.000000, 4.000000, 4.000000, 4.000000, 4.000000, 4.000000, 4.000000, 4.000000
99.000000, 0.000000, 4247.179199, 4279.487305, 4234.871582, 4220.000000, 4223.589844, 4236.922852, 4237.436035, 4242.051270, 4203.589844, 4251.794922, 4268.205078, 4303.589844, 4287.692383, 4265.641113, 3576.000000, 8154.000000, 8038.000000, 0.000000, 0.000000, 0.000000, 24832.000000, 868.717957, 4.000000, 4.000000, 4.000000, 4.000000, 4.000000, 4.000000, 4.000000, 4.000000, 4.000000, 4.000000, 4.000000, 4.000000, 4.000000, 4.000000, 4.000000, 4.000000
100.000000, 0.000000, 4249.230469, 4289.230469, 4261.025391, 4218.461426, 4210.769043, 4231.281738, 4240.512695, 4229.230469, 4203.076660, 4248.205078, 4260.512695, 4302.563965, 4277.436035, 4259.487305, 3519.000000, 8154.000000, 8038.000000, 0.000000, 0.000000, 0.000000, 24832.000000, 876.923035, 4.000000, 4.000000, 4.000000, 4.000000, 4.000000, 4.000000, 4.000000, 4.000000, 4.000000, 4.000000, 4.000000, 4.000000, 4.000000, 4.000000, 4.000000, 4.000000
101.000000, 0.000000, 4244.615234, 4259.487305, 4230.769043, 4216.922852, 4213.333008, 4230.769043, 4233.333008, 4225.127930, 4201.025391, 4248.205078, 4258.974121, 4298.461426, 4275.384277, 4256.922852, 3450.000000, 8162.000000, 8036.000000, 0.000000, 0.000000, 0.000000, 24832.000000, 884.615356, 4.000000, 4.000000, 4.000000, 4.000000, 4.000000, 4.000000, 4.000000, 4.000000, 4.000000, 4.000000, 4.000000, 4.000000, 4.000000, 4.000000, 4.000000, 4.000000
102.000000, 0.000000, 4248.717773, 4260.512695, 4222.051270, 4218.974121, 4219.487305, 4233.333008, 4231.794922, 4234.871582, 4201.025391, 4252.820313, 4267.692383, 4309.230469, 4283.076660, 4266.666504, 3560.000000, 8162.000000, 8036.000000, 0.000000, 0.000000, 0.000000, 24832.000000, 892.307678, 4.000000, 4.000000, 4.000000, 4.000000, 4.000000, 4.000000, 4.000000, 4.000000, 4.000000, 4.000000, 4.000000, 4.000000, 4.000000, 4.000000, 4.000000, 4.000000
103.000000, 0.000000, 4251.281738, 4277.436035, 4245.127930, 4222.563965, 4217.436035, 4232.307617, 4236.410156, 4238.461426, 4201.538574, 4253.846191, 4268.205078, 4307.179199, 4282.051270, 4268.717773, 3576.000000, 8168.000000, 8033.000000, 0.000000, 0.000000, 0.000000, 24832.000000, 900.000000, 4.000000, 4.000000, 4.000000, 4.000000, 4.000000, 4.000000, 4.000000, 4.000000, 4.000000, 4.000000, 4.000000, 4.000000, 4.000000, 4.000000, 4.000000, 4.000000
104.000000, 0.000000, 4241.025391, 4260.512695, 4227.179199, 4220.512695, 4209.230469, 4223.589844, 4224.615234, 4227.179199, 4200.512695, 4246.666504, 4256.922852, 4291.281738, 4271.281738, 4256.410156, 3519.000000, 8168.000000, 8033.000000, 0.000000, 0.000000, 0.000000, 24832.000000, 907.692261, 4.000000, 4.000000, 4.000000, 4.000000, 4.000000, 4.000000, 4.000000, 4.000000, 4.000000, 4.000000, 4.000000, 4.000000, 4.000000, 4.000000, 4.000000, 4.000000
105.000000, 0.000000, 4232.307617, 4252.307617, 4218.461426, 4212.307617, 4198.461426, 4213.333008, 4211.794922, 4216.922852, 4200.000000, 4236.922852, 4248.205078, 4290.769043, 4263.589844, 4246.153809, 3450.000000, 8164.000000, 8034.000000, 0.000000, 0.000000, 0.000000, 24832.000000, 915.384583, 4.000000, 4.000000, 4.000000, 4.000000, 4.000000, 4.000000, 4.000000, 4.000000, 4.000000, 4.000000, 4.000000, 4.000000, 4.000000, 4.000000, 4.000000, 4.000000
106.000000, 0.000000, 4230.256348, 4252.820313, 4219.487305, 4206.666504, 4196.922852, 4210.769043, 4212.307617, 4214.358887, 4200.512695, 4233.846191, 4246.153809, 4291.794922, 4263.589844, 4246.666504, 3560.000000, 8164.000000, 8034.000000, 0.000000, 0.000000, 0.000000, 24832.000000, 923.589722, 4.000000, 4.000000, 4.000000, 4.000000, 4.000000, 4.000000, 4.000000, 4.000000, 4.000000, 4.000000, 4.000000, 4.000000, 4.000000, 4.000000, 4.000000, 4.000000
107.000000, 0.000000, 4227.179199, 4250.256348, 4213.333008, 4207.692383, 4203.589844, 4213.333008, 4215.897461, 4211.794922, 4200.000000, 4230.769043, 4245.127930, 4284.102539, 4263.076660, 4245.641113, 3576.000000, 8180.000000, 8043.000000, 0.000000, 0.000000, 0.000000, 24832.000000, 931.282043, 4.000000, 4.000000, 4.000000, 4.000000, 4.000000, 4.000000, 4.000000, 4.000000, 4.000000, 4.000000, 4.000000, 4.000000, 4.000000, 4.000000, 4.000000, 4.000000
108.000000, 0.000000, 4227.179199, 4250.769043, 4215.384277, 4209.230469, 4205.127930, 4217.436035, 4223.589844, 4218.461426, 4200.512695, 4233.846191, 4246.666504, 4283.076660, 4263.589844, 4245.127930, 3519.000000, 8180.000000, 8043.000000, 0.000000, 0.000000, 0.000000, 24832.000000, 938.974365, 4.000000, 4.000000, 4.000000, 4.000000, 4.000000, 4.000000, 4.000000, 4.000000, 4.000000, 4.000000, 4.000000, 4.000000, 4.000000, 4.000000, 4.000000, 4.000000
109.000000, 0.000000, 4226.153809, 4252.307617, 4216.410156, 4205.641113, 4197.436035, 4220.512695, 4234.358887, 4234.871582, 4202.563965, 4243.076660, 4248.717773, 4283.589844, 4266.666504, 4249.743652, 3450.000000, 8188.000000, 8047.000000, 0.000000, 0.000000, 0.000000, 24832.000000, 946.666626, 4.000000, 4.000000, 4.000000, 4.000000, 4.000000, 4.000000, 4.000000, 4.000000, 4.000000, 4.000000, 4.000000, 4.000000, 4.000000, 4.000000, 4.000000, 4.000000
110.000000, 0.000000, 4218.461426, 4247.179199, 4209.743652, 4200.512695, 4193.846191, 4220.000000, 4233.846191, 4236.410156, 4201.538574, 4239.487305, 4245.127930, 4279.487305, 4262.563965, 4248.205078, 3560.000000, 8188.000000, 8047.000000, 0.000000, 0.000000, 0.000000, 24832.000000, 954.358948, 4.000000, 4.000000, 4.000000, 4.000000, 4.000000, 4.000000, 4.000000, 4.000000, 4.000000, 4.000000, 4.000000, 4.000000, 4.000000, 4.000000, 4.000000, 4.000000
111.000000, 0.000000, 4212.307617, 4240.512695, 4204.615234, 4197.948730, 4200.512695, 4223.589844, 4229.743652, 4224.102539, 4199.487305, 4231.281738, 4243.589844, 4274.358887, 4259.487305, 4237.436035, 3576.000000, 8195.000000, 8050.000000, 0.000000, 0.000000, 0.000000, 24832.000000, 962.564087, 4.000000, 4.000000, 4.000000, 4.000000, 4.000000, 4.000000, 4.000000, 4.000000, 4.000000, 4.000000, 4.000000, 4.000000, 4.000000, 4.000000, 4.000000, 4.000000
112.000000, 0.000000, 4213.333008, 4241.025391, 4206.666504, 4198.461426, 4206.153809, 4224.615234, 4232.820313, 4223.076660, 4200.000000, 4238.461426, 4244.102539, 4270.256348, 4262.563965, 4232.307617, 3519.000000, 8195.000000, 8050.000000, 0.000000, 0.000000, 0.000000, 24832.000000, 970.256409, 4.000000, 4.000000, 4.000000, 4.000000, 4.000000, 4.000000, 4.000000, 4.000000, 4.000000, 4.000000, 4.000000, 4.000000, 4.000000, 4.000000, 4.000000, 4.000000
113.000000, 0.000000, 4209.743652, 4243.076660, 4204.615234, 4198.974121, 4201.025391, 4216.410156, 4225.641113, 4219.487305, 4201.025391, 4241.025391, 4234.871582, 4265.641113, 4254.871582, 4233.846191, 3450.000000, 8216.000000, 8055.000000, 0.000000, 0.000000, 0.000000, 24832.000000, 977.948669, 4.000000, 4.000000, 4.000000, 4.000000, 4.000000, 4.000000, 4.000000, 4.000000, 4.000000, 4.000000, 4.000000, 4.000000, 4.000000, 4.000000, 4.000000, 4.000000
114.000000, 0.000000, 4207.179199, 4237.948730, 4197.436035, 4198.461426, 4191.794922, 4210.769043, 4214.358887, 4206.153809, 4198.974121, 4228.717773, 4229.230469, 4262.563965, 4246.153809, 4234.358887, 3560.000000, 8216.000000, 8055.000000, 0.000000, 0.000000, 0.000000, 24832.000000, 985.640991, 4.000000, 4.000000, 4.000000, 4.000000, 4.000000, 4.000000, 4.000000, 4.000000, 4.000000, 4.000000, 4.000000, 4.000000, 4.000000, 4.000000, 4.000000, 4.000000
115.000000, 0.000000, 4212.820313, 4236.410156, 4198.461426, 4197.948730, 4186.153809, 4206.666504, 4217.436035, 4200.000000, 4198.461426, 4226.153809, 4232.820313, 4266.153809, 4246.666504, 4232.820313, 3576.000000, 8233.000000, 8061.000000, 0.000000, 0.000000, 0.000000, 24832.000000, 993.333313, 4.000000, 4.000000, 4.000000, 4.000000, 4.000000, 4.000000, 4.000000, 4.000000, 4.000000, 4.000000, 4.000000, 4.000000, 4.000000, 4.000000, 4.000000, 4.000000
116.000000, 0.000000, 4215.897461, 4240.512695, 4207.179199, 4200.512695, 4188.717773, 4203.076660, 4217.948730, 4202.563965, 4201.025391, 4230.769043, 4231.281738, 4273.846191, 4246.153809, 4232.820313, 3519.000000, 8233.000000, 8061.000000, 0.000000, 0.000000, 0.000000, 24833.000000, 1.025641, 4.000000, 4.000000, 4.000000, 4.000000, 4.000000, 4.000000, 4.000000, 4.000000, 4.000000, 4.000000, 4.000000, 4.000000, 4.000000, 4.000000, 4.000000, 4.000000
117.000000, 0.000000, 4216.410156, 4242.051270, 4209.743652, 4203.589844, 4195.897461, 4205.127930, 4205.127930, 4202.563965, 4202.051270, 4233.846191, 4235.384277, 4280.512695, 4251.281738, 4238.974121, 3450.000000, 8267.000000, 8066.000000, 0.000000, 0.000000, 0.000000, 24833.000000, 9.230769, 4.000000, 4.000000, 4.000000, 4.000000, 4.000000, 4.000000, 4.000000, 4.000000, 4.000000, 4.000000, 4.000000, 4.000000, 4.000000, 4.000000, 4.000000, 4.000000
118.000000, 0.000000, 4219.487305, 4243.076660, 4208.205078, 4204.615234, 4197.948730, 4206.153809, 4196.922852, 4200.000000, 4201.025391, 4240.000000, 4247.179199, 4283.076660, 4264.615234, 4248.717773, 3560.000000, 8267.000000, 8066.000000, 0.000000, 0.000000, 0.000000, 24833.000000, 16.923077, 4.000000, 4.000000, 4.000000, 4.000000, 4.000000, 4.000000, 4.000000, 4.000000, 4.000000, 4.000000, 4.000000, 4.000000, 4.000000, 4.000000, 4.000000, 4.000000
119.000000, 0.000000, 4220.000000, 4241.025391, 4206.153809, 4202.051270, 4193.333008, 4205.127930, 4208.205078, 4201.538574, 4201.025391, 4241.025391, 4244.102539, 4279.487305, 4264.102539, 4246.666504, 3576.000000, 8284.000000, 8069.000000, 0.000000, 0.000000, 0.000000, 24833.000000, 24.615383, 4.000000, 4.000000, 4.000000, 4.000000, 4.000000, 4.000000, 4.000000, 4.000000, 4.000000, 4.000000, 4.000000, 4.000000, 4.000000, 4.000000, 4.000000, 4.000000
120.000000, 0.000000, 4216.410156, 4238.974121, 4203.589844, 4201.538574, 4190.256348, 4207.692383, 4211.794922, 4201.025391, 4201.538574, 4231.281738, 4229.743652, 4272.820313, 4249.743652, 4233.846191, 3519.000000, 8284.000000, 8069.000000, 0.000000, 0.000000, 0.000000, 24833.000000, 32.307690, 4.000000, 4.000000, 4.000000, 4.000000, 4.000000, 4.000000, 4.000000, 4.000000, 4.000000, 4.000000, 4.000000, 4.000000, 4.000000, 4.000000, 4.000000, 4.000000
121.000000, 0.000000, 4219.487305, 4243.589844, 4207.692383, 4205.641113, 4195.897461, 4210.256348, 4201.538574, 4198.974121, 4201.025391, 4231.281738, 4230.769043, 4272.820313, 4247.692383, 4232.820313, 3450.000000, 8297.000000, 8081.000000, 0.000000, 0.000000, 0.000000, 24833.000000, 40.000000, 4.000000, 4.000000, 4.000000, 4.000000, 4.000000, 4.000000, 4.000000, 4.000000, 4.000000, 4.000000, 4.000000, 4.000000, 4.000000, 4.000000, 4.000000, 4.000000
122.000000, 0.000000, 4224.102539, 4244.102539, 4212.307617, 4206.153809, 4204.615234, 4206.666504, 4200.000000, 4202.563965, 4201.025391, 4236.410156, 4239.487305, 4274.358887, 4252.820313, 4240.000000, 3560.000000, 8297.000000, 8081.000000, 0.000000, 0.000000, 0.000000, 24833.000000, 48.205128, 4.000000, 4.000000, 4.000000, 4.000000, 4.000000, 4.000000, 4.000000, 4.000000, 4.000000, 4.000000, 4.000000, 4.000000, 4.000000, 4.000000, 4.000000, 4.000000
123.000000, 0.000000, 4215.384277, 4239.487305, 4207.692383, 4202.563965, 4203.589844, 4204.102539, 4205.641113, 4204.615234, 4201.025391, 4225.641113, 4230.769043, 4267.179199, 4246.153809, 4232.307617, 3576.000000, 8311.000000, 8100.000000, 0.000000, 0.000000, 0.000000, 24833.000000, 55.897434, 4.000000, 4.000000, 4.000000, 4.000000, 4.000000, 4.000000, 4.000000, 4.000000, 4.000000, 4.000000, 4.000000, 4.000000, 4.000000, 4.000000, 4.000000, 4.000000
124.000000, 0.000000, 4201.025391, 4236.922852, 4197.948730, 4197.436035, 4198.461426, 4210.769043, 4203.076660, 4197.948730, 4200.000000, 4213.333008, 4215.384277, 4258.461426, 4232.820313, 4218.461426, 3519.000000, 8311.000000, 8100.000000, 0.000000, 0.000000, 0.000000, 24833.000000, 63.589741, 4.000000, 4.000000, 4.000000, 4.000000, 4.000000, 4.000000, 4.000000, 4.000000, 4.000000, 4.000000, 4.000000, 4.000000, 4.000000, 4.000000, 4.000000, 4.000000
125.000000, 0.000000, 4200.000000, 4239.487305, 4194.358887, 4194.358887, 4198.974121, 4218.461426, 4204.102539, 4192.307617, 4198.461426, 4218.461426, 4215.897461, 4258.461426, 4229.743652, 4216.922852, 3450.000000, 8320.000000, 8102.000000, 0.000000, 0.000000, 0.000000, 24833.000000, 71.282051, 4.000000, 4.000000, 4.000000, 4.000000, 4.000000, 4.000000, 4.000000, 4.000000, 4.000000, 4.000000, 4.000000, 4.000000, 4.000000, 4.000000, 4.000000, 4.000000
126.000000, 0.000000, 4205.127930, 4243.076660, 4196.410156, 4196.410156, 4203.076660, 4218.461426, 4212.820313, 4195.897461, 4200.512695, 4228.205078, 4224.615234, 4258.461426, 4240.000000, 4222.051270, 3560.000000, 8320.000000, 8102.000000, 0.000000, 0.000000, 0.000000, 24833.000000, 78.974358, 4.000000, 4.000000, 4.000000, 4.000000, 4.000000, 4.000000, 4.000000, 4.000000, 4.000000, 4.000000, 4.000000, 4.000000, 4.000000, 4.000000, 4.000000, 4.000000
127.000000, 0.000000, 4203.076660, 4242.051270, 4193.846191, 4200.512695, 4206.153809, 4223.589844, 4215.897461, 4202.563965, 4202.563965, 4230.769043, 4228.205078, 4254.871582, 4247.692383, 4222.563965, 57.000000, 8323.000000, 8125.000000, 0.000000, 0.000000, 0.000000, 24833.000000, 86.666664, 4.000000, 4.000000, 4.000000, 4.000000, 4.000000, 4.000000, 4.000000, 4.000000, 4.000000, 4.000000, 4.000000, 4.000000, 4.000000, 4.000000, 4.000000, 4.000000
0.000000, 0.000000, 4200.512695, 4238.974121, 4194.871582, 4199.487305, 4205.127930, 4232.820313, 4218.461426, 4205.127930, 4201.538574, 4233.333008, 4228.717773, 4250.256348, 4241.538574, 4220.512695, 3005.000000, 8323.000000, 8125.000000, 0.000000, 0.000000, 0.000000, 24833.000000, 94.871796, 4.000000, 4.000000, 4.000000, 4.000000, 4.000000, 4.000000, 4.000000, 4.000000, 4.000000, 4.000000, 4.000000, 4.000000, 4.000000, 4.000000, 4.000000, 4.000000
1.000000, 0.000000, 4203.589844, 4237.436035, 4200.000000, 4198.461426, 4203.589844, 4226.666504, 4215.897461, 4198.461426, 4200.000000, 4230.256348, 4226.666504, 4248.717773, 4234.871582, 4222.563965, 3510.000000, 8318.000000, 8139.000000, 0.000000, 0.000000, 0.000000, 24833.000000, 102.564102, 4.000000, 4.000000, 4.000000, 4.000000, 4.000000, 4.000000, 4.000000, 4.000000, 4.000000, 4.000000, 4.000000, 4.000000, 4.000000, 4.000000, 4.000000, 4.000000
2.000000, 0.000000, 4206.153809, 4237.436035, 4203.076660, 4199.487305, 4203.076660, 4213.333008, 4203.076660, 4192.307617, 4200.000000, 4222.051270, 4223.589844, 4255.384277, 4234.358887, 4226.666504, 3511.000000, 8318.000000, 8139.000000, 0.000000, 0.000000, 0.000000, 24833.000000, 110.256409, 4.000000, 4.000000, 4.000000, 4.000000, 4.000000, 4.000000, 4.000000, 4.000000, 4.000000, 4.000000, 4.000000, 4.000000, 4.000000, 4.000000, 4.000000, 4.000000
3.000000, 0.000000, 4204.102539, 4234.358887, 4202.563965, 4197.948730, 4200.512695, 4218.461426, 4206.666504, 4198.974121, 4201.025391, 4223.076660, 4225.641113, 4260.512695, 4231.281738, 4228.717773, 2245.000000, 8314.000000, 8145.000000, 0.000000, 0.000000, 0.000000, 24833.000000, 117.948715, 4.000000, 4.000000, 4.000000, 4.000000, 4.000000, 4.000000, 4.000000, 4.000000, 4.000000, 4.000000, 4.000000, 4.000000, 4.000000, 4.000000, 4.000000, 4.000000
4.000000, 0.000000, 4203.076660, 4232.307617, 4201.025391, 4201.538574, 4202.563965, 4230.769043, 4222.051270, 4209.743652, 4201.538574, 4235.384277, 4231.794922, 4265.127930, 4234.358887, 4228.717773, 3520.000000, 8314.000000, 8145.000000, 0.000000, 0.000000, 0.000000, 24833.000000, 125.641022, 4.000000, 4.000000, 4.000000, 4.000000, 4.000000, 4.000000, 4.000000, 4.000000, 4.000000, 4.000000, 4.000000, 4.000000, 4.000000, 4.000000, 4.000000, 4.000000
5.000000, 0.000000, 4202.563965, 4235.384277, 4196.410156, 4198.461426, 4200.512695, 4225.127930, 4212.820313, 4200.512695, 4201.025391, 4233.846191, 4227.179199, 4263.589844, 4235.897461, 4224.102539, 3562.000000, 8310.000000, 8144.000000, 0.000000, 0.000000, 0.000000, 24833.000000, 133.333328, 4.000000, 4.000000, 4.000000, 4.000000, 4.000000, 4.000000, 4.000000, 4.000000, 4.000000, 4.000000, 4.000000, 4.000000, 4.000000, 4.000000, 4.000000, 4.000000
6.000000, 0.000000, 4197.948730, 4231.794922, 4190.769043, 4186.666504, 4193.846191, 4212.307617, 4203.589844, 4184.615234, 4198.974121, 4217.948730, 4214.358887, 4251.281738, 4221.025391, 4215.897461, 3407.000000, 8310.000000, 8144.000000, 0.000000, 0.000000, 0.000000, 24833.000000, 141.538452, 4.000000, 4.000000, 4.000000, 4.000000, 4.000000, 4.000000, 4.000000, 4.000000, 4.000000, 4.000000, 4.000000, 4.000000, 4.000000, 4.000000, 4.000000, 4.000000
7.000000, 0.000000, 4199.487305, 4232.307617, 4192.820313, 4190.769043, 4202.563965, 4214.871582, 4213.846191, 4190.769043, 4198.974121, 4220.000000, 4211.794922, 4251.281738, 4213.846191, 4216.922852, 3479.000000, 8304.000000, 8147.000000, 0.000000, 0.000000, 0.000000, 24833.000000, 149.230759, 4.000000, 4.000000, 4.000000, 4.000000, 4.000000, 4.000000, 4.000000, 4.000000, 4.000000, 4.000000, 4.000000, 4.000000, 4.000000, 4.000000, 4.000000, 4.000000
8.000000, 0.000000, 4208.205078, 4240.000000, 4198.461426, 4203.589844, 4217.948730, 4220.512695, 4211.281738, 4194.871582, 4201.538574, 4230.256348, 4217.948730, 4262.051270, 4224.102539, 4224.102539, 1035.000000, 8304.000000, 8147.000000, 0.000000, 0.000000, 0.000000, 24833.000000, 156.923080, 4.000000, 4.000000, 4.000000, 4.000000, 4.000000, 4.000000, 4.000000, 4.000000, 4.000000, 4.000000, 4.000000, 4.000000, 4.000000, 4.000000, 4.000000, 4.000000
9.000000, 0.000000, 4211.794922, 4241.025391, 4197.436035, 4202.051270, 4216.922852, 4218.461426, 4204.102539, 4184.102539, 4201.538574, 4230.769043, 4218.974121, 4263.589844, 4228.717773, 4226.666504, 2998.000000, 8305.000000, 8131.000000, 0.000000, 0.000000, 0.000000, 24833.000000, 164.615387, 4.000000, 4.000000, 4.000000, 4.000000, 4.000000, 4.000000, 4.000000, 4.000000, 4.000000, 4.000000, 4.000000, 4.000000, 4.000000, 4.000000, 4.000000, 4.000000
10.000000, 0.000000, 4214.871582, 4244.615234, 4197.436035, 4200.000000, 4211.794922, 4222.051270, 4215.384277, 4186.153809, 4200.000000, 4228.205078, 4216.922852, 4260.000000, 4225.127930, 4226.666504, 3560.000000, 8305.000000, 8131.000000, 0.000000, 0.000000, 0.000000, 24833.000000, 172.307693, 4.000000, 4.000000, 4.000000, 4.000000, 4.000000, 4.000000, 4.000000, 4.000000, 4.000000, 4.000000, 4.000000, 4.000000, 4.000000, 4.000000, 4.000000, 4.000000
11.000000, 0.000000, 4215.384277, 4246.153809, 4199.487305, 4206.153809, 4215.384277, 4226.666504, 4218.974121, 4199.487305, 4199.487305, 4224.615234, 4215.897461, 4256.922852, 4221.025391, 4222.051270, 3567.000000, 8308.000000, 8119.000000, 0.000000, 0.000000, 0.000000, 24833.000000, 180.512817, 4.000000, 4.000000, 4.000000, 4.000000, 4.000000, 4.000000, 4.000000, 4.000000, 4.000000, 4.000000, 4.000000, 4.000000, 4.000000, 4.000000, 4.000000, 4.000000
12.000000, 0.000000, 4203.589844, 4234.871582, 4192.820313, 4201.025391, 4217.436035, 4230.769043, 4218.974121, 4205.641113, 4201.538574, 4220.512695, 4212.307617, 4252.820313, 4212.307617, 4212.820313, 3516.000000, 8308.000000, 8119.000000, 0.000000, 0.000000, 0.000000, 24833.000000, 188.205124, 4.000000, 4.000000, 4.000000, 4.000000, 4.000000, 4.000000, 4.000000, 4.000000, 4.000000, 4.000000, 4.000000, 4.000000, 4.000000, 4.000000, 4.000000, 4.000000
13.000000, 0.000000, 4205.641113, 4230.256348, 4199.487305, 4197.436035, 4216.922852, 4249.230469, 4243.076660, 4218.461426, 4203.589844, 4230.256348, 4220.512695, 4260.000000, 4220.000000, 4217.948730, 3450.000000, 8307.000000, 8083.000000, 0.000000, 0.000000, 0.000000, 24833.000000, 195.897430, 4.000000, 4.000000, 4.000000, 4.000000, 4.000000, 4.000000, 4.000000, 4.000000, 4.000000, 4.000000, 4.000000, 4.000000, 4.000000, 4.000000, 4.000000, 4.000000
14.000000, 0.000000, 4230.769043, 4244.102539, 4221.025391, 4212.820313, 4220.000000, 4252.820313, 4252.307617, 4235.384277, 4205.127930, 4249.743652, 4241.538574, 4277.948730, 4246.153809, 4239.487305, 3560.000000, 8307.000000, 8083.000000, 0.000000, 0.000000, 0.000000, 24833.000000, 203.589737, 4.000000, 4.000000, 4.000000, 4.000000, 4.000000, 4.000000, 4.000000, 4.000000, 4.000000, 4.000000, 4.000000, 4.000000, 4.000000, 4.000000, 4.000000, 4.000000
15.000000, 0.000000, 4241.025391, 4251.281738, 4228.205078, 4222.563965, 4224.102539, 4234.871582, 4232.820313, 4232.820313, 4204.615234, 4253.846191, 4250.256348, 4285.127930, 4253.846191, 4250.769043, 3567.000000, 8305.000000, 8071.000000, 0.000000, 0.000000, 0.000000, 24833.000000, 211.282043, 4.000000, 4.000000, 4.000000, 4.000000, 4.000000, 4.000000, 4.000000, 4.000000, 4.000000, 4.000000, 4.000000, 4.000000, 4.000000, 4.000000, 4.000000, 4.000000
16.000000, 0.000000, 4233.333008, 4248.717773, 4222.051270, 4219.487305, 4227.692383, 4234.871582, 4228.205078, 4217.948730, 4202.563965, 4247.692383, 4243.589844, 4278.461426, 4247.179199, 4246.666504, 0.000000, 8305.000000, 8071.000000, 0.000000, 0.000000, 0.000000, 24833.000000, 218.974350, 4.000000, 4.000000, 4.000000, 4.000000, 4.000000, 4.000000, 4.000000, 4.000000, 4.000000, 4.000000, 4.000000, 4.000000, 4.000000, 4.000000, 4.000000, 4.000000
17.000000, 0.000000, 4236.410156, 4253.846191, 4222.051270, 4223.076660, 4232.307617, 4250.769043, 4241.538574, 4217.436035, 4202.051270, 4248.205078, 4243.589844, 4275.897461, 4252.307617, 4246.666504, 0.000000, 8303.000000, 8061.000000, 0.000000, 0.000000, 0.000000, 24833.000000, 227.179489, 4.000000, 4.000000, 4.000000, 4.000000, 4.000000, 4.000000, 4.000000, 4.000000, 4.000000, 4.000000, 4.000000, 4.000000, 4.000000, 4.000000, 4.000000, 4.000000
18.000000, 0.000000, 4237.436035, 4256.922852, 4224.102539, 4224.615234, 4236.922852, 4250.769043, 4246.666504, 4229.230469, 4202.051270, 4250.769043, 4247.179199, 4279.487305, 4250.769043, 4245.127930, 0.000000, 8303.000000, 8061.000000, 0.000000, 0.000000, 0.000000, 24833.000000, 234.871796, 4.000000, 4.000000, 4.000000, 4.000000, 4.000000, 4.000000, 4.000000, 4.000000, 4.000000, 4.000000, 4.000000, 4.000000, 4.000000, 4.000000, 4.000000, 4.000000
19.000000, 0.000000, 4220.000000, 4245.641113, 4210.256348, 4215.384277, 4233.846191, 4247.179199, 4247.179199, 4235.384277, 4201.538574, 4248.205078, 4242.051270, 4275.897461, 4242.563965, 4238.461426, 0.000000, 8302.000000, 8055.000000, 0.000000, 0.000000, 0.000000, 24833.000000, 242.564102, 4.000000, 4.000000, 4.000000, 4.000000, 4.000000, 4.000000, 4.000000, 4.000000, 4.000000, 4.000000, 4.000000, 4.000000, 4.000000, 4.000000, 4.000000, 4.000000
20.000000, 0.000000, 4214.358887, 4245.127930, 4198.461426, 4213.846191, 4226.666504, 4249.743652, 4244.615234, 4232.307617, 4202.563965, 4252.307617, 4246.153809, 4270.769043, 4258.974121, 4245.127930, 0.000000, 8302.000000, 8055.000000, 0.000000, 0.000000, 0.000000, 24833.000000, 250.256409, 4.000000, 4.000000, 4.000000, 4.000000, 4.000000, 4.000000, 4.000000, 4.000000, 4.000000, 4.000000, 4.000000, 4.000000, 4.000000, 4.000000, 4.000000, 4.000000
21.000000, 0.000000, 4228.717773, 4256.410156, 4202.051270, 4220.512695, 4229.743652, 4248.717773, 4238.461426, 4228.717773, 4202.563965, 4263.076660, 4258.461426, 4275.384277, 4279.487305, 4260.000000, 0.000000, 8294.000000, 8046.000000, 0.000000, 0.000000, 0.000000, 24833.000000, 257.948700, 4.000000, 4.000000, 4.000000, 4.000000, 4.000000, 4.000000, 4.000000, 4.000000, 4.000000, 4.000000, 4.000000, 4.000000, 4.000000, 4.000000, 4.000000, 4.000000
22.000000, 0.000000, 4236.410156, 4252.820313, 4211.794922, 4224.615234, 4243.589844, 4250.256348, 4246.666504, 4230.256348, 4203.076660, 4264.102539, 4262.051270, 4277.948730, 4280.000000, 4262.051270, 0.000000, 8294.000000, 8046.000000, 0.000000, 0.000000, 0.000000, 24833.000000, 265.641022, 4.000000, 4.000000, 4.000000, 4.000000, 4.000000, 4.000000, 4.000000, 4.000000, 4.000000, 4.000000, 4.000000, 4.000000, 4.000000, 4.000000, 4.000000, 4.000000
23.000000, 0.000000, 4243.076660, 4249.743652, 4227.692383, 4231.281738, 4250.769043, 4252.820313, 4250.769043, 4233.333008, 4204.615234, 4272.307617, 4271.794922, 4288.717773, 4294.358887, 4269.743652, 0.000000, 8271.000000, 8003.000000, 0.000000, 0.000000, 0.000000, 24833.000000, 273.846161, 4.000000, 4.000000, 4.000000, 4.000000, 4.000000, 4.000000, 4.000000, 4.000000, 4.000000, 4.000000, 4.000000, 4.000000, 4.000000, 4.000000, 4.000000, 4.000000
24.000000, 0.000000, 4251.794922, 4258.461426, 4237.436035, 4236.922852, 4240.512695, 4247.179199, 4234.871582, 4231.281738, 4203.589844, 4282.051270, 4283.589844, 4298.974121, 4309.230469, 4280.512695, 0.000000, 8271.000000, 8003.000000, 0.000000, 0.000000, 0.000000, 24833.000000, 281.538452, 4.000000, 4.000000, 4.000000, 4.000000, 4.000000, 4.000000, 4.000000, 4.000000, 4.000000, 4.000000, 4.000000, 4.000000, 4.000000, 4.000000, 4.000000, 4.000000
25.000000, 0.000000, 4241.538574, 4255.897461, 4227.179199, 4232.307617, 4229.743652, 4245.127930, 4232.820313, 4228.205078, 4200.512695, 4266.153809, 4269.743652, 4287.179199, 4288.205078, 4268.205078, 0.000000, 8263.000000, 7989.000000, 0.000000, 0.000000, 0.000000, 24833.000000, 289.230774, 4.000000, 4.000000, 4.000000, 4.000000, 4.000000, 4.000000, 4.000000, 4.000000, 4.000000, 4.000000, 4.000000, 4.000000, 4.000000, 4.000000, 4.000000, 4.000000
26.000000, 0.000000, 4233.333008, 4252.820313, 4216.410156, 4230.769043, 4237.436035, 4247.179199, 4244.615234, 4232.820313, 4201.025391, 4252.820313, 4257.948730, 4279.487305, 4275.384277, 4257.948730, 0.000000, 8263.000000, 7989.000000, 0.000000, 0.000000, 0.000000, 24833.000000, 296.923065, 4.000000, 4.000000, 4.000000, 4.000000, 4.000000, 4.000000, 4.000000, 4.000000, 4.000000, 4.000000, 4.000000, 4.000000, 4.000000, 4.000000, 4.000000, 4.000000
27.000000, 0.000000, 4241.025391, 4261.538574, 4216.922852, 4235.384277, 4251.281738, 4249.230469, 4242.563965, 4234.358887, 4203.589844, 4263.589844, 4266.666504, 4288.205078, 4290.769043, 4266.666504, 0.000000, 8259.000000, 8000.000000, 0.000000, 0.000000, 0.000000, 24833.000000, 304.615387, 4.000000, 4.000000, 4.000000, 4.000000, 4.000000, 4.000000, 4.000000, 4.000000, 4.000000, 4.000000, 4.000000, 4.000000, 4.000000, 4.000000, 4.000000, 4.000000
28.000000, 0.000000, 4231.794922, 4261.025391, 4211.281738, 4229.743652, 4249.230469, 4254.871582, 4242.563965, 4231.794922, 4200.000000, 4264.615234, 4264.615234, 4279.487305, 4284.615234, 4257.436035, 0.000000, 8259.000000, 8000.000000, 0.000000, 0.000000, 0.000000, 24833.000000, 312.307678, 4.000000, 4.000000, 4.000000, 4.000000, 4.000000, 4.000000, 4.000000, 4.000000, 4.000000, 4.000000, 4.000000, 4.000000, 4.000000, 4.000000, 4.000000, 4.000000
29.000000, 0.000000, 4212.307617, 4253.333008, 4204.102539, 4222.563965, 4246.666504, 4261.025391, 4251.281738, 4238.974121, 4197.436035, 4256.410156, 4255.384277, 4268.717773, 4263.076660, 4238.461426, 0.000000, 8246.000000, 8036.000000, 0.000000, 0.000000, 0.000000, 24833.000000, 320.512817, 4.000000, 4.000000, 4.000000, 4.000000, 4.000000, 4.000000, 4.000000, 4.000000, 4.000000, 4.000000, 4.000000, 4.000000, 4.000000, 4.000000, 4.000000, 4.000000
30.000000, 0.000000, 4218.461426, 4262.051270, 4209.743652, 4228.205078, 4256.922852, 4259.487305, 4250.769043, 4247.179199, 4200.000000, 4263.076660, 4263.589844, 4278.461426, 4265.127930, 4245.127930, 0.000000, 8246.000000, 8036.000000, 0.000000, 0.000000, 0.000000, 24833.000000, 328.205109, 4.000000, 4.000000, 4.000000, 4.000000, 4.000000, 4.000000, 4.000000, 4.000000, 4.000000, 4.000000, 4.000000, 4.000000, 4.000000, 4.000000, 4.000000, 4.000000
31.000000, 0.000000, 4229.230469, 4268.717773, 4215.384277, 4233.333008, 4261.025391, 4256.922852, 4249.230469, 4243.589844, 4201.538574, 4262.563965, 4265.641113, 4281.538574, 4264.615234, 4249.230469, 0.000000, 8241.000000, 8061.000000, 0.000000, 0.000000, 0.000000, 24833.000000, 335.897430, 4.000000, 4.000000, 4.000000, 4.000000, 4.000000, 4.000000, 4.000000, 4.000000, 4.000000, 4.000000, 4.000000, 4.000000, 4.000000, 4.000000, 4.000000, 4.000000
32.000000, 0.000000, 4226.153809, 4260.000000, 4217.948730, 4230.256348, 4262.051270, 4260.512695, 4247.179199, 4234.358887, 4201.025391, 4255.384277, 4261.025391, 4280.000000, 4258.974121, 4246.666504, 0.000000, 8241.000000, 8061.000000, 0.000000, 0.000000, 0.000000, 24833.000000, 343.589722, 4.000000, 4.000000, 4.000000, 4.000000, 4.000000, 4.000000, 4.000000, 4.000000, 4.000000, 4.000000, 4.000000, 4.000000, 4.000000, 4.000000, 4.000000, 4.000000
33.000000, 0.000000, 4233.846191, 4262.051270, 4228.717773, 4229.743652, 4264.102539, 4263.076660, 4245.127930, 4235.897461, 4203.076660, 4267.692383, 4275.384277, 4300.000000, 4269.743652, 4264.102539, 0.000000, 8245.000000, 8101.000000, 0.000000, 0.000000, 0.000000, 24833.000000, 351.282043, 4.000000, 4.000000, 4.000000, 4.000000, 4.000000, 4.000000, 4.000000, 4.000000, 4.000000, 4.000000, 4.000000, 4.000000, 4.000000, 4.000000, 4.000000, 4.000000
34.000000, 0.000000, 4251.281738, 4274.871582, 4242.563965, 4234.358887, 4251.794922, 4263.076660, 4255.897461, 4250.769043, 4206.153809, 4281.025391, 4294.358887, 4322.051270, 4282.563965, 4285.641113, 0.000000, 8245.000000, 8101.000000, 0.000000, 0.000000, 0.000000, 24833.000000, 359.487183, 4.000000, 4.000000, 4.000000, 4.000000, 4.000000, 4.000000, 4.000000, 4.000000, 4.000000, 4.000000, 4.000000, 4.000000, 4.000000, 4.000000, 4.000000, 4.000000
35.000000, 0.000000, 4259.487305, 4281.025391, 4244.102539, 4241.538574, 4250.256348, 4263.589844, 4260.000000, 4252.307617, 4204.615234, 4282.563965, 4301.025391, 4328.205078, 4290.256348, 4297.948730, 0.000000, 8248.000000, 8108.000000, 0.000000, 0.000000, 0.000000, 24833.000000, 367.179474, 4.000000, 4.000000, 4.000000, 4.000000, 4.000000, 4.000000, 4.000000, 4.000000, 4.000000, 4.000000, 4.000000, 4.000000, 4.000000, 4.000000, 4.000000, 4.000000
36.000000, 0.000000, 4252.820313, 4282.563965, 4237.436035, 4242.563965, 4271.281738, 4261.025391, 4245.127930, 4236.922852, 4201.538574, 4279.487305, 4295.897461, 4320.000000, 4288.205078, 4292.820313, 0.000000, 8248.000000, 8108.000000, 0.000000, 0.000000, 0.000000, 24833.000000, 374.871796, 4.000000, 4.000000, 4.000000, 4.000000, 4.000000, 4.000000, 4.000000, 4.000000, 4.000000, 4.000000, 4.000000, 4.000000, 4.000000, 4.000000, 4.000000, 4.000000
37.000000, 0.000000, 4241.025391, 4282.051270, 4225.641113, 4232.307617, 4275.897461, 4258.461426, 4242.563965, 4233.333008, 4199.487305, 4270.769043, 4280.000000, 4304.615234, 4271.794922, 4273.333008, 0.000000, 8257.000000, 8122.000000, 0.000000, 0.000000, 0.000000, 24833.000000, 382.564087, 4.000000, 4.000000, 4.000000, 4.000000, 4.000000, 4.000000, 4.000000, 4.000000, 4.000000, 4.000000, 4.000000, 4.000000, 4.000000, 4.000000, 4.000000, 4.000000
38.000000, 0.000000, 4232.307617, 4283.589844, 4213.333008, 4229.230469, 4263.076660, 4258.461426, 4252.307617, 4236.922852, 4198.974121, 4256.922852, 4266.666504, 4291.281738, 4261.538574, 4258.974121, 0.000000, 8257.000000, 8122.000000, 0.000000, 0.000000, 0.000000, 24833.000000, 390.256409, 4.000000, 4.000000, 4.000000, 4.000000, 4.000000, 4.000000, 4.000000, 4.000000, 4.000000, 4.000000, 4.000000, 4.000000, 4.000000, 4.000000, 4.000000, 4.000000
39.000000, 0.000000, 4229.230469, 4286.153809, 4212.820313, 4235.384277, 4266.666504, 4258.974121, 4250.256348, 4235.897461, 4200.000000, 4244.615234, 4262.051270, 4283.076660, 4261.538574, 4252.820313, 0.000000, 8266.000000, 8145.000000, 0.000000, 0.000000, 0.000000, 24833.000000, 397.948700, 4.000000, 4.000000, 4.000000, 4.000000, 4.000000, 4.000000, 4.000000, 4.000000, 4.000000, 4.000000, 4.000000, 4.000000, 4.000000, 4.000000, 4.000000, 4.000000
40.000000, 0.000000, 4229.743652, 4282.563965, 4217.948730, 4235.897461, 4278.974121, 4261.538574, 4246.666504, 4240.000000, 4201.025391, 4233.846191, 4251.281738, 4277.436035, 4250.769043, 4241.025391, 0.000000, 8266.000000, 8145.000000, 0.000000, 0.000000, 0.000000, 24833.000000, 406.153839, 4.000000, 4.000000, 4.000000, 4.000000, 4.000000, 4.000000, 4.000000, 4.000000, 4.000000, 4.000000, 4.000000, 4.000000, 4.000000, 4.000000, 4.000000, 4.000000
41.000000, 0.000000, 4232.820313, 4281.538574, 4224.615234, 4234.358887, 4277.948730, 4264.615234, 4249.230469, 4235.897461, 4199.487305, 4225.127930, 4239.487305, 4275.897461, 4236.922852, 4233.846191, 0.000000, 8277.000000, 8168.000000, 0.000000, 0.000000, 0.000000, 24833.000000, 413.846130, 4.000000, 4.000000, 4.000000, 4.000000, 4.000000, 4.000000, 4.000000, 4.000000, 4.000000, 4.000000, 4.000000, 4.000000, 4.000000, 4.000000, 4.000000, 4.000000
42.000000, 0.000000, 4232.307617, 4284.615234, 4226.666504, 4233.846191, 4269.230469, 4265.127930, 4252.820313, 4226.666504, 4197.948730, 4224.615234, 4243.076660, 4277.436035, 4241.538574, 4241.025391, 0.000000, 8277.000000, 8168.000000, 0.000000, 0.000000, 0.000000, 24833.000000, 421.538452, 4.000000, 4.000000, 4.000000, 4.000000, 4.000000, 4.000000, 4.000000, 4.000000, 4.000000, 4.000000, 4.000000, 4.000000, 4.000000, 4.000000, 4.000000, 4.000000
43.000000, 0.000000, 4229.743652, 4284.102539, 4224.102539, 4230.769043, 4261.538574, 4264.615234, 4254.871582, 4229.230469, 4200.512695, 4231.794922, 4247.692383, 4277.436035, 4248.717773, 4248.205078, 0.000000, 8299.000000, 8182.000000, 0.000000, 0.000000, 0.000000, 24833.000000, 429.230774, 4.000000, 4.000000, 4.000000, 4.000000, 4.000000, 4.000000, 4.000000, 4.000000, 4.000000, 4.000000, 4.000000, 4.000000, 4.000000, 4.000000, 4.000000, 4.000000
44.000000, 0.000000, 4237.436035, 4286.153809, 4225.127930, 4232.307617, 4260.512695, 4263.076660, 4250.769043, 4228.717773, 4202.563965, 4238.974121, 4242.563965, 4278.974121, 4244.102539, 4253.333008, 0.000000, 8299.000000, 8182.000000, 0.000000, 0.000000, 0.000000, 24833.000000, 436.923065, 4.000000, 4.000000, 4.000000, 4.000000, 4.000000, 4.000000, 4.000000, 4.000000, 4.000000, 4.000000, 4.000000, 4.000000, 4.000000, 4.000000, 4.000000, 4.000000
45.000000, 0.000000, 4245.641113, 4291.281738, 4227.179199, 4238.974121, 4263.076660, 4264.102539, 4251.281738, 4226.153809, 4202.051270, 4248.205078, 4246.666504, 4286.153809, 4244.102539, 4258.974121, 0.000000, 8307.000000, 8182.000000, 0.000000, 0.000000, 0.000000, 24833.000000, 444.615387, 4.000000, 4.000000, 4.000000, 4.000000, 4.000000, 4.000000, 4.000000, 4.000000, 4.000000, 4.000000, 4.000000, 4.000000, 4.000000, 4.000000, 4.000000, 4.000000
46.000000, 0.000000, 4253.846191, 4299.487305, 4234.358887, 4247.179199, 4265.127930, 4266.153809, 4254.871582, 4234.871582, 4204.615234, 4266.153809, 4267.179199, 4300.512695, 4265.127930, 4271.794922, 0.000000, 8307.000000, 8182.000000, 0.000000, 0.000000, 0.000000, 24833.000000, 452.820496, 4.000000, 4.000000, 4.000000, 4.000000, 4.000000, 4.000000, 4.000000, 4.000000, 4.000000, 4.000000, 4.000000, 4.000000, 4.000000, 4.000000, 4.000000, 4.000000
47.000000, 0.000000, 4269.230469, 4308.717773, 4243.589844, 4257.948730, 4267.179199, 4263.589844, 4250.256348, 4237.948730, 4205.127930, 4277.948730, 4283.589844, 4315.384277, 4287.692383, 4284.615234, 0.000000, 8305.000000, 8177.000000, 0.000000, 0.000000, 0.000000, 24833.000000, 460.512817, 4.000000, 4.000000, 4.000000, 4.000000, 4.000000, 4.000000, 4.000000, 4.000000, 4.000000, 4.000000, 4.000000, 4.000000, 4.000000, 4.000000, 4.000000, 4.000000
48.000000, 0.000000, 4270.256348, 4312.820313, 4244.615234, 4263.076660, 4264.615234, 4263.076660, 4248.717773, 4233.846191, 4202.563965, 4269.743652, 4278.974121, 4311.281738, 4282.563965, 4278.461426, 0.000000, 8305.000000, 8177.000000, 0.000000, 0.000000, 0.000000, 24833.000000, 468.205109, 4.000000, 4.000000, 4.000000, 4.000000, 4.000000, 4.000000, 4.000000, 4.000000, 4.000000, 4.000000, 4.000000, 4.000000, 4.000000, 4.000000, 4.000000, 4.000000
49.000000, 0.000000, 4264.615234, 4313.846191, 4242.563965, 4261.538574, 4266.153809, 4266.153809, 4253.333008, 4236.922852, 4202.563965, 4262.563965, 4273.846191, 4298.974121, 4273.846191, 4270.256348, 0.000000, 8293.000000, 8175.000000, 0.000000, 0.000000, 0.000000, 24833.000000, 475.897430, 4.000000, 4.000000, 4.000000, 4.000000, 4.000000, 4.000000, 4.000000, 4.000000, 4.000000, 4.000000, 4.000000, 4.000000, 4.000000, 4.000000, 4.000000, 4.000000
50.000000, 0.000000, 4274.871582, 4316.410156, 4245.641113, 4265.641113, 4268.205078, 4260.000000, 4244.102539, 4232.307617, 4202.563965, 4267.692383, 4277.948730, 4299.487305, 4281.025391, 4273.333008, 0.000000, 8293.000000, 8175.000000, 0.000000, 0.000000, 0.000000, 24833.000000, 483.589722, 4.000000, 4.000000, 4.000000, 4.000000, 4.000000, 4.000000, 4.000000, 4.000000, 4.000000, 4.000000, 4.000000, 4.000000, 4.000000, 4.000000, 4.000000, 4.000000
51.000000, 0.000000, 4278.461426, 4317.436035, 4248.205078, 4264.615234, 4256.410156, 4249.743652, 4231.281738, 4211.281738, 4200.000000, 4256.922852, 4268.205078, 4302.051270, 4275.897461, 4269.743652, 0.000000, 8275.000000, 8167.000000, 0.000000, 0.000000, 0.000000, 24833.000000, 491.282043, 4.000000, 4.000000, 4.000000, 4.000000, 4.000000, 4.000000, 4.000000, 4.000000, 4.000000, 4.000000, 4.000000, 4.000000, 4.000000, 4.000000, 4.000000, 4.000000
52.000000, 0.000000, 4263.589844, 4315.384277, 4239.487305, 4251.794922, 4244.102539, 4244.102539, 4230.256348, 4199.487305, 4199.487305, 4236.410156, 4250.256348, 4290.769043, 4260.512695, 4255.384277, 0.000000, 8275.000000, 8167.000000, 0.000000, 0.000000, 0.000000, 24833.000000, 499.487152, 4.000000, 4.000000, 4.000000, 4.000000, 4.000000, 4.000000, 4.000000, 4.000000, 4.000000, 4.000000, 4.000000, 4.000000, 4.000000, 4.000000, 4.000000, 4.000000
53.000000, 0.000000, 4257.948730, 4312.820313, 4230.769043, 4241.538574, 4243.589844, 4237.948730, 4232.820313, 4202.563965, 4200.512695, 4234.871582, 4246.666504, 4279.487305, 4256.922852, 4253.846191, 0.000000, 8238.000000, 8172.000000, 0.000000, 0.000000, 0.000000, 24833.000000, 507.179474, 4.000000, 4.000000, 4.000000, 4.000000, 4.000000, 4.000000, 4.000000, 4.000000, 4.000000, 4.000000, 4.000000, 4.000000, 4.000000, 4.000000, 4.000000, 4.000000
54.000000, 0.000000, 4263.076660, 4309.230469, 4231.281738, 4239.487305, 4239.487305, 4233.333008, 4234.871582, 4202.563965, 4198.974121, 4243.589844, 4252.307617, 4286.153809, 4261.025391, 4262.051270, 0.000000, 8238.000000, 8172.000000, 0.000000, 0.000000, 0.000000, 24833.000000, 514.871765, 4.000000, 4.000000, 4.000000, 4.000000, 4.000000, 4.000000, 4.000000, 4.000000, 4.000000, 4.000000, 4.000000, 4.000000, 4.000000, 4.000000, 4.000000, 4.000000
55.000000, 0.000000, 4265.641113, 4309.230469, 4231.281738, 4239.487305, 4229.743652, 4233.333008, 4227.179199, 4197.948730, 4199.487305, 4245.641113, 4259.487305, 4293.333008, 4268.717773, 4266.666504, 0.000000, 8218.000000, 8175.000000, 0.000000, 0.000000, 0.000000, 24833.000000, 522.564087, 4.000000, 4.000000, 4.000000, 4.000000, 4.000000, 4.000000, 4.000000, 4.000000, 4.000000, 4.000000, 4.000000, 4.000000, 4.000000, 4.000000, 4.000000, 4.000000
56.000000, 0.000000, 4264.615234, 4315.897461, 4227.692383, 4240.000000, 4229.230469, 4229.230469, 4222.051270, 4201.538574, 4201.538574, 4246.666504, 4263.076660, 4286.153809, 4275.897461, 4266.153809, 0.000000, 8218.000000, 8175.000000, 0.000000, 0.000000, 0.000000, 24833.000000, 530.256409, 4.000000, 4.000000, 4.000000, 4.000000, 4.000000, 4.000000, 4.000000, 4.000000, 4.000000, 4.000000, 4.000000, 4.000000, 4.000000, 4.000000, 4.000000, 4.000000
57.000000, 0.000000, 4253.846191, 4309.743652, 4224.615234, 4235.384277, 4225.127930, 4221.025391, 4227.179199, 4204.615234, 4201.025391, 4247.692383, 4253.846191, 4274.871582, 4270.256348, 4262.051270, 0.000000, 8184.000000, 8203.000000, 0.000000, 0.000000, 0.000000, 24833.000000, 537.948730, 4.000000, 4.000000, 4.000000, 4.000000, 4.000000, 4.000000, 4.000000, 4.000000, 4.000000, 4.000000, 4.000000, 4.000000, 4.000000, 4.000000, 4.000000, 4.000000
58.000000, 0.000000, 4246.666504, 4301.025391, 4226.666504, 4230.769043, 4216.922852, 4218.461426, 4224.615234, 4192.307617, 4198.974121, 4241.025391, 4244.615234, 4275.384277, 4260.000000, 4256.922852, 0.000000, 8184.000000, 8203.000000, 0.000000, 0.000000, 0.000000, 24833.000000, 546.153809, 4.000000, 4.000000, 4.000000, 4.000000, 4.000000, 4.000000, 4.000000, 4.000000, 4.000000, 4.000000, 4.000000, 4.000000, 4.000000, 4.000000, 4.000000, 4.000000
59.000000, 0.000000, 4253.333008, 4307.179199, 4231.794922, 4236.410156, 4219.487305, 4217.948730, 4217.948730, 4180.512695, 4200.000000, 4234.871582, 4247.692383, 4275.384277, 4262.563965, 4252.307617, 0.000000, 8166.000000, 8197.000000, 0.000000, 0.000000, 0.000000, 24833.000000, 553.846130, 4.000000, 4.000000, 4.000000, 4.000000, 4.000000, 4.000000, 4.000000, 4.000000, 4.000000, 4.000000, 4.000000, 4.000000, 4.000000, 4.000000, 4.000000, 4.000000
60.000000, 0.000000, 4250.256348, 4305.127930, 4225.127930, 4232.307617, 4218.974121, 4217.948730, 4219.487305, 4185.127930, 4201.538574, 4235.384277, 4247.179199, 4267.179199, 4263.076660, 4249.230469, 0.000000, 8166.000000, 8197.000000, 0.000000, 0.000000, 0.000000, 24833.000000, 561.538452, 4.000000, 4.000000, 4.000000, 4.000000, 4.000000, 4.000000, 4.000000, 4.000000, 4.000000, 4.000000, 4.000000, 4.000000, 4.000000, 4.000000, 4.000000, 4.000000
61.000000, 0.000000, 4235.897461, 4294.871582, 4214.358887, 4219.487305, 4207.179199, 4213.846191, 4220.000000, 4184.102539, 4200.000000, 4231.794922, 4238.461426, 4260.000000, 4254.871582, 4244.102539, 0.000000, 8155.000000, 8180.000000, 0.000000, 0.000000, 0.000000, 24833.000000, 569.230774, 4.000000, 4.000000, 4.000000, 4.000000, 4.000000, 4.000000, 4.000000, 4.000000, 4.000000, 4.000000, 4.000000, 4.000000, 4.000000, 4.000000, 4.000000, 4.000000
62.000000, 0.000000, 4232.820313, 4294.871582, 4213.333008, 4222.051270, 4201.538574, 4205.127930, 4214.358887, 4177.436035, 4198.461426, 4228.717773, 4233.333008, 4254.871582, 4248.717773, 4237.948730, 0.000000, 8155.000000, 8180.000000, 0.000000, 0.000000, 0.000000, 24833.000000, 576.923035, 4.000000, 4.000000, 4.000000, 4.000000, 4.000000, 4.000000, 4.000000, 4.000000, 4.000000, 4.000000, 4.000000, 4.000000, 4.000000, 4.000000, 4.000000, 4.000000
63.000000, 0.000000, 4234.358887, 4294.871582, 4210.256348, 4222.563965, 4203.589844, 4199.487305, 4208.205078, 4173.846191, 4198.974121, 4227.692383, 4224.615234, 4245.641113, 4238.974121, 4231.281738, 0.000000, 8118.000000, 8183.000000, 0.000000, 0.000000, 0.000000, 24833.000000, 585.128174, 4.000000, 4.000000, 4.000000, 4.000000, 4.000000, 4.000000, 4.000000, 4.000000, 4.000000, 4.000000, 4.000000, 4.000000, 4.000000, 4.000000, 4.000000, 4.000000
64.000000, 0.000000, 4229.230469, 4291.794922, 4204.102539, 4213.333008, 4200.000000, 4200.512695, 4202.051270, 4159.487305, 4198.461426, 4220.000000, 4214.871582, 4236.410156, 4232.307617, 4225.127930, 3006.000000, 8118.000000, 8183.000000, 0.000000, 0.000000, 0.000000, 24833.000000, 592.820496, 4.000000, 4.000000, 4.000000, 4.000000, 4.000000, 4.000000, 4.000000, 4.000000, 4.000000, 4.000000, 4.000000, 4.000000, 4.000000, 4.000000, 4.000000, 4.000000
65.000000, 0.000000, 4223.076660, 4287.179199, 4204.102539, 4212.307617, 4197.436035, 4204.615234, 4206.153809, 4151.794922, 4198.461426, 4213.846191, 4214.871582, 4238.461426, 4233.333008, 4223.589844, 3507.000000, 8109.000000, 8186.000000, 0.000000, 0.000000, 0.000000, 24833.000000, 600.512817, 4.000000, 4.000000, 4.000000, 4.000000, 4.000000, 4.000000, 4.000000, 4.000000, 4.000000, 4.000000, 4.000000, 4.000000, 4.000000, 4.000000, 4.000000, 4.000000
66.000000, 0.000000, 4224.615234, 4286.153809, 4207.179199, 4216.922852, 4195.384277, 4205.127930, 4210.769043, 4167.692383, 4200.512695, 4219.487305, 4218.461426, 4246.666504, 4232.820313, 4227.179199, 3511.000000, 8109.000000, 8186.000000, 0.000000, 0.000000, 0.000000, 24833.000000, 608.205139, 4.000000, 4.000000, 4.000000, 4.000000, 4.000000, 4.000000, 4.000000, 4.000000, 4.000000, 4.000000, 4.000000, 4.000000, 4.000000, 4.000000, 4.000000, 4.000000
67.000000, 0.000000, 4229.230469, 4292.307617, 4204.615234, 4217.948730, 4187.692383, 4197.948730, 4194.871582, 4166.666504, 4198.974121, 4216.922852, 4215.897461, 4248.717773, 4226.666504, 4233.333008, 2234.000000, 8086.000000, 8179.000000, 0.000000, 0.000000, 0.000000, 24833.000000, 615.897400, 4.000000, 4.000000, 4.000000, 4.000000, 4.000000, 4.000000, 4.000000, 4.000000, 4.000000, 4.000000, 4.000000, 4.000000, 4.000000, 4.000000, 4.000000, 4.000000
68.000000, 0.000000, 4223.589844, 4292.307617, 4201.538574, 4215.897461, 4181.538574, 4187.692383, 4187.179199, 4145.641113, 4197.436035, 4204.615234, 4213.846191, 4245.641113, 4221.025391, 4230.769043, 3517.000000, 8086.000000, 8179.000000, 0.000000, 0.000000, 0.000000, 24833.000000, 623.589722, 4.000000, 4.000000, 4.000000, 4.000000, 4.000000, 4.000000, 4.000000, 4.000000, 4.000000, 4.000000, 4.000000, 4.000000, 4.000000, 4.000000, 4.000000, 4.000000
69.000000, 0.000000, 4215.384277, 4283.076660, 4205.641113, 4214.358887, 4183.589844, 4190.769043, 4197.948730, 4151.794922, 4200.512695, 4208.205078, 4216.922852, 4246.666504, 4221.025391, 4220.000000, 3563.000000, 8074.000000, 8180.000000, 0.000000, 0.000000, 0.000000, 24833.000000, 631.794861, 4.000000, 4.000000, 4.000000, 4.000000, 4.000000, 4.000000, 4.000000, 4.000000, 4.000000, 4.000000, 4.000000, 4.000000, 4.000000, 4.000000, 4.000000, 4.000000
70.000000, 0.000000, 4222.051270, 4285.127930, 4212.307617, 4216.410156, 4190.256348, 4201.025391, 4204.615234, 4174.358887, 4202.563965, 4218.974121, 4212.820313, 4247.692383, 4216.410156, 4216.410156, 3416.000000, 8074.000000, 8180.000000, 0.000000, 0.000000, 0.000000, 24833.000000, 639.487183, 4.000000, 4.000000, 4.000000, 4.000000, 4.000000, 4.000000, 4.000000, 4.000000, 4.000000, 4.000000, 4.000000, 4.000000, 4.000000, 4.000000, 4.000000, 4.000000
71.000000, 0.000000, 4230.769043, 4293.846191, 4216.410156, 4221.538574, 4193.333008, 4201.025391, 4201.538574, 4172.820313, 4201.538574, 4217.948730, 4206.666504, 4246.153809, 4204.615234, 4214.871582, 3488.000000, 8068.000000, 8178.000000, 0.000000, 0.000000, 0.000000, 24833.000000, 647.179443, 4.000000, 4.000000, 4.000000, 4.000000, 4.000000, 4.000000, 4.000000, 4.000000, 4.000000, 4.000000, 4.000000, 4.000000, 4.000000, 4.000000, 4.000000, 4.000000
72.000000, 0.000000, 4221.538574, 4286.153809, 4212.820313, 4217.948730, 4190.256348, 4197.948730, 4200.000000, 4163.589844, 4200.512695, 4216.410156, 4206.666504, 4247.692383, 4201.025391, 4206.666504, 1037.000000, 8068.000000, 8178.000000, 0.000000, 0.000000, 0.000000, 24833.000000, 654.871765, 4.000000, 4.000000, 4.000000, 4.000000, 4.000000, 4.000000, 4.000000, 4.000000, 4.000000, 4.000000, 4.000000, 4.000000, 4.000000, 4.000000, 4.000000, 4.000000
73.000000, 0.000000, 4211.794922, 4276.410156, 4208.717773, 4211.794922, 4185.641113, 4200.000000, 4202.563965, 4169.743652, 4201.538574, 4220.512695, 4207.692383, 4248.717773, 4205.127930, 4198.974121, 2998.000000, 8077.000000, 8168.000000, 0.000000, 0.000000, 0.000000, 24833.000000, 662.564087, 4.000000, 4.000000, 4.000000, 4.000000, 4.000000, 4.000000, 4.000000, 4.000000, 4.000000, 4.000000, 4.000000, 4.000000, 4.000000, 4.000000, 4.000000, 4.000000
74.000000, 0.000000, 4216.410156, 4284.102539, 4213.333008, 4213.333008, 4186.666504, 4201.025391, 4200.512695, 4167.179199, 4201.538574, 4218.974121, 4201.538574, 4246.153809, 4198.461426, 4201.538574, 3567.000000, 8077.000000, 8168.000000, 0.000000, 0.000000, 0.000000, 24833.000000, 670.256409, 4.000000, 4.000000, 4.000000, 4.000000, 4.000000, 4.000000, 4.000000, 4.000000, 4.000000, 4.000000, 4.000000, 4.000000, 4.000000, 4.000000, 4.000000, 4.000000
75.000000, 0.000000, 4226.153809, 4295.384277, 4216.922852, 4218.461426, 4193.846191, 4197.948730, 4195.384277, 4154.358887, 4201.025391, 4216.922852, 4198.461426, 4245.641113, 4195.384277, 4210.256348, 3567.000000, 8086.000000, 8157.000000, 0.000000, 0.000000, 0.000000, 24833.000000, 678.461548, 4.000000, 4.000000, 4.000000, 4.000000, 4.000000, 4.000000, 4.000000, 4.000000, 4.000000, 4.000000, 4.000000, 4.000000, 4.000000, 4.000000, 4.000000, 4.000000
76.000000, 0.000000, 4229.743652, 4300.512695, 4217.948730, 4222.051270, 4193.333008, 4201.025391, 4204.615234, 4157.948730, 4201.025391, 4217.948730, 4205.127930, 4252.820313, 4210.256348, 4216.922852, 3517.000000, 8086.000000, 8157.000000, 0.000000, 0.000000, 0.000000, 24833.000000, 686.153809, 4.000000, 4.000000, 4.000000, 4.000000, 4.000000, 4.000000, 4.000000, 4.000000, 4.000000, 4.000000, 4.000000, 4.000000, 4.000000, 4.000000, 4.000000, 4.000000
77.000000, 0.000000, 4226.153809, 4293.333008, 4215.897461, 4216.922852, 4186.153809, 4210.769043, 4220.000000, 4172.307617, 4201.538574, 4216.410156, 4211.794922, 4261.025391, 4216.922852, 4217.436035, 3450.000000, 8098.000000, 8144.000000, 0.000000, 0.000000, 0.000000, 24833.000000, 693.846130, 4.000000, 4.000000, 4.000000, 4.000000, 4.000000, 4.000000, 4.000000, 4.000000, 4.000000, 4.000000, 4.000000, 4.000000, 4.000000, 4.000000, 4.000000, 4.000000
78.000000, 0.000000, 4230.256348, 4290.769043, 4213.846191, 4216.410156, 4191.794922, 4217.436035, 4213.846191, 4173.333008, 4200.512695, 4225.127930, 4217.436035, 4264.102539, 4217.948730, 4223.076660, 3567.000000, 8098.000000, 8144.000000, 0.000000, 0.000000, 0.000000, 24833.000000, 702.051270, 4.000000, 4.000000, 4.000000, 4.000000, 4.000000, 4.000000, 4.000000, 4.000000, 4.000000, 4.000000, 4.000000, 4.000000, 4.000000, 4.000000, 4.000000, 4.000000
79.000000, 0.000000, 4235.897461, 4301.538574, 4221.538574, 4225.127930, 4197.948730, 4217.948730, 4208.205078, 4168.717773, 4201.025391, 4232.820313, 4217.436035, 4262.563965, 4215.897461, 4223.076660, 3567.000000, 8114.000000, 8131.000000, 0.000000, 0.000000, 0.000000, 24833.000000, 709.743591, 4.000000, 4.000000, 4.000000, 4.000000, 4.000000, 4.000000, 4.000000, 4.000000, 4.000000, 4.000000, 4.000000, 4.000000, 4.000000, 4.000000, 4.000000, 4.000000
80.000000, 0.000000, 4229.230469, 4304.102539, 4225.127930, 4226.153809, 4193.333008, 4216.410156, 4216.410156, 4176.410156, 4203.589844, 4232.307617, 4214.871582, 4260.000000, 4213.333008, 4213.333008, 3517.000000, 8114.000000, 8131.000000, 0.000000, 0.000000, 0.000000, 24833.000000, 717.435852, 4.000000, 4.000000, 4.000000, 4.000000, 4.000000, 4.000000, 4.000000, 4.000000, 4.000000, 4.000000, 4.000000, 4.000000, 4.000000, 4.000000, 4.000000, 4.000000
81.000000, 0.000000, 4228.205078, 4308.717773, 4220.512695, 4226.666504, 4202.051270, 4217.436035, 4211.794922, 4182.563965, 4203.076660, 4240.000000, 4226.153809, 4264.102539, 4228.205078, 4220.000000, 3450.000000, 8146.000000, 8115.000000, 0.000000, 0.000000, 0.000000, 24833.000000, 725.128174, 4.000000, 4.000000, 4.000000, 4.000000, 4.000000, 4.000000, 4.000000, 4.000000, 4.000000, 4.000000, 4.000000, 4.000000, 4.000000, 4.000000, 4.000000, 4.000000
82.000000, 0.000000, 4233.333008, 4320.512695, 4222.051270, 4232.820313, 4220.512695, 4218.974121, 4207.692383, 4179.487305, 4200.512695, 4247.692383, 4234.358887, 4266.666504, 4238.974121, 4234.358887, 3567.000000, 8146.000000, 8115.000000, 0.000000, 0.000000, 0.000000, 24833.000000, 732.820496, 4.000000, 4.000000, 4.000000, 4.000000, 4.000000, 4.000000, 4.000000, 4.000000, 4.000000, 4.000000, 4.000000, 4.000000, 4.000000, 4.000000, 4.000000, 4.000000
83.000000, 0.000000, 4231.281738, 4324.102539, 4225.127930, 4235.897461, 4221.538574, 4219.487305, 4218.461426, 4186.666504, 4201.538574, 4247.692383, 4230.256348, 4264.102539, 4232.307617, 4231.281738, 3567.000000, 8162.000000, 8120.000000, 0.000000, 0.000000, 0.000000, 24833.000000, 740.512817, 4.000000, 4.000000, 4.000000, 4.000000, 4.000000, 4.000000, 4.000000, 4.000000, 4.000000, 4.000000, 4.000000, 4.000000, 4.000000, 4.000000, 4.000000, 4.000000
84.000000, 0.000000, 4236.922852, 4329.743652, 4227.179199, 4241.025391, 4215.384277, 4222.563965, 4220.512695, 4198.461426, 4205.641113, 4255.384277, 4233.846191, 4269.230469, 4237.948730, 4230.769043, 3517.000000, 8162.000000, 8120.000000, 0.000000, 0.000000, 0.000000, 24833.000000, 748.717957, 4.000000, 4.000000, 4.000000, 4.000000, 4.000000, 4.000000, 4.000000, 4.000000, 4.000000, 4.000000, 4.000000, 4.000000, 4.000000, 4.000000, 4.000000, 4.000000
85.000000, 0.000000, 4250.769043, 4341.538574, 4233.846191, 4249.743652, 4218.974121, 4229.230469, 4217.436035, 4204.102539, 4206.666504, 4267.179199, 4248.717773, 4281.025391, 4254.358887, 4244.102539, 3450.000000, 8175.000000, 8117.000000, 0.000000, 0.000000, 0.000000, 24833.000000, 756.410217, 4.000000, 4.000000, 4.000000, 4.000000, 4.000000, 4.000000, 4.000000, 4.000000, 4.000000, 4.000000, 4.000000, 4.000000, 4.000000, 4.000000, 4.000000, 4.000000
86.000000, 0.000000, 4251.281738, 4341.025391, 4238.461426, 4251.794922, 4220.000000, 4227.179199, 4219.487305, 4205.641113, 4204.102539, 4267.179199, 4250.769043, 4284.615234, 4251.794922, 4249.743652, 3567.000000, 8175.000000, 8117.000000, 0.000000, 0.000000, 0.000000, 24833.000000, 764.102539, 4.000000, 4.000000, 4.000000, 4.000000, 4.000000, 4.000000, 4.000000, 4.000000, 4.000000, 4.000000, 4.000000, 4.000000, 4.000000, 4.000000, 4.000000, 4.000000
87.000000, 0.000000, 4245.641113, 4340.000000, 4237.436035, 4249.230469, 4217.436035, 4216.922852, 4217.436035, 4205.127930, 4202.051270, 4266.666504, 4245.641113, 4282.563965, 4246.666504, 4249.230469, 3567.000000, 8204.000000, 8092.000000, 0.000000, 0.000000, 0.000000, 24833.000000, 771.794861, 4.000000, 4.000000, 4.000000, 4.000000, 4.000000, 4.000000, 4.000000, 4.000000, 4.000000, 4.000000, 4.000000, 4.000000, 4.000000, 4.000000, 4.000000, 4.000000
88.000000, 0.000000, 4246.666504, 4347.179199, 4235.897461, 4248.717773, 4219.487305, 4221.025391, 4213.846191, 4206.666504, 4202.563965, 4268.717773, 4249.230469, 4281.025391, 4251.794922, 4251.281738, 3517.000000, 8204.000000, 8092.000000, 0.000000, 0.000000, 0.000000, 24833.000000, 780.000000, 4.000000, 4.000000, 4.000000, 4.000000, 4.000000, 4.000000, 4.000000, 4.000000, 4.000000, 4.000000, 4.000000, 4.000000, 4.000000, 4.000000, 4.000000, 4.000000
89.000000, 0.000000, 4245.127930, 4346.666504, 4236.922852, 4244.102539, 4218.461426, 4231.794922, 4219.487305, 4217.436035, 4204.102539, 4265.641113, 4248.717773, 4279.487305, 4250.256348, 4247.692383, 3450.000000, 8224.000000, 8072.000000, 0.000000, 0.000000, 0.000000, 24833.000000, 787.692261, 4.000000, 4.000000, 4.000000, 4.000000, 4.000000, 4.000000, 4.000000, 4.000000, 4.000000, 4.000000, 4.000000, 4.000000, 4.000000, 4.000000, 4.000000, 4.000000
90.000000, 0.000000, 4243.589844, 4344.102539, 4232.820313, 4243.076660, 4217.948730, 4232.820313, 4229.230469, 4217.436035, 4203.076660, 4263.076660, 4237.948730, 4274.358887, 4240.000000, 4236.922852, 3567.000000, 8224.000000, 8072.000000, 0.000000, 0.000000, 0.000000, 24833.000000, 795.384583, 4.000000, 4.000000, 4.000000, 4.000000, 4.000000, 4.000000, 4.000000, 4.000000, 4.000000, 4.000000, 4.000000, 4.000000, 4.000000, 4.000000, 4.000000, 4.000000
91.000000, 0.000000, 4244.615234, 4347.179199, 4227.179199, 4245.641113, 4221.025391, 4231.794922, 4233.846191, 4207.179199, 4201.538574, 4263.076660, 4232.307617, 4269.743652, 4233.846191, 4233.846191, 3567.000000, 8271.000000, 8041.000000, 0.000000, 0.000000, 0.000000, 24833.000000, 803.076904, 4.000000, 4.000000, 4.000000, 4.000000, 4.000000, 4.000000, 4.000000, 4.000000, 4.000000, 4.000000, 4.000000, 4.000000, 4.000000, 4.000000, 4.000000, 4.000000
92.000000, 0.000000, 4241.025391, 4347.179199, 4228.205078, 4243.589844, 4213.846191, 4232.307617, 4230.769043, 4211.281738, 4202.563965, 4261.025391, 4233.846191, 4270.256348, 4234.358887, 4234.358887, 3517.000000, 8271.000000, 8041.000000, 0.000000, 0.000000, 0.000000, 24833.000000, 811.282043, 4.000000, 4.000000, 4.000000, 4.000000, 4.000000, 4.000000, 4.000000, 4.000000, 4.000000, 4.000000, 4.000000, 4.000000, 4.000000, 4.000000, 4.000000, 4.000000
93.000000, 0.000000, 4238.974121, 4344.102539, 4226.153809, 4241.538574, 4206.153809, 4231.794922, 4230.769043, 4218.461426, 4202.563965, 4258.974121, 4232.307617, 4270.256348, 4234.358887, 4232.820313, 3450.000000, 8288.000000, 8031.000000, 0.000000, 0.000000, 0.000000, 24833.000000, 818.974365, 4.000000, 4.000000, 4.000000, 4.000000, 4.000000, 4.000000, 4.000000, 4.000000, 4.000000, 4.000000, 4.000000, 4.000000, 4.000000, 4.000000, 4.000000, 4.000000
94.000000, 0.000000, 4244.102539, 4348.717773, 4222.563965, 4245.127930, 4214.871582, 4232.820313, 4232.307617, 4214.358887, 4201.025391, 4262.051270, 4230.256348, 4267.179199, 4233.846191, 4239.487305, 3567.000000, 8288.000000, 8031.000000, 0.000000, 0.000000, 0.000000, 24833.000000, 826.666626, 4.000000, 4.000000, 4.000000, 4.000000, 4.000000, 4.000000, 4.000000, 4.000000, 4.000000, 4.000000, 4.000000, 4.000000, 4.000000, 4.000000, 4.000000, 4.000000
95.000000, 0.000000, 4249.230469, 4350.769043, 4223.589844, 4246.153809, 4220.512695, 4232.820313, 4229.230469, 4212.820313, 4201.538574, 4260.512695, 4230.769043, 4265.641113, 4236.410156, 4246.666504, 3567.000000, 8307.000000, 8047.000000, 0.000000, 0.000000, 0.000000, 24833.000000, 834.358948, 4.000000, 4.000000, 4.000000, 4.000000, 4.000000, 4.000000, 4.000000, 4.000000, 4.000000, 4.000000, 4.000000, 4.000000, 4.000000, 4.000000, 4.000000, 4.000000
96.000000, 0.000000, 4246.153809, 4347.179199, 4225.127930, 4238.461426, 4205.641113, 4230.769043, 4230.769043, 4218.461426, 4201.025391, 4251.794922, 4228.717773, 4265.641113, 4231.794922, 4237.948730, 3517.000000, 8307.000000, 8047.000000, 0.000000, 0.000000, 0.000000, 24833.000000, 842.564087, 4.000000, 4.000000, 4.000000, 4.000000, 4.000000, 4.000000, 4.000000, 4.000000, 4.000000, 4.000000, 4.000000, 4.000000, 4.000000, 4.000000, 4.000000, 4.000000
97.000000, 0.000000, 4239.487305, 4345.641113, 4226.153809, 4231.281738, 4196.410156, 4228.205078, 4237.436035, 4220.000000, 4199.487305, 4247.692383, 4225.641113, 4265.127930, 4225.127930, 4229.743652, 3450.000000, 8312.000000, 8062.000000, 0.000000, 0.000000, 0.000000, 24833.000000, 850.256409, 4.000000, 4.000000, 4.000000, 4.000000, 4.000000, 4.000000, 4.000000, 4.000000, 4.000000, 4.000000, 4.000000, 4.000000, 4.000000, 4.000000, 4.000000, 4.000000
98.000000, 0.000000, 4234.358887, 4342.051270, 4225.641113, 4232.307617, 4203.589844, 4223.589844, 4231.281738, 4216.410156, 4201.025391, 4253.333008, 4228.717773, 4267.179199, 4228.205078, 4234.358887, 3567.000000, 8312.000000, 8062.000000, 0.000000, 0.000000, 0.000000, 24833.000000, 857.948669, 4.000000, 4.000000, 4.000000, 4.000000, 4.000000, 4.000000, 4.000000, 4.000000, 4.000000, 4.000000, 4.000000, 4.000000, 4.000000, 4.000000, 4.000000, 4.000000
99.000000, 0.000000, 4233.846191, 4336.410156, 4223.076660, 4231.281738, 4199.487305, 4218.974121, 4221.025391, 4216.922852, 4202.051270, 4253.846191, 4230.256348, 4268.205078, 4229.743652, 4236.410156, 3567.000000, 8318.000000, 8070.000000, 0.000000, 0.000000, 0.000000, 24833.000000, 865.640991, 4.000000, 4.000000, 4.000000, 4.000000, 4.000000, 4.000000, 4.000000, 4.000000, 4.000000, 4.000000, 4.000000, 4.000000, 4.000000, 4.000000, 4.000000, 4.000000
100.000000, 0.000000, 4230.256348, 4332.820313, 4220.000000, 4221.538574, 4188.205078, 4214.358887, 4216.922852, 4216.410156, 4202.563965, 4249.230469, 4231.794922, 4266.666504, 4226.153809, 4232.820313, 3517.000000, 8318.000000, 8070.000000, 0.000000, 0.000000, 0.000000, 24833.000000, 873.333313, 4.000000, 4.000000, 4.000000, 4.000000, 4.000000, 4.000000, 4.000000, 4.000000, 4.000000, 4.000000, 4.000000, 4.000000, 4.000000, 4.000000, 4.000000, 4.000000
101.000000, 0.000000, 4221.025391, 4328.717773, 4217.948730, 4215.384277, 4193.333008, 4217.436035, 4220.000000, 4206.666504, 4201.538574, 4247.692383, 4230.256348, 4265.127930, 4223.076660, 4231.281738, 3450.000000, 8329.000000, 8078.000000, 0.000000, 0.000000, 0.000000, 24833.000000, 881.025635, 4.000000, 4.000000, 4.000000, 4.000000, 4.000000, 4.000000, 4.000000, 4.000000, 4.000000, 4.000000, 4.000000, 4.000000, 4.000000, 4.000000, 4.000000, 4.000000
102.000000, 0.000000, 4217.948730, 4327.692383, 4217.436035, 4218.461426, 4204.615234, 4229.743652, 4232.820313, 4198.461426, 4200.000000, 4245.641113, 4221.538574, 4261.538574, 4222.051270, 4232.820313, 3567.000000, 8329.000000, 8078.000000, 0.000000, 0.000000, 0.000000, 24833.000000, 889.230774, 4.000000, 4.000000, 4.000000, 4.000000, 4.000000, 4.000000, 4.000000, 4.000000, 4.000000, 4.000000, 4.000000, 4.000000, 4.000000, 4.000000, 4.000000, 4.000000
103.000000, 0.000000, 4220.000000, 4323.589844, 4213.846191, 4219.487305, 4202.563965, 4231.794922, 4235.897461, 4203.076660, 4200.000000, 4237.436035, 4218.461426, 4257.948730, 4218.974121, 4230.769043, 3567.000000, 8334.000000, 8095.000000, 0.000000, 0.000000, 0.000000, 24833.000000, 896.923035, 4.000000, 4.000000, 4.000000, 4.000000, 4.000000, 4.000000, 4.000000, 4.000000, 4.000000, 4.000000, 4.000000, 4.000000, 4.000000, 4.000000, 4.000000, 4.000000
104.000000, 0.000000, 4213.333008, 4316.410156, 4208.717773, 4212.820313, 4197.948730, 4221.538574, 4215.384277, 4198.974121, 4200.512695, 4229.743652, 4215.384277, 4245.641113, 4209.743652, 4220.000000, 3517.000000, 8334.000000, 8095.000000, 0.000000, 0.000000, 0.000000, 24833.000000, 904.615356, 4.000000, 4.000000, 4.000000, 4.000000, 4.000000, 4.000000, 4.000000, 4.000000, 4.000000, 4.000000, 4.000000, 4.000000, 4.000000, 4.000000, 4.000000, 4.000000
105.000000, 0.000000, 4206.666504, 4315.897461, 4200.512695, 4213.846191, 4201.025391, 4214.871582, 4197.948730, 4180.512695, 4198.974121, 4226.666504, 4202.051270, 4233.333008, 4196.922852, 4210.769043, 3450.000000, 8321.000000, 8147.000000, 0.000000, 0.000000, 0.000000, 24833.000000, 912.820496, 4.000000, 4.000000, 4.000000, 4.000000, 4.000000, 4.000000, 4.000000, 4.000000, 4.000000, 4.000000, 4.000000, 4.000000, 4.000000, 4.000000, 4.000000, 4.000000
106.000000, 0.000000, 4211.281738, 4318.461426, 4194.871582, 4220.512695, 4196.922852, 4212.820313, 4197.948730, 4165.641113, 4197.436035, 4221.538574, 4188.717773, 4232.307617, 4186.153809, 4210.769043, 3567.000000, 8321.000000, 8147.000000, 0.000000, 0.000000, 0.000000, 24833.000000, 920.512817, 4.000000, 4.000000, 4.000000, 4.000000, 4.000000, 4.000000, 4.000000, 4.000000, 4.000000, 4.000000, 4.000000, 4.000000, 4.000000, 4.000000, 4.000000, 4.000000
107.000000, 0.000000, 4205.641113, 4311.281738, 4196.410156, 4215.384277, 4196.410156, 4214.358887, 4198.461426, 4165.641113, 4197.948730, 4213.333008, 4183.589844, 4224.102539, 4173.846191, 4198.974121, 3567.000000, 8311.000000, 8191.000000, 0.000000, 0.000000, 0.000000, 24833.000000, 928.205078, 4.000000, 4.000000, 4.000000, 4.000000, 4.000000, 4.000000, 4.000000, 4.000000, 4.000000, 4.000000, 4.000000, 4.000000, 4.000000, 4.000000, 4.000000, 4.000000
108.000000, 0.000000, 4188.717773, 4301.538574, 4194.358887, 4207.692383, 4205.641113, 4216.922852, 4199.487305, 4177.948730, 4200.000000, 4205.641113, 4174.871582, 4212.307617, 4161.538574, 4183.076660, 3517.000000, 8311.000000, 8191.000000, 0.000000, 0.000000, 0.000000, 24833.000000, 935.897400, 4.000000, 4.000000, 4.000000, 4.000000, 4.000000, 4.000000, 4.000000, 4.000000, 4.000000, 4.000000, 4.000000, 4.000000, 4.000000, 4.000000, 4.000000, 4.000000
109.000000, 0.000000, 4186.666504, 4299.487305, 4191.794922, 4207.692383, 4197.948730, 4207.692383, 4204.102539, 4187.179199, 4201.538574, 4205.127930, 4172.820313, 4221.538574, 4163.589844, 4188.717773, 3450.000000, 8292.000000, 8232.000000, 0.000000, 0.000000, 0.000000, 24833.000000, 944.102539, 4.000000, 4.000000, 4.000000, 4.000000, 4.000000, 4.000000, 4.000000, 4.000000, 4.000000, 4.000000, 4.000000, 4.000000, 4.000000, 4.000000, 4.000000, 4.000000
110.000000, 0.000000, 4193.846191, 4293.846191, 4197.948730, 4202.563965, 4182.563965, 4198.461426, 4201.538574, 4188.205078, 4203.076660, 4221.025391, 4192.307617, 4236.922852, 4181.538574, 4204.615234, 3567.000000, 8292.000000, 8232.000000, 0.000000, 0.000000, 0.000000, 24833.000000, 951.794861, 4.000000, 4.000000, 4.000000, 4.000000, 4.000000, 4.000000, 4.000000, 4.000000, 4.000000, 4.000000, 4.000000, 4.000000, 4.000000, 4.000000, 4.000000, 4.000000
111.000000, 0.000000, 4195.384277, 4280.000000, 4197.948730, 4192.820313, 4186.666504, 4202.051270, 4198.974121, 4190.256348, 4203.076660, 4231.281738, 4204.102539, 4236.410156, 4190.769043, 4210.769043, 3567.000000, 8255.000000, 8254.000000, 0.000000, 0.000000, 0.000000, 24833.000000, 959.487183, 4.000000, 4.000000, 4.000000, 4.000000, 4.000000, 4.000000, 4.000000, 4.000000, 4.000000, 4.000000, 4.000000, 4.000000, 4.000000, 4.000000, 4.000000, 4.000000
112.000000, 0.000000, 4193.846191, 4272.820313, 4191.794922, 4196.922852, 4189.230469, 4197.436035, 4200.512695, 4194.358887, 4201.025391, 4217.948730, 4190.769043, 4231.281738, 4177.436035, 4206.666504, 3517.000000, 8255.000000, 8254.000000, 0.000000, 0.000000, 0.000000, 24833.000000, 967.179443, 4.000000, 4.000000, 4.000000, 4.000000, 4.000000, 4.000000, 4.000000, 4.000000, 4.000000, 4.000000, 4.000000, 4.000000, 4.000000, 4.000000, 4.000000, 4.000000
113.000000, 0.000000, 4192.820313, 4271.794922, 4192.820313, 4204.615234, 4175.897461, 4184.615234, 4192.307617, 4192.820313, 4201.025391, 4213.333008, 4182.051270, 4231.794922, 4169.230469, 4203.589844, 3450.000000, 8247.000000, 8236.000000, 0.000000, 0.000000, 0.000000, 24833.000000, 974.871765, 4.000000, 4.000000, 4.000000, 4.000000, 4.000000, 4.000000, 4.000000, 4.000000, 4.000000, 4.000000, 4.000000, 4.000000, 4.000000, 4.000000, 4.000000, 4.000000
114.000000, 0.000000, 4193.846191, 4265.641113, 4193.846191, 4194.358887, 4166.153809, 4179.487305, 4180.512695, 4186.666504, 4201.538574, 4220.000000, 4188.205078, 4231.794922, 4180.000000, 4204.615234, 3567.000000, 8247.000000, 8236.000000, 0.000000, 0.000000, 0.000000, 24833.000000, 983.076904, 4.000000, 4.000000, 4.000000, 4.000000, 4.000000, 4.000000, 4.000000, 4.000000, 4.000000, 4.000000, 4.000000, 4.000000, 4.000000, 4.000000, 4.000000, 4.000000
115.000000, 0.000000, 4186.153809, 4251.281738, 4184.102539, 4178.461426, 4160.512695, 4175.897461, 4182.051270, 4181.025391, 4199.487305, 4208.717773, 4177.948730, 4222.051270, 4178.974121, 4195.897461, 3567.000000, 8234.000000, 8242.000000, 0.000000, 0.000000, 0.000000, 24833.000000, 990.769226, 4.000000, 4.000000, 4.000000, 4.000000, 4.000000, 4.000000, 4.000000, 4.000000, 4.000000, 4.000000, 4.000000, 4.000000, 4.000000, 4.000000, 4.000000, 4.000000
116.000000, 0.000000, 4170.256348, 4237.436035, 4173.333008, 4171.794922, 4148.717773, 4168.717773, 4184.615234, 4174.358887, 4197.948730, 4194.358887, 4160.512695, 4203.589844, 4161.025391, 4179.487305, 3517.000000, 8234.000000, 8242.000000, 0.000000, 0.000000, 0.000000, 24833.000000, 998.461487, 4.000000, 4.000000, 4.000000, 4.000000, 4.000000, 4.000000, 4.000000, 4.000000, 4.000000, 4.000000, 4.000000, 4.000000, 4.000000, 4.000000, 4.000000, 4.000000
117.000000, 0.000000, 4168.717773, 4238.461426, 4176.922852, 4167.179199, 4149.743652, 4169.230469, 4178.974121, 4169.230469, 4197.948730, 4197.436035, 4162.051270, 4198.974121, 4159.487305, 4171.794922, 3450.000000, 8240.000000, 8239.000000, 0.000000, 0.000000, 0.000000, 24834.000000, 6.666667, 4.000000, 4.000000, 4.000000, 4.000000, 4.000000, 4.000000, 4.000000, 4.000000, 4.000000, 4.000000, 4.000000, 4.000000, 4.000000, 4.000000, 4.000000, 4.000000
118.000000, 0.000000, 4165.641113, 4237.436035, 4170.256348, 4154.358887, 4157.948730, 4174.358887, 4172.307617, 4164.615234, 4197.948730, 4194.871582, 4156.410156, 4197.436035, 4161.025391, 4161.538574, 3567.000000, 8240.000000, 8239.000000, 0.000000, 0.000000, 0.000000, 24834.000000, 14.358974, 4.000000, 4.000000, 4.000000, 4.000000, 4.000000, 4.000000, 4.000000, 4.000000, 4.000000, 4.000000, 4.000000, 4.000000, 4.000000, 4.000000, 4.000000, 4.000000
119.000000, 0.000000, 4140.512695, 4226.666504, 4148.205078, 4145.127930, 4152.307617, 4167.692383, 4165.641113, 4158.461426, 4198.974121, 4182.051270, 4130.256348, 4172.820313, 4142.051270, 4134.358887, 3567.000000, 8313.000000, 8200.000000, 0.000000, 0.000000, 0.000000, 24834.000000, 22.051281, 4.000000, 4.000000, 4.000000, 4.000000, 4.000000, 4.000000, 4.000000, 4.000000, 4.000000, 4.000000, 4.000000, 4.000000, 4.000000, 4.000000, 4.000000, 4.000000
120.000000, 0.000000, 4122.563965, 4219.487305, 4140.000000, 4135.384277, 4131.281738, 4155.897461, 4158.461426, 4153.333008, 4200.000000, 4171.794922, 4114.358887, 4152.820313, 4126.666504, 4116.922852, 3517.000000, 8313.000000, 8200.000000, 0.000000, 0.000000, 0.000000, 24834.000000, 29.743589, 4.000000, 4.000000, 4.000000, 4.000000, 4.000000, 4.000000, 4.000000, 4.000000, 4.000000, 4.000000, 4.000000, 4.000000, 4.000000, 4.000000, 4.000000, 4.000000
121.000000, 0.000000, 4122.563965, 4212.820313, 4144.102539, 4118.461426, 4115.897461, 4152.307617, 4157.436035, 4153.333008, 4198.461426, 4170.769043, 4119.487305, 4163.076660, 4135.897461, 4120.512695, 3450.000000, 8272.000000, 8180.000000, 0.000000, 0.000000, 0.000000, 24834.000000, 37.435898, 4.000000, 4.000000, 4.000000, 4.000000, 4.000000, 4.000000, 4.000000, 4.000000, 4.000000, 4.000000, 4.000000, 4.000000, 4.000000, 4.000000, 4.000000, 4.000000
122.000000, 0.000000, 4126.666504, 4220.512695, 4146.666504, 4124.615234, 4127.692383, 4156.410156, 4161.025391, 4156.410156, 4200.000000, 4177.948730, 4125.127930, 4171.794922, 4149.230469, 4123.589844, 3567.000000, 8272.000000, 8180.000000, 0.000000, 0.000000, 0.000000, 24834.000000, 45.128204, 4.000000, 4.000000, 4.000000, 4.000000, 4.000000, 4.000000, 4.000000, 4.000000, 4.000000, 4.000000, 4.000000, 4.000000, 4.000000, 4.000000, 4.000000, 4.000000
123.000000, 0.000000, 4127.179199, 4236.410156, 4143.076660, 4141.025391, 4140.000000, 4154.358887, 4163.589844, 4157.948730, 4204.102539, 4172.820313, 4117.436035, 4161.538574, 4146.153809, 4116.922852, 3567.000000, 8290.000000, 8175.000000, 0.000000, 0.000000, 0.000000, 24834.000000, 53.333332, 4.000000, 4.000000, 4.000000, 4.000000, 4.000000, 4.000000, 4.000000, 4.000000, 4.000000, 4.000000, 4.000000, 4.000000, 4.000000, 4.000000, 4.000000, 4.000000
124.000000, 0.000000, 4118.461426, 4236.922852, 4134.358887, 4129.743652, 4127.692383, 4142.563965, 4158.461426, 4154.871582, 4196.410156, 4162.051270, 4107.179199, 4148.717773, 4139.487305, 4107.692383, 3517.000000, 8290.000000, 8175.000000, 0.000000, 0.000000, 0.000000, 24834.000000, 61.025639, 4.000000, 4.000000, 4.000000, 4.000000, 4.000000, 4.000000, 4.000000, 4.000000, 4.000000, 4.000000, 4.000000, 4.000000, 4.000000, 4.000000, 4.000000, 4.000000
125.000000, 0.000000, 4107.179199, 4235.897461, 4127.692383, 4116.410156, 4115.897461, 4134.871582, 4147.179199, 4152.307617, 4188.717773, 4162.051270, 4101.538574, 4140.000000, 4135.897461, 4098.974121, 3450.000000, 8342.000000, 8196.000000, 0.000000, 0.000000, 0.000000, 24834.000000, 69.230766, 4.000000, 4.000000, 4.000000, 4.000000, 4.000000, 4.000000, 4.000000, 4.000000, 4.000000, 4.000000, 4.000000, 4.000000, 4.000000, 4.000000, 4.000000, 4.000000
126.000000, 0.000000, 4105.641113, 4247.692383, 4128.205078, 4122.051270, 4121.538574, 4132.820313, 4142.051270, 4151.281738, 4195.384277, 4161.538574, 4095.897217, 4139.487305, 4127.179199, 4089.230713, 3567.000000, 8342.000000, 8196.000000, 0.000000, 0.000000, 0.000000, 24834.000000, 76.923073, 4.000000, 4.000000, 4.000000, 4.000000, 4.000000, 4.000000, 4.000000, 4.000000, 4.000000, 4.000000, 4.000000, 4.000000, 4.000000, 4.000000, 4.000000, 4.000000
127.000000, 0.000000, 4099.487305, 4256.922852, 4128.205078, 4120.512695, 4120.000000, 4128.717773, 4141.538574, 4143.589844, 4198.461426, 4147.692383, 4082.051270, 4140.000000, 4108.717773, 4075.897217, 57.000000, 8369.000000, 8213.000000, 0.000000, 0.000000, 0.000000, 24834.000000, 84.615379, 4.000000, 4.000000, 4.000000, 4.000000, 4.000000, 4.000000, 4.000000, 4.000000, 4.000000, 4.000000, 4.000000, 4.000000, 4.000000, 4.000000, 4.000000, 4.000000
0.000000, 0.000000, 4090.256348, 4258.461426, 4121.538574, 4113.333008, 4106.666504, 4123.076660, 4136.410156, 4138.461426, 4195.384277, 4140.000000, 4074.358887, 4130.769043, 4093.845947, 4065.640869, 3008.000000, 8369.000000, 8213.000000, 0.000000, 0.000000, 0.000000, 24834.000000, 92.307693, 4.000000, 4.000000, 4.000000, 4.000000, 4.000000, 4.000000, 4.000000, 4.000000, 4.000000, 4.000000, 4.000000, 4.000000, 4.000000, 4.000000, 4.000000, 4.000000
1.000000, 0.000000, 4095.384521, 4273.333008, 4120.512695, 4119.487305, 4105.127930, 4122.051270, 4131.281738, 4143.076660, 4194.358887, 4143.076660, 4075.897217, 4126.153809, 4093.333252, 4065.128174, 3501.000000, 8399.000000, 8254.000000, 0.000000, 0.000000, 0.000000, 24834.000000, 100.512817, 4.000000, 4.000000, 4.000000, 4.000000, 4.000000, 4.000000, 4.000000, 4.000000, 4.000000, 4.000000, 4.000000, 4.000000, 4.000000, 4.000000, 4.000000, 4.000000
2.000000, 0.000000, 4101.538574, 4289.743652, 4120.512695, 4122.563965, 4112.307617, 4123.589844, 4130.769043, 4137.948730, 4191.794922, 4134.871582, 4066.666504, 4128.205078, 4087.179443, 4065.128174, 3511.000000, 8399.000000, 8254.000000, 0.000000, 0.000000, 0.000000, 24834.000000, 108.205124, 4.000000, 4.000000, 4.000000, 4.000000, 4.000000, 4.000000, 4.000000, 4.000000, 4.000000, 4.000000, 4.000000, 4.000000, 4.000000, 4.000000, 4.000000, 4.000000
3.000000, 0.000000, 4103.076660, 4300.000000, 4119.487305, 4120.512695, 4114.358887, 4124.102539, 4127.692383, 4118.461426, 4187.179199, 4122.051270, 4055.384521, 4124.615234, 4076.410156, 4064.615234, 2237.000000, 8412.000000, 8278.000000, 0.000000, 0.000000, 0.000000, 24834.000000, 115.897430, 4.000000, 4.000000, 4.000000, 4.000000, 4.000000, 4.000000, 4.000000, 4.000000, 4.000000, 4.000000, 4.000000, 4.000000, 4.000000, 4.000000, 4.000000, 4.000000
4.000000, 0.000000, 4104.615234, 4309.230469, 4124.615234, 4123.589844, 4112.307617, 4119.487305, 4123.589844, 4113.333008, 4187.692383, 4118.974121, 4056.923096, 4122.051270, 4073.333252, 4064.615234, 3517.000000, 8412.000000, 8278.000000, 0.000000, 0.000000, 0.000000, 24834.000000, 124.102562, 4.000000, 4.000000, 4.000000, 4.000000, 4.000000, 4.000000, 4.000000, 4.000000, 4.000000, 4.000000, 4.000000, 4.000000, 4.000000, 4.000000, 4.000000, 4.000000
5.000000, 0.000000, 4099.487305, 4311.794922, 4122.051270, 4121.025391, 4107.692383, 4111.794922, 4125.127930, 4122.051270, 4189.230469, 4123.076660, 4058.461426, 4121.538574, 4070.769043, 4063.076904, 3558.000000, 8424.000000, 8299.000000, 0.000000, 0.000000, 0.000000, 24834.000000, 131.794876, 4.000000, 4.000000, 4.000000, 4.000000, 4.000000, 4.000000, 4.000000, 4.000000, 4.000000, 4.000000, 4.000000, 4.000000, 4.000000, 4.000000, 4.000000, 4.000000
6.000000, 0.000000, 4096.410156, 4315.897461, 4116.922852, 4118.974121, 4103.589844, 4107.692383, 4121.538574, 4116.922852, 4193.333008, 4126.153809, 4055.897217, 4122.563965, 4075.384521, 4067.692139, 3408.000000, 8424.000000, 8299.000000, 0.000000, 0.000000, 0.000000, 24834.000000, 139.487183, 4.000000, 4.000000, 4.000000, 4.000000, 4.000000, 4.000000, 4.000000, 4.000000, 4.000000, 4.000000, 4.000000, 4.000000, 4.000000, 4.000000, 4.000000, 4.000000
7.000000, 0.000000, 4110.256348, 4328.205078, 4129.230469, 4127.179199, 4107.692383, 4108.717773, 4114.871582, 4105.127930, 4196.922852, 4125.127930, 4065.640869, 4134.358887, 4095.384521, 4084.615234, 3635.000000, 8420.000000, 8310.000000, 0.000000, 0.000000, 0.000000, 24834.000000, 147.692307, 4.000000, 4.000000, 4.000000, 4.000000, 4.000000, 4.000000, 4.000000, 4.000000, 4.000000, 4.000000, 4.000000, 4.000000, 4.000000, 4.000000, 4.000000, 4.000000
8.000000, 0.000000, 4123.076660, 4333.846191, 4137.948730, 4132.820313, 4122.051270, 4117.948730, 4116.410156, 4107.692383, 4196.410156, 4129.743652, 4076.410156, 4145.127930, 4107.179199, 4092.820313, 1032.000000, 8420.000000, 8310.000000, 0.000000, 0.000000, 0.000000, 24834.000000, 155.384613, 4.000000, 4.000000, 4.000000, 4.000000, 4.000000, 4.000000, 4.000000, 4.000000, 4.000000, 4.000000, 4.000000, 4.000000, 4.000000, 4.000000, 4.000000, 4.000000
9.000000, 0.000000, 4114.871582, 4331.281738, 4130.256348, 4125.127930, 4126.666504, 4123.589844, 4125.641113, 4115.384277, 4196.922852, 4135.897461, 4069.230713, 4134.871582, 4096.922852, 4083.589600, 3006.000000, 8411.000000, 8317.000000, 0.000000, 0.000000, 0.000000, 24834.000000, 163.076920, 4.000000, 4.000000, 4.000000, 4.000000, 4.000000, 4.000000, 4.000000, 4.000000, 4.000000, 4.000000, 4.000000, 4.000000, 4.000000, 4.000000, 4.000000, 4.000000
10.000000, 0.000000, 4106.153809, 4328.205078, 4129.743652, 4118.461426, 4113.333008, 4114.871582, 4124.102539, 4110.256348, 4192.307617, 4131.794922, 4058.461426, 4126.153809, 4086.153809, 4074.871582, 3765.000000, 8411.000000, 8317.000000, 0.000000, 0.000000, 0.000000, 24834.000000, 170.769226, 4.000000, 4.000000, 4.000000, 4.000000, 4.000000, 4.000000, 4.000000, 4.000000, 4.000000, 4.000000, 4.000000, 4.000000, 4.000000, 4.000000, 4.000000, 4.000000
11.000000, 0.000000, 4114.871582, 4327.179199, 4135.384277, 4129.743652, 4107.179199, 4105.641113, 4108.717773, 4097.948730, 4185.127930, 4122.563965, 4060.000000, 4134.871582, 4090.769043, 4079.487061, 3582.000000, 8388.000000, 8301.000000, 0.000000, 0.000000, 0.000000, 24834.000000, 178.974350, 4.000000, 4.000000, 4.000000, 4.000000, 4.000000, 4.000000, 4.000000, 4.000000, 4.000000, 4.000000, 4.000000, 4.000000, 4.000000, 4.000000, 4.000000, 4.000000
12.000000, 0.000000, 4126.153809, 4333.333008, 4135.897461, 4140.512695, 4116.922852, 4110.256348, 4107.692383, 4095.897217, 4190.256348, 4122.051270, 4062.563965, 4137.948730, 4101.538574, 4086.666504, 3732.000000, 8388.000000, 8301.000000, 0.000000, 0.000000, 0.000000, 24834.000000, 186.666656, 4.000000, 4.000000, 4.000000, 4.000000, 4.000000, 4.000000, 4.000000, 4.000000, 4.000000, 4.000000, 4.000000, 4.000000, 4.000000, 4.000000, 4.000000, 4.000000
13.000000, 0.000000, 4122.051270, 4329.230469, 4132.307617, 4128.205078, 4122.563965, 4119.487305, 4123.589844, 4105.641113, 4200.512695, 4124.615234, 4062.563965, 4132.820313, 4104.615234, 4086.153809, 3461.000000, 8377.000000, 8283.000000, 0.000000, 0.000000, 0.000000, 24834.000000, 194.871796, 4.000000, 4.000000, 4.000000, 4.000000, 4.000000, 4.000000, 4.000000, 4.000000, 4.000000, 4.000000, 4.000000, 4.000000, 4.000000, 4.000000, 4.000000, 4.000000
14.000000, 0.000000, 4115.384277, 4319.487305, 4129.230469, 4116.410156, 4123.589844, 4122.563965, 4125.127930, 4116.922852, 4200.000000, 4126.153809, 4067.179443, 4133.333008, 4107.179199, 4085.640869, 3765.000000, 8377.000000, 8283.000000, 0.000000, 0.000000, 0.000000, 24834.000000, 202.564102, 4.000000, 4.000000, 4.000000, 4.000000, 4.000000, 4.000000, 4.000000, 4.000000, 4.000000, 4.000000, 4.000000, 4.000000, 4.000000, 4.000000, 4.000000, 4.000000
15.000000, 0.000000, 4120.000000, 4324.615234, 4130.769043, 4131.794922, 4125.641113, 4122.051270, 4114.358887, 4126.666504, 4197.948730, 4135.384277, 4074.871582, 4137.436035, 4124.615234, 4096.410156, 3582.000000, 8355.000000, 8273.000000, 0.000000, 0.000000, 0.000000, 24834.000000, 210.256409, 4.000000, 4.000000, 4.000000, 4.000000, 4.000000, 4.000000, 4.000000, 4.000000, 4.000000, 4.000000, 4.000000, 4.000000, 4.000000, 4.000000, 4.000000, 4.000000
16.000000, 0.000000, 4124.102539, 4334.358887, 4134.871582, 4146.153809, 4126.666504, 4124.102539, 4126.153809, 4140.512695, 4202.051270, 4143.589844, 4086.153809, 4140.512695, 4145.127930, 4104.102539, 0.000000, 8355.000000, 8273.000000, 0.000000, 0.000000, 0.000000, 24834.000000, 217.948715, 4.000000, 4.000000, 4.000000, 4.000000, 4.000000, 4.000000, 4.000000, 4.000000, 4.000000, 4.000000, 4.000000, 4.000000, 4.000000, 4.000000, 4.000000, 4.000000
17.000000, 0.000000, 4117.948730, 4332.307617, 4131.794922, 4131.281738, 4125.127930, 4124.615234, 4138.461426, 4145.641113, 4204.615234, 4142.563965, 4091.794678, 4141.538574, 4148.205078, 4095.897217, 0.000000, 8323.000000, 8260.000000, 0.000000, 0.000000, 0.000000, 24834.000000, 226.153839, 4.000000, 4.000000, 4.000000, 4.000000, 4.000000, 4.000000, 4.000000, 4.000000, 4.000000, 4.000000, 4.000000, 4.000000, 4.000000, 4.000000, 4.000000, 4.000000
18.000000, 0.000000, 4107.179199, 4322.051270, 4120.000000, 4116.922852, 4125.641113, 4119.487305, 4124.102539, 4135.384277, 4199.487305, 4137.436035, 4083.589600, 4134.871582, 4145.641113, 4085.640869, 0.000000, 8323.000000, 8260.000000, 0.000000, 0.000000, 0.000000, 24834.000000, 233.846146, 4.000000, 4.000000, 4.000000, 4.000000, 4.000000, 4.000000, 4.000000, 4.000000, 4.000000, 4.000000, 4.000000, 4.000000, 4.000000, 4.000000, 4.000000, 4.000000
19.000000, 0.000000, 4108.205078, 4317.948730, 4118.461426, 4127.179199, 4125.127930, 4120.000000, 4123.076660, 4137.948730, 4198.461426, 4140.000000, 4083.076904, 4134.358887, 4157.948730, 4092.820313, 0.000000, 8306.000000, 8249.000000, 0.000000, 0.000000, 0.000000, 24834.000000, 241.538452, 4.000000, 4.000000, 4.000000, 4.000000, 4.000000, 4.000000, 4.000000, 4.000000, 4.000000, 4.000000, 4.000000, 4.000000, 4.000000, 4.000000, 4.000000, 4.000000
20.000000, 0.000000, 4117.948730, 4318.974121, 4128.205078, 4138.461426, 4122.563965, 4127.692383, 4140.512695, 4154.358887, 4203.076660, 4151.281738, 4095.384521, 4148.205078, 4176.410156, 4106.666504, 0.000000, 8306.000000, 8249.000000, 0.000000, 0.000000, 0.000000, 24834.000000, 249.743576, 4.000000, 4.000000, 4.000000, 4.000000, 4.000000, 4.000000, 4.000000, 4.000000, 4.000000, 4.000000, 4.000000, 4.000000, 4.000000, 4.000000, 4.000000, 4.000000
21.000000, 0.000000, 4122.051270, 4322.563965, 4131.794922, 4136.410156, 4126.666504, 4125.127930, 4140.000000, 4153.333008, 4201.025391, 4152.820313, 4096.922852, 4155.384277, 4186.666504, 4109.743652, 0.000000, 8283.000000, 8248.000000, 0.000000, 0.000000, 0.000000, 24834.000000, 257.435883, 4.000000, 4.000000, 4.000000, 4.000000, 4.000000, 4.000000, 4.000000, 4.000000, 4.000000, 4.000000, 4.000000, 4.000000, 4.000000, 4.000000, 4.000000, 4.000000
22.000000, 0.000000, 4124.615234, 4326.666504, 4132.820313, 4133.846191, 4134.358887, 4122.563965, 4134.871582, 4143.076660, 4197.948730, 4150.256348, 4097.436035, 4162.051270, 4196.410156, 4111.281738, 0.000000, 8283.000000, 8248.000000, 0.000000, 0.000000, 0.000000, 24834.000000, 265.128204, 4.000000, 4.000000, 4.000000, 4.000000, 4.000000, 4.000000, 4.000000, 4.000000, 4.000000, 4.000000, 4.000000, 4.000000, 4.000000, 4.000000, 4.000000, 4.000000
23.000000, 0.000000, 4135.897461, 4329.743652, 4142.051270, 4141.025391, 4141.538574, 4132.307617, 4146.666504, 4154.871582, 4202.051270, 4163.589844, 4118.974121, 4178.461426, 4229.743652, 4129.230469, 0.000000, 8269.000000, 8245.000000, 0.000000, 0.000000, 0.000000, 24834.000000, 272.820496, 4.000000, 4.000000, 4.000000, 4.000000, 4.000000, 4.000000, 4.000000, 4.000000, 4.000000, 4.000000, 4.000000, 4.000000, 4.000000, 4.000000, 4.000000, 4.000000
24.000000, 0.000000, 4153.333008, 4343.076660, 4155.897461, 4155.897461, 4150.769043, 4142.563965, 4155.897461, 4174.871582, 4205.127930, 4182.563965, 4139.487305, 4191.281738, 4263.076660, 4146.666504, 0.000000, 8269.000000, 8245.000000, 0.000000, 0.000000, 0.000000, 24834.000000, 281.025635, 4.000000, 4.000000, 4.000000, 4.000000, 4.000000, 4.000000, 4.000000, 4.000000, 4.000000, 4.000000, 4.000000, 4.000000, 4.000000, 4.000000, 4.000000, 4.000000
25.000000, 0.000000, 4152.820313, 4343.589844, 4160.000000, 4154.871582, 4150.256348, 4148.205078, 4161.025391, 4176.922852, 4202.563965, 4182.051270, 4135.897461, 4192.307617, 4256.922852, 4137.948730, 0.000000, 8256.000000, 8229.000000, 0.000000, 0.000000, 0.000000, 24834.000000, 288.717957, 4.000000, 4.000000, 4.000000, 4.000000, 4.000000, 4.000000, 4.000000, 4.000000, 4.000000, 4.000000, 4.000000, 4.000000, 4.000000, 4.000000, 4.000000, 4.000000
26.000000, 0.000000, 4141.538574, 4326.153809, 4153.333008, 4141.025391, 4144.102539, 4153.333008, 4167.692383, 4170.769043, 4200.000000, 4172.820313, 4123.589844, 4189.743652, 4254.871582, 4127.179199, 0.000000, 8256.000000, 8229.000000, 0.000000, 0.000000, 0.000000, 24834.000000, 296.410248, 4.000000, 4.000000, 4.000000, 4.000000, 4.000000, 4.000000, 4.000000, 4.000000, 4.000000, 4.000000, 4.000000, 4.000000, 4.000000, 4.000000, 4.000000, 4.000000
27.000000, 0.000000, 4146.666504, 4327.179199, 4154.871582, 4143.589844, 4148.717773, 4154.358887, 4163.076660, 4166.666504, 4199.487305, 4174.358887, 4125.127930, 4187.692383, 4289.743652, 4135.897461, 0.000000, 8249.000000, 8233.000000, 0.000000, 0.000000, 0.000000, 24834.000000, 304.615387, 4.000000, 4.000000, 4.000000, 4.000000, 4.000000, 4.000000, 4.000000, 4.000000, 4.000000, 4.000000, 4.000000, 4.000000, 4.000000, 4.000000, 4.000000, 4.000000
28.000000, 0.000000, 4162.563965, 4345.127930, 4164.615234, 4157.948730, 4153.333008, 4150.256348, 4149.743652, 4166.153809, 4201.538574, 4177.436035, 4137.436035, 4189.230469, 4316.922852, 4147.179199, 0.000000, 8249.000000, 8233.000000, 0.000000, 0.000000, 0.000000, 24834.000000, 312.307678, 4.000000, 4.000000, 4.000000, 4.000000, 4.000000, 4.000000, 4.000000, 4.000000, 4.000000, 4.000000, 4.000000, 4.000000, 4.000000, 4.000000, 4.000000, 4.000000
29.000000, 0.000000, 4158.461426, 4343.076660, 4162.563965, 4158.461426, 4143.589844, 4141.025391, 4140.512695, 4161.025391, 4201.025391, 4169.230469, 4142.051270, 4186.153809, 4311.794922, 4142.563965, 0.000000, 8246.000000, 8238.000000, 0.000000, 0.000000, 0.000000, 24834.000000, 320.512817, 4.000000, 4.000000, 4.000000, 4.000000, 4.000000, 4.000000, 4.000000, 4.000000, 4.000000, 4.000000, 4.000000, 4.000000, 4.000000, 4.000000, 4.000000, 4.000000
30.000000, 0.000000, 4141.538574, 4327.179199, 4150.769043, 4147.692383, 4136.410156, 4125.641113, 4134.358887, 4140.512695, 4191.794922, 4153.333008, 4117.436035, 4170.769043, 4297.948730, 4126.666504, 0.000000, 8246.000000, 8238.000000, 0.000000, 0.000000, 0.000000, 24834.000000, 328.205109, 4.000000, 4.000000, 4.000000, 4.000000, 4.000000, 4.000000, 4.000000, 4.000000, 4.000000, 4.000000, 4.000000, 4.000000, 4.000000, 4.000000, 4.000000, 4.000000
31.000000, 0.000000, 4134.871582, 4324.102539, 4143.076660, 4135.897461, 4136.922852, 4124.102539, 4132.307617, 4124.102539, 4184.615234, 4145.641113, 4092.820313, 4163.589844, 4291.281738, 4116.410156, 0.000000, 8233.000000, 8232.000000, 0.000000, 0.000000, 0.000000, 24834.000000, 335.897430, 4.000000, 4.000000, 4.000000, 4.000000, 4.000000, 4.000000, 4.000000, 4.000000, 4.000000, 4.000000, 4.000000, 4.000000, 4.000000, 4.000000, 4.000000, 4.000000
32.000000, 0.000000, 4135.384277, 4326.153809, 4142.563965, 4132.820313, 4138.461426, 4136.922852, 4142.563965, 4135.897461, 4192.820313, 4150.769043, 4107.179199, 4168.717773, 4304.615234, 4119.487305, 0.000000, 8233.000000, 8232.000000, 0.000000, 0.000000, 0.000000, 24834.000000, 343.589722, 4.000000, 4.000000, 4.000000, 4.000000, 4.000000, 4.000000, 4.000000, 4.000000, 4.000000, 4.000000, 4.000000, 4.000000, 4.000000, 4.000000, 4.000000, 4.000000
33.000000, 0.000000, 4143.589844, 4325.641113, 4147.692383, 4150.769043, 4147.179199, 4141.538574, 4153.333008, 4152.820313, 4201.025391, 4156.922852, 4127.692383, 4174.358887, 4337.948730, 4133.333008, 0.000000, 8229.000000, 8226.000000, 0.000000, 0.000000, 0.000000, 24834.000000, 351.794861, 4.000000, 4.000000, 4.000000, 4.000000, 4.000000, 4.000000, 4.000000, 4.000000, 4.000000, 4.000000, 4.000000, 4.000000, 4.000000, 4.000000, 4.000000, 4.000000
34.000000, 0.000000, 4156.410156, 4328.205078, 4154.871582, 4157.948730, 4156.922852, 4144.615234, 4153.333008, 4155.897461, 4200.000000, 4155.897461, 4125.127930, 4181.025391, 4353.333008, 4141.538574, 0.000000, 8229.000000, 8226.000000, 0.000000, 0.000000, 0.000000, 24834.000000, 359.487183, 4.000000, 4.000000, 4.000000, 4.000000, 4.000000, 4.000000, 4.000000, 4.000000, 4.000000, 4.000000, 4.000000, 4.000000, 4.000000, 4.000000, 4.000000, 4.000000
35.000000, 0.000000, 4157.948730, 4331.794922, 4160.512695, 4148.205078, 4151.794922, 4151.281738, 4154.871582, 4158.974121, 4200.000000, 4155.384277, 4127.692383, 4187.692383, 4351.794922, 4136.410156, 0.000000, 8221.000000, 8230.000000, 0.000000, 0.000000, 0.000000, 24834.000000, 367.692291, 4.000000, 4.000000, 4.000000, 4.000000, 4.000000, 4.000000, 4.000000, 4.000000, 4.000000, 4.000000, 4.000000, 4.000000, 4.000000, 4.000000, 4.000000, 4.000000
36.000000, 0.000000, 4146.153809, 4323.589844, 4155.384277, 4145.641113, 4144.102539, 4148.205078, 4156.922852, 4161.025391, 4200.512695, 4157.436035, 4136.410156, 4183.589844, 4360.512695, 4128.717773, 0.000000, 8221.000000, 8230.000000, 0.000000, 0.000000, 0.000000, 24834.000000, 375.384613, 4.000000, 4.000000, 4.000000, 4.000000, 4.000000, 4.000000, 4.000000, 4.000000, 4.000000, 4.000000, 4.000000, 4.000000, 4.000000, 4.000000, 4.000000, 4.000000
37.000000, 0.000000, 4133.846191, 4312.307617, 4146.153809, 4137.948730, 4141.538574, 4138.974121, 4150.769043, 4153.333008, 4199.487305, 4151.794922, 4126.153809, 4175.897461, 4368.205078, 4124.615234, 0.000000, 8218.000000, 8227.000000, 0.000000, 0.000000, 0.000000, 24834.000000, 383.589722, 4.000000, 4.000000, 4.000000, 4.000000, 4.000000, 4.000000, 4.000000, 4.000000, 4.000000, 4.000000, 4.000000, 4.000000, 4.000000, 4.000000, 4.000000, 4.000000
38.000000, 0.000000, 4129.743652, 4315.384277, 4146.153809, 4121.538574, 4132.307617, 4137.948730, 4148.205078, 4150.769043, 4200.512695, 4147.179199, 4116.922852, 4173.333008, 4372.820313, 4120.000000, 0.000000, 8218.000000, 8227.000000, 0.000000, 0.000000, 0.000000, 24834.000000, 391.282043, 4.000000, 4.000000, 4.000000, 4.000000, 4.000000, 4.000000, 4.000000, 4.000000, 4.000000, 4.000000, 4.000000, 4.000000, 4.000000, 4.000000, 4.000000, 4.000000
39.000000, 0.000000, 4122.563965, 4327.179199, 4144.615234, 4117.436035, 4124.102539, 4137.436035, 4150.769043, 4151.281738, 4198.974121, 4139.487305, 4114.871582, 4166.666504, 4384.615234, 4111.281738, 0.000000, 8215.000000, 8218.000000, 0.000000, 0.000000, 0.000000, 24834.000000, 399.487183, 4.000000, 4.000000, 4.000000, 4.000000, 4.000000, 4.000000, 4.000000, 4.000000, 4.000000, 4.000000, 4.000000, 4.000000, 4.000000, 4.000000, 4.000000, 4.000000
40.000000, 0.000000, 4115.384277, 4335.897461, 4137.948730, 4124.615234, 4133.846191, 4133.846191, 4144.102539, 4148.205078, 4196.922852, 4127.179199, 4104.102539, 4156.410156, 4398.461426, 4106.153809, 0.000000, 8215.000000, 8218.000000, 0.000000, 0.000000, 0.000000, 24834.000000, 407.179474, 4.000000, 4.000000, 4.000000, 4.000000, 4.000000, 4.000000, 4.000000, 4.000000, 4.000000, 4.000000, 4.000000, 4.000000, 4.000000, 4.000000, 4.000000, 4.000000
41.000000, 0.000000, 4109.743652, 4347.692383, 4132.307617, 4126.666504, 4145.127930, 4135.384277, 4139.487305, 4156.410156, 4200.000000, 4132.307617, 4108.205078, 4148.717773, 4412.820313, 4106.666504, 0.000000, 8215.000000, 8206.000000, 0.000000, 0.000000, 0.000000, 24834.000000, 414.871796, 4.000000, 4.000000, 4.000000, 4.000000, 4.000000, 4.000000, 4.000000, 4.000000, 4.000000, 4.000000, 4.000000, 4.000000, 4.000000, 4.000000, 4.000000, 4.000000
42.000000, 0.000000, 4107.179199, 4372.307617, 4130.256348, 4125.127930, 4143.076660, 4135.384277, 4140.000000, 4157.436035, 4201.538574, 4141.025391, 4119.487305, 4141.538574, 4433.846191, 4106.153809, 0.000000, 8215.000000, 8206.000000, 0.000000, 0.000000, 0.000000, 24834.000000, 423.076904, 4.000000, 4.000000, 4.000000, 4.000000, 4.000000, 4.000000, 4.000000, 4.000000, 4.000000, 4.000000, 4.000000, 4.000000, 4.000000, 4.000000, 4.000000, 4.000000
43.000000, 0.000000, 4112.820313, 4395.384277, 4129.230469, 4132.820313, 4142.563965, 4128.717773, 4134.871582, 4141.025391, 4198.974121, 4134.871582, 4112.307617, 4140.000000, 4460.512695, 4105.641113, 0.000000, 8213.000000, 8201.000000, 0.000000, 0.000000, 0.000000, 24834.000000, 430.769226, 4.000000, 4.000000, 4.000000, 4.000000, 4.000000, 4.000000, 4.000000, 4.000000, 4.000000, 4.000000, 4.000000, 4.000000, 4.000000, 4.000000, 4.000000, 4.000000
44.000000, 0.000000, 4121.538574, 4411.281738, 4134.871582, 4145.127930, 4145.127930, 4123.589844, 4136.410156, 4146.666504, 4200.000000, 4134.871582, 4109.743652, 4150.769043, 4487.692383, 4111.281738, 0.000000, 8213.000000, 8201.000000, 0.000000, 0.000000, 0.000000, 24834.000000, 438.461517, 4.000000, 4.000000, 4.000000, 4.000000, 4.000000, 4.000000, 4.000000, 4.000000, 4.000000, 4.000000, 4.000000, 4.000000, 4.000000, 4.000000, 4.000000, 4.000000
45.000000, 0.000000, 4125.641113, 4435.897461, 4144.615234, 4147.692383, 4140.000000, 4118.974121, 4135.384277, 4155.384277, 4200.512695, 4142.563965, 4123.076660, 4155.897461, 4514.358887, 4115.384277, 0.000000, 8218.000000, 8182.000000, 0.000000, 0.000000, 0.000000, 24834.000000, 446.666656, 4.000000, 4.000000, 4.000000, 4.000000, 4.000000, 4.000000, 4.000000, 4.000000, 4.000000, 4.000000, 4.000000, 4.000000, 4.000000, 4.000000, 4.000000, 4.000000
46.000000, 0.000000, 4122.563965, 4458.461426, 4143.076660, 4138.974121, 4140.000000, 4117.948730, 4126.153809, 4141.538574, 4198.974121, 4142.563965, 4124.102539, 4151.794922, 4529.743652, 4112.820313, 0.000000, 8218.000000, 8182.000000, 0.000000, 0.000000, 0.000000, 24834.000000, 454.358978, 4.000000, 4.000000, 4.000000, 4.000000, 4.000000, 4.000000, 4.000000, 4.000000, 4.000000, 4.000000, 4.000000, 4.000000, 4.000000, 4.000000, 4.000000, 4.000000
47.000000, 0.000000, 4109.743652, 4463.589844, 4134.358887, 4131.281738, 4142.051270, 4118.461426, 4128.717773, 4135.384277, 4196.922852, 4135.384277, 4106.153809, 4149.743652, 4526.153809, 4102.563965, 0.000000, 8215.000000, 8166.000000, 0.000000, 0.000000, 0.000000, 24834.000000, 462.051270, 4.000000, 4.000000, 4.000000, 4.000000, 4.000000, 4.000000, 4.000000, 4.000000, 4.000000, 4.000000, 4.000000, 4.000000, 4.000000, 4.000000, 4.000000, 4.000000
48.000000, 0.000000, 4105.641113, 4474.358887, 4131.281738, 4130.256348, 4142.563965, 4120.512695, 4138.461426, 4143.589844, 4197.436035, 4128.205078, 4100.512695, 4148.717773, 4527.692383, 4097.436035, 0.000000, 8215.000000, 8166.000000, 0.000000, 0.000000, 0.000000, 24834.000000, 469.743591, 4.000000, 4.000000, 4.000000, 4.000000, 4.000000, 4.000000, 4.000000, 4.000000, 4.000000, 4.000000, 4.000000, 4.000000, 4.000000, 4.000000, 4.000000, 4.000000
49.000000, 0.000000, 4118.461426, 4500.000000, 4136.410156, 4137.948730, 4145.641113, 4123.589844, 4139.487305, 4143.589844, 4199.487305, 4126.153809, 4110.769043, 4151.281738, 4543.076660, 4105.127930, 0.000000, 8215.000000, 8154.000000, 0.000000, 0.000000, 0.000000, 24834.000000, 477.948700, 4.000000, 4.000000, 4.000000, 4.000000, 4.000000, 4.000000, 4.000000, 4.000000, 4.000000, 4.000000, 4.000000, 4.000000, 4.000000, 4.000000, 4.000000, 4.000000
50.000000, 0.000000, 4123.589844, 4518.974121, 4143.589844, 4146.153809, 4137.948730, 4118.461426, 4129.743652, 4134.358887, 4193.846191, 4124.102539, 4106.153809, 4156.410156, 4545.127930, 4105.641113, 0.000000, 8215.000000, 8154.000000, 0.000000, 0.000000, 0.000000, 24834.000000, 485.641022, 4.000000, 4.000000, 4.000000, 4.000000, 4.000000, 4.000000, 4.000000, 4.000000, 4.000000, 4.000000, 4.000000, 4.000000, 4.000000, 4.000000, 4.000000, 4.000000
51.000000, 0.000000, 4114.871582, 4514.358887, 4141.538574, 4142.051270, 4127.692383, 4108.717773, 4116.922852, 4126.666504, 4189.743652, 4114.871582, 4096.410156, 4155.384277, 4528.717773, 4097.948730, 0.000000, 8211.000000, 8147.000000, 0.000000, 0.000000, 0.000000, 24834.000000, 493.333313, 4.000000, 4.000000, 4.000000, 4.000000, 4.000000, 4.000000, 4.000000, 4.000000, 4.000000, 4.000000, 4.000000, 4.000000, 4.000000, 4.000000, 4.000000, 4.000000
52.000000, 0.000000, 4114.358887, 4511.794922, 4140.000000, 4135.897461, 4132.307617, 4105.641113, 4108.717773, 4122.563965, 4196.922852, 4109.230469, 4096.922852, 4152.820313, 4515.384277, 4094.871582, 0.000000, 8211.000000, 8147.000000, 0.000000, 0.000000, 0.000000, 24834.000000, 501.025635, 4.000000, 4.000000, 4.000000, 4.000000, 4.000000, 4.000000, 4.000000, 4.000000, 4.000000, 4.000000, 4.000000, 4.000000, 4.000000, 4.000000, 4.000000, 4.000000
53.000000, 0.000000, 4118.974121, 4526.666504, 4143.076660, 4135.384277, 4140.000000, 4105.641113, 4112.820313, 4120.512695, 4199.487305, 4108.717773, 4096.922852, 4154.871582, 4507.179199, 4094.358887, 0.000000, 8210.000000, 8131.000000, 0.000000, 0.000000, 0.000000, 24834.000000, 509.230743, 4.000000, 4.000000, 4.000000, 4.000000, 4.000000, 4.000000, 4.000000, 4.000000, 4.000000, 4.000000, 4.000000, 4.000000, 4.000000, 4.000000, 4.000000, 4.000000
54.000000, 0.000000, 4119.487305, 4538.974121, 4142.563965, 4135.384277, 4137.436035, 4111.794922, 4118.974121, 4119.487305, 4195.384277, 4110.769043, 4095.384521, 4157.436035, 4501.538574, 4097.948730, 0.000000, 8210.000000, 8131.000000, 0.000000, 0.000000, 0.000000, 24834.000000, 516.923035, 4.000000, 4.000000, 4.000000, 4.000000, 4.000000, 4.000000, 4.000000, 4.000000, 4.000000, 4.000000, 4.000000, 4.000000, 4.000000, 4.000000, 4.000000, 4.000000
55.000000, 0.000000, 4126.153809, 4548.717773, 4145.127930, 4144.615234, 4142.051270, 4121.025391, 4120.000000, 4125.127930, 4199.487305, 4122.563965, 4110.769043, 4162.051270, 4509.230469, 4111.281738, 0.000000, 8211.000000, 8114.000000, 0.000000, 0.000000, 0.000000, 24834.000000, 525.128174, 4.000000, 4.000000, 4.000000, 4.000000, 4.000000, 4.000000, 4.000000, 4.000000, 4.000000, 4.000000, 4.000000, 4.000000, 4.000000, 4.000000, 4.000000, 4.000000
56.000000, 0.000000, 4124.615234, 4556.410156, 4140.000000, 4144.102539, 4139.487305, 4114.871582, 4120.512695, 4127.179199, 4201.538574, 4124.615234, 4110.256348, 4157.436035, 4508.205078, 4106.153809, 0.000000, 8211.000000, 8114.000000, 0.000000, 0.000000, 0.000000, 24834.000000, 532.820496, 4.000000, 4.000000, 4.000000, 4.000000, 4.000000, 4.000000, 4.000000, 4.000000, 4.000000, 4.000000, 4.000000, 4.000000, 4.000000, 4.000000, 4.000000, 4.000000
57.000000, 0.000000, 4102.051270, 4542.051270, 4129.230469, 4126.666504, 4121.025391, 4108.205078, 4124.615234, 4126.153809, 4197.436035, 4107.692383, 4089.230713, 4148.717773, 4486.153809, 4081.025635, 0.000000, 8210.000000, 8110.000000, 0.000000, 0.000000, 0.000000, 24834.000000, 540.512817, 4.000000, 4.000000, 4.000000, 4.000000, 4.000000, 4.000000, 4.000000, 4.000000, 4.000000, 4.000000, 4.000000, 4.000000, 4.000000, 4.000000, 4.000000, 4.000000
58.000000, 0.000000, 4098.974121, 4534.871582, 4140.000000, 4134.871582, 4127.179199, 4119.487305, 4128.205078, 4140.512695, 4199.487305, 4114.871582, 4101.025391, 4160.000000, 4482.051270, 4086.153809, 0.000000, 8210.000000, 8110.000000, 0.000000, 0.000000, 0.000000, 24834.000000, 548.717957, 4.000000, 4.000000, 4.000000, 4.000000, 4.000000, 4.000000, 4.000000, 4.000000, 4.000000, 4.000000, 4.000000, 4.000000, 4.000000, 4.000000, 4.000000, 4.000000
59.000000, 0.000000, 4127.179199, 4567.179199, 4157.436035, 4162.051270, 4150.769043, 4122.563965, 4123.589844, 4153.333008, 4202.563965, 4142.563965, 4133.333008, 4175.897461, 4498.461426, 4113.333008, 0.000000, 8210.000000, 8113.000000, 0.000000, 0.000000, 0.000000, 24834.000000, 556.410217, 4.000000, 4.000000, 4.000000, 4.000000, 4.000000, 4.000000, 4.000000, 4.000000, 4.000000, 4.000000, 4.000000, 4.000000, 4.000000, 4.000000, 4.000000, 4.000000
60.000000, 0.000000, 4140.000000, 4587.692383, 4156.922852, 4160.512695, 4147.179199, 4112.307617, 4120.000000, 4144.615234, 4200.512695, 4141.025391, 4132.820313, 4171.794922, 4491.281738, 4116.922852, 0.000000, 8210.000000, 8113.000000, 0.000000, 0.000000, 0.000000, 24834.000000, 564.102539, 4.000000, 4.000000, 4.000000, 4.000000, 4.000000, 4.000000, 4.000000, 4.000000, 4.000000, 4.000000, 4.000000, 4.000000, 4.000000, 4.000000, 4.000000, 4.000000
61.000000, 0.000000, 4130.256348, 4574.871582, 4149.743652, 4150.256348, 4134.358887, 4109.230469, 4121.025391, 4135.897461, 4198.974121, 4120.512695, 4104.102539, 4164.615234, 4471.281738, 4106.153809, 0.000000, 8214.000000, 8120.000000, 0.000000, 0.000000, 0.000000, 24834.000000, 572.307678, 4.000000, 4.000000, 4.000000, 4.000000, 4.000000, 4.000000, 4.000000, 4.000000, 4.000000, 4.000000, 4.000000, 4.000000, 4.000000, 4.000000, 4.000000, 4.000000
62.000000, 0.000000, 4133.846191, 4584.102539, 4151.281738, 4164.615234, 4142.563965, 4115.897461, 4123.589844, 4141.025391, 4197.948730, 4123.076660, 4105.127930, 4169.743652, 4475.897461, 4108.717773, 0.000000, 8214.000000, 8120.000000, 0.000000, 0.000000, 0.000000, 24834.000000, 580.000000, 4.000000, 4.000000, 4.000000, 4.000000, 4.000000, 4.000000, 4.000000, 4.000000, 4.000000, 4.000000, 4.000000, 4.000000, 4.000000, 4.000000, 4.000000, 4.000000
63.000000, 0.000000, 4144.102539, 4608.205078, 4154.358887, 4169.743652, 4152.820313, 4126.153809, 4128.717773, 4144.102539, 4198.461426, 4133.846191, 4126.666504, 4168.717773, 4481.538574, 4115.384277, 0.000000, 8212.000000, 8124.000000, 0.000000, 0.000000, 0.000000, 24834.000000, 588.205139, 4.000000, 4.000000, 4.000000, 4.000000, 4.000000, 4.000000, 4.000000, 4.000000, 4.000000, 4.000000, 4.000000, 4.000000, 4.000000, 4.000000, 4.000000, 4.000000
64.000000, 0.000000, 4137.436035, 4605.641113, 4150.769043, 4167.179199, 4143.589844, 4123.076660, 4123.076660, 4134.358887, 4198.974121, 4121.538574, 4118.461426, 4157.948730, 4463.589844, 4109.743652, 3008.000000, 8212.000000, 8124.000000, 0.000000, 0.000000, 0.000000, 24834.000000, 595.897400, 4.000000, 4.000000, 4.000000, 4.000000, 4.000000, 4.000000, 4.000000, 4.000000, 4.000000, 4.000000, 4.000000, 4.000000, 4.000000, 4.000000, 4.000000, 4.000000
65.000000, 0.000000, 4126.153809, 4594.871582, 4144.615234, 4173.333008, 4129.743652, 4107.179199, 4114.871582, 4121.025391, 4197.436035, 4108.205078, 4092.307617, 4148.717773, 4455.384277, 4098.461426, 3473.000000, 8215.000000, 8131.000000, 0.000000, 0.000000, 0.000000, 24834.000000, 603.589722, 4.000000, 4.000000, 4.000000, 4.000000, 4.000000, 4.000000, 4.000000, 4.000000, 4.000000, 4.000000, 4.000000, 4.000000, 4.000000, 4.000000, 4.000000, 4.000000
66.000000, 0.000000, 4121.538574, 4591.794922, 4134.871582, 4162.051270, 4133.333008, 4111.794922, 4120.512695, 4124.102539, 4197.436035, 4115.897461, 4087.692139, 4142.563965, 4460.000000, 4090.769043, 3517.000000, 8215.000000, 8131.000000, 0.000000, 0.000000, 0.000000, 24834.000000, 611.794861, 4.000000, 4.000000, 4.000000, 4.000000, 4.000000, 4.000000, 4.000000, 4.000000, 4.000000, 4.000000, 4.000000, 4.000000, 4.000000, 4.000000, 4.000000, 4.000000
67.000000, 0.000000, 4117.948730, 4591.794922, 4129.743652, 4151.281738, 4142.563965, 4124.102539, 4126.666504, 4136.410156, 4200.512695, 4121.025391, 4095.384521, 4139.487305, 4459.487305, 4089.230713, 2206.000000, 8212.000000, 8138.000000, 0.000000, 0.000000, 0.000000, 24834.000000, 619.487183, 4.000000, 4.000000, 4.000000, 4.000000, 4.000000, 4.000000, 4.000000, 4.000000, 4.000000, 4.000000, 4.000000, 4.000000, 4.000000, 4.000000, 4.000000, 4.000000
68.000000, 0.000000, 4114.358887, 4598.461426, 4133.333008, 4166.666504, 4138.974121, 4113.333008, 4122.051270, 4133.846191, 4200.512695, 4106.153809, 4082.563965, 4136.410156, 4461.538574, 4085.128174, 3524.000000, 8212.000000, 8138.000000, 0.000000, 0.000000, 0.000000, 24834.000000, 627.179443, 4.000000, 4.000000, 4.000000, 4.000000, 4.000000, 4.000000, 4.000000, 4.000000, 4.000000, 4.000000, 4.000000, 4.000000, 4.000000, 4.000000, 4.000000, 4.000000
69.000000, 0.000000, 4111.281738, 4601.538574, 4129.743652, 4177.436035, 4136.922852, 4103.076660, 4113.846191, 4122.563965, 4196.410156, 4095.384521, 4077.435791, 4136.410156, 4473.333008, 4081.538330, 3562.000000, 8211.000000, 8151.000000, 0.000000, 0.000000, 0.000000, 24834.000000, 634.871765, 4.000000, 4.000000, 4.000000, 4.000000, 4.000000, 4.000000, 4.000000, 4.000000, 4.000000, 4.000000, 4.000000, 4.000000, 4.000000, 4.000000, 4.000000, 4.000000
70.000000, 0.000000, 4100.512695, 4585.641113, 4120.512695, 4163.589844, 4130.256348, 4106.666504, 4106.666504, 4120.000000, 4192.820313, 4094.358887, 4087.179443, 4136.410156, 4476.922852, 4080.000000, 3409.000000, 8211.000000, 8151.000000, 0.000000, 0.000000, 0.000000, 24834.000000, 643.076904, 4.000000, 4.000000, 4.000000, 4.000000, 4.000000, 4.000000, 4.000000, 4.000000, 4.000000, 4.000000, 4.000000, 4.000000, 4.000000, 4.000000, 4.000000, 4.000000
71.000000, 0.000000, 4092.820313, 4563.589844, 4123.076660, 4154.871582, 4115.897461, 4105.641113, 4110.769043, 4126.153809, 4196.410156, 4093.333252, 4085.128174, 4134.871582, 4473.333008, 4074.358887, 3576.000000, 8201.000000, 8157.000000, 0.000000, 0.000000, 0.000000, 24834.000000, 650.769226, 4.000000, 4.000000, 4.000000, 4.000000, 4.000000, 4.000000, 4.000000, 4.000000, 4.000000, 4.000000, 4.000000, 4.000000, 4.000000, 4.000000, 4.000000, 4.000000
72.000000, 0.000000, 4102.563965, 4573.846191, 4129.743652, 4164.102539, 4124.102539, 4106.153809, 4123.589844, 4128.717773, 4202.051270, 4099.487305, 4080.512695, 4140.000000, 4484.615234, 4080.512695, 1034.000000, 8201.000000, 8157.000000, 0.000000, 0.000000, 0.000000, 24834.000000, 658.461548, 4.000000, 4.000000, 4.000000, 4.000000, 4.000000, 4.000000, 4.000000, 4.000000, 4.000000, 4.000000, 4.000000, 4.000000, 4.000000, 4.000000, 4.000000, 4.000000
73.000000, 0.000000, 4113.333008, 4595.897461, 4129.230469, 4174.358887, 4143.076660, 4115.897461, 4122.051270, 4126.666504, 4195.897461, 4104.615234, 4088.717773, 4147.692383, 4492.307617, 4094.871582, 3016.000000, 8199.000000, 8161.000000, 0.000000, 0.000000, 0.000000, 24834.000000, 666.666626, 4.000000, 4.000000, 4.000000, 4.000000, 4.000000, 4.000000, 4.000000, 4.000000, 4.000000, 4.000000, 4.000000, 4.000000, 4.000000, 4.000000, 4.000000, 4.000000
74.000000, 0.000000, 4108.205078, 4580.512695, 4122.563965, 4173.333008, 4137.436035, 4122.563965, 4116.922852, 4128.717773, 4186.153809, 4095.384521, 4090.769043, 4145.127930, 4481.538574, 4089.230713, 3624.000000, 8199.000000, 8161.000000, 0.000000, 0.000000, 0.000000, 24834.000000, 674.358948, 4.000000, 4.000000, 4.000000, 4.000000, 4.000000, 4.000000, 4.000000, 4.000000, 4.000000, 4.000000, 4.000000, 4.000000, 4.000000, 4.000000, 4.000000, 4.000000
75.000000, 0.000000, 4094.871582, 4554.871582, 4116.410156, 4158.461426, 4125.127930, 4125.127930, 4134.358887, 4135.897461, 4191.281738, 4084.615234, 4074.358887, 4138.461426, 4473.333008, 4071.794678, 3587.000000, 8203.000000, 8167.000000, 0.000000, 0.000000, 0.000000, 24834.000000, 682.051270, 4.000000, 4.000000, 4.000000, 4.000000, 4.000000, 4.000000, 4.000000, 4.000000, 4.000000, 4.000000, 4.000000, 4.000000, 4.000000, 4.000000, 4.000000, 4.000000
76.000000, 0.000000, 4089.230713, 4551.281738, 4115.384277, 4153.846191, 4126.153809, 4126.153809, 4145.127930, 4145.127930, 4202.563965, 4090.769043, 4075.897217, 4140.512695, 4477.948730, 4070.769043, 3604.000000, 8203.000000, 8167.000000, 0.000000, 0.000000, 0.000000, 24834.000000, 689.743591, 4.000000, 4.000000, 4.000000, 4.000000, 4.000000, 4.000000, 4.000000, 4.000000, 4.000000, 4.000000, 4.000000, 4.000000, 4.000000, 4.000000, 4.000000, 4.000000
77.000000, 0.000000, 4097.948730, 4556.410156, 4120.000000, 4173.846191, 4127.692383, 4120.512695, 4129.743652, 4154.358887, 4202.563965, 4105.127930, 4095.384521, 4148.205078, 4486.153809, 4083.076904, 3464.000000, 8200.000000, 8170.000000, 0.000000, 0.000000, 0.000000, 24834.000000, 697.948730, 4.000000, 4.000000, 4.000000, 4.000000, 4.000000, 4.000000, 4.000000, 4.000000, 4.000000, 4.000000, 4.000000, 4.000000, 4.000000, 4.000000, 4.000000, 4.000000
78.000000, 0.000000, 4108.205078, 4547.179199, 4127.692383, 4191.794922, 4119.487305, 4108.717773, 4118.461426, 4157.436035, 4197.436035, 4109.743652, 4094.358887, 4150.256348, 4487.692383, 4088.205078, 3624.000000, 8200.000000, 8170.000000, 0.000000, 0.000000, 0.000000, 24834.000000, 705.640991, 4.000000, 4.000000, 4.000000, 4.000000, 4.000000, 4.000000, 4.000000, 4.000000, 4.000000, 4.000000, 4.000000, 4.000000, 4.000000, 4.000000, 4.000000, 4.000000
79.000000, 0.000000, 4107.692383, 4534.358887, 4129.230469, 4186.666504, 4112.820313, 4104.102539, 4124.102539, 4151.281738, 4196.922852, 4107.179199, 4094.871582, 4152.307617, 4493.333008, 4092.307617, 3587.000000, 8200.000000, 8175.000000, 0.000000, 0.000000, 0.000000, 24834.000000, 713.846130, 4.000000, 4.000000, 4.000000, 4.000000, 4.000000, 4.000000, 4.000000, 4.000000, 4.000000, 4.000000, 4.000000, 4.000000, 4.000000, 4.000000, 4.000000, 4.000000
80.000000, 0.000000, 4109.230469, 4534.358887, 4131.281738, 4177.948730, 4120.000000, 4109.743652, 4128.205078, 4152.820313, 4200.512695, 4113.846191, 4121.538574, 4158.974121, 4504.615234, 4107.179199, 3604.000000, 8200.000000, 8175.000000, 0.000000, 0.000000, 0.000000, 24834.000000, 721.538452, 4.000000, 4.000000, 4.000000, 4.000000, 4.000000, 4.000000, 4.000000, 4.000000, 4.000000, 4.000000, 4.000000, 4.000000, 4.000000, 4.000000, 4.000000, 4.000000
81.000000, 0.000000, 4111.281738, 4531.794922, 4130.256348, 4182.051270, 4121.025391, 4104.615234, 4123.076660, 4154.358887, 4201.025391, 4116.922852, 4122.563965, 4154.358887, 4496.922852, 4108.717773, 3464.000000, 8205.000000, 8181.000000, 0.000000, 0.000000, 0.000000, 24834.000000, 729.230774, 4.000000, 4.000000, 4.000000, 4.000000, 4.000000, 4.000000, 4.000000, 4.000000, 4.000000, 4.000000, 4.000000, 4.000000, 4.000000, 4.000000, 4.000000, 4.000000
82.000000, 0.000000, 4097.948730, 4516.922852, 4117.436035, 4180.000000, 4102.051270, 4089.743408, 4109.743652, 4141.538574, 4192.820313, 4098.461426, 4085.640869, 4136.922852, 4475.384277, 4087.179443, 3624.000000, 8205.000000, 8181.000000, 0.000000, 0.000000, 0.000000, 24834.000000, 737.435852, 4.000000, 4.000000, 4.000000, 4.000000, 4.000000, 4.000000, 4.000000, 4.000000, 4.000000, 4.000000, 4.000000, 4.000000, 4.000000, 4.000000, 4.000000, 4.000000
83.000000, 0.000000, 4089.743408, 4506.666504, 4114.358887, 4172.820313, 4101.538574, 4089.230713, 4100.512695, 4133.333008, 4192.307617, 4090.256348, 4076.923096, 4133.846191, 4465.641113, 4078.461426, 3587.000000, 8207.000000, 8191.000000, 0.000000, 0.000000, 0.000000, 24834.000000, 745.640991, 4.000000, 4.000000, 4.000000, 4.000000, 4.000000, 4.000000, 4.000000, 4.000000, 4.000000, 4.000000, 4.000000, 4.000000, 4.000000, 4.000000, 4.000000, 4.000000
84.000000, 0.000000, 4106.666504, 4502.563965, 4127.179199, 4200.512695, 4122.051270, 4097.948730, 4102.051270, 4132.307617, 4196.410156, 4095.897217, 4094.871582, 4141.538574, 4465.641113, 4092.307617, 3604.000000, 8207.000000, 8191.000000, 0.000000, 0.000000, 0.000000, 24834.000000, 753.333313, 4.000000, 4.000000, 4.000000, 4.000000, 4.000000, 4.000000, 4.000000, 4.000000, 4.000000, 4.000000, 4.000000, 4.000000, 4.000000, 4.000000, 4.000000, 4.000000
85.000000, 0.000000, 4110.256348, 4500.000000, 4124.615234, 4223.076660, 4126.666504, 4095.897217, 4097.948730, 4122.051270, 4191.794922, 4086.153809, 4091.794678, 4131.794922, 4446.666504, 4091.281982, 3464.000000, 8217.000000, 8190.000000, 0.000000, 0.000000, 0.000000, 24834.000000, 761.025635, 4.000000, 4.000000, 4.000000, 4.000000, 4.000000, 4.000000, 4.000000, 4.000000, 4.000000, 4.000000, 4.000000, 4.000000, 4.000000, 4.000000, 4.000000, 4.000000
86.000000, 0.000000, 4078.974365, 4495.384277, 4093.333252, 4183.589844, 4119.487305, 4088.717773, 4092.307617, 4114.871582, 4191.794922, 4075.897217, 4073.845947, 4114.871582, 4423.076660, 4068.205078, 3624.000000, 8217.000000, 8190.000000, 0.000000, 0.000000, 0.000000, 24834.000000, 769.230774, 4.000000, 4.000000, 4.000000, 4.000000, 4.000000, 4.000000, 4.000000, 4.000000, 4.000000, 4.000000, 4.000000, 4.000000, 4.000000, 4.000000, 4.000000, 4.000000
87.000000, 0.000000, 4063.589600, 4489.230469, 4077.948730, 4158.461426, 4121.538574, 4089.743408, 4098.974121, 4127.692383, 4199.487305, 4090.256348, 4074.358887, 4118.461426, 4429.230469, 4061.025635, 3587.000000, 8225.000000, 8186.000000, 0.000000, 0.000000, 0.000000, 24834.000000, 776.923035, 4.000000, 4.000000, 4.000000, 4.000000, 4.000000, 4.000000, 4.000000, 4.000000, 4.000000, 4.000000, 4.000000, 4.000000, 4.000000, 4.000000, 4.000000, 4.000000
88.000000, 0.000000, 4088.717773, 4495.384277, 4102.051270, 4204.615234, 4127.179199, 4098.461426, 4110.769043, 4146.666504, 4200.512695, 4107.179199, 4098.461426, 4142.051270, 4450.256348, 4085.128174, 3604.000000, 8225.000000, 8186.000000, 0.000000, 0.000000, 0.000000, 24834.000000, 785.128174, 4.000000, 4.000000, 4.000000, 4.000000, 4.000000, 4.000000, 4.000000, 4.000000, 4.000000, 4.000000, 4.000000, 4.000000, 4.000000, 4.000000, 4.000000, 4.000000
89.000000, 0.000000, 4102.051270, 4493.846191, 4120.512695, 4225.641113, 4120.512695, 4104.615234, 4122.051270, 4154.358887, 4197.948730, 4105.641113, 4113.846191, 4157.436035, 4449.743652, 4101.025391, 3464.000000, 8235.000000, 8195.000000, 0.000000, 0.000000, 0.000000, 24834.000000, 792.820496, 4.000000, 4.000000, 4.000000, 4.000000, 4.000000, 4.000000, 4.000000, 4.000000, 4.000000, 4.000000, 4.000000, 4.000000, 4.000000, 4.000000, 4.000000, 4.000000
90.000000, 0.000000, 4091.281982, 4481.025391, 4122.051270, 4195.897461, 4110.256348, 4109.230469, 4132.820313, 4155.384277, 4200.512695, 4105.641113, 4102.563965, 4153.846191, 4441.538574, 4094.358887, 3624.000000, 8235.000000, 8195.000000, 0.000000, 0.000000, 0.000000, 24834.000000, 801.025635, 4.000000, 4.000000, 4.000000, 4.000000, 4.000000, 4.000000, 4.000000, 4.000000, 4.000000, 4.000000, 4.000000, 4.000000, 4.000000, 4.000000, 4.000000, 4.000000
91.000000, 0.000000, 4097.948730, 4489.230469, 4131.794922, 4206.153809, 4110.256348, 4109.743652, 4130.769043, 4154.358887, 4198.974121, 4112.307617, 4108.205078, 4152.307617, 4445.641113, 4098.974121, 3587.000000, 8239.000000, 8197.000000, 0.000000, 0.000000, 0.000000, 24834.000000, 808.717957, 4.000000, 4.000000, 4.000000, 4.000000, 4.000000, 4.000000, 4.000000, 4.000000, 4.000000, 4.000000, 4.000000, 4.000000, 4.000000, 4.000000, 4.000000, 4.000000
