title:neutral34, recorded:23.05.18 21.28.58, timestamp started:2018-05-23T14:18:30.888274+02:00            , sampling:128, subject:Noé, labels:COUNTER INTERPOLATED AF3 F7 F3 FC5 T7 P7 O1 O2 P8 T8 FC6 F4 F8 AF4 RAW_CQ GYROX GYROY MARKER MARKER_HARDWARE SYNC TIME_STAMP_s TIME_STAMP_ms CQ_AF3 CQ_F7 CQ_F3 CQ_FC5 CQ_T7 CQ_P7 CQ_O1 CQ_O2 CQ_P8 CQ_T8 CQ_FC6 CQ_F4 CQ_F8 CQ_AF4 CQ_CMS CQ_DRL, chan:40, samples:2711, units:emotiv
40.000000, 0.000000, 4189.230469, 4185.127930, 4193.333008, 4190.769043, 4187.179199, 4202.051270, 4206.153809, 4214.871582, 4186.666504, 4205.127930, 4186.153809, 4193.846191, 4200.000000, 4185.127930, 0.000000, 8247.000000, 8066.000000, 0.000000, 0.000000, 0.000000, 25828.000000, 531.282043, 4.000000, 4.000000, 4.000000, 4.000000, 4.000000, 4.000000, 4.000000, 4.000000, 4.000000, 4.000000, 4.000000, 4.000000, 4.000000, 4.000000, 4.000000, 4.000000
41.000000, 0.000000, 4185.127930, 4180.000000, 4190.769043, 4188.717773, 4192.820313, 4203.076660, 4202.563965, 4215.897461, 4188.205078, 4203.076660, 4185.127930, 4193.846191, 4196.922852, 4182.563965, 0.000000, 8269.000000, 8051.000000, 0.000000, 0.000000, 0.000000, 25828.000000, 538.974365, 4.000000, 4.000000, 4.000000, 4.000000, 4.000000, 4.000000, 4.000000, 4.000000, 4.000000, 4.000000, 4.000000, 4.000000, 4.000000, 4.000000, 4.000000, 4.000000
42.000000, 0.000000, 4181.538574, 4174.358887, 4183.589844, 4182.563965, 4185.127930, 4188.205078, 4198.461426, 4198.974121, 4183.589844, 4204.102539, 4182.563965, 4188.717773, 4187.692383, 4178.461426, 0.000000, 8269.000000, 8051.000000, 0.000000, 0.000000, 0.000000, 25828.000000, 547.179443, 4.000000, 4.000000, 4.000000, 4.000000, 4.000000, 4.000000, 4.000000, 4.000000, 4.000000, 4.000000, 4.000000, 4.000000, 4.000000, 4.000000, 4.000000, 4.000000
43.000000, 0.000000, 4182.051270, 4175.897461, 4187.179199, 4184.102539, 4175.897461, 4177.948730, 4201.025391, 4191.794922, 4179.487305, 4212.820313, 4181.538574, 4188.717773, 4189.743652, 4177.436035, 0.000000, 8308.000000, 8007.000000, 0.000000, 0.000000, 0.000000, 25828.000000, 554.871765, 4.000000, 4.000000, 4.000000, 4.000000, 4.000000, 4.000000, 4.000000, 4.000000, 4.000000, 4.000000, 4.000000, 4.000000, 4.000000, 4.000000, 4.000000, 4.000000
44.000000, 0.000000, 4182.563965, 4176.922852, 4190.256348, 4183.589844, 4178.974121, 4187.692383, 4205.641113, 4204.102539, 4183.589844, 4216.922852, 4183.076660, 4194.871582, 4193.846191, 4182.051270, 0.000000, 8308.000000, 8007.000000, 0.000000, 0.000000, 0.000000, 25828.000000, 563.076904, 4.000000, 4.000000, 4.000000, 4.000000, 4.000000, 4.000000, 4.000000, 4.000000, 4.000000, 4.000000, 4.000000, 4.000000, 4.000000, 4.000000, 4.000000, 4.000000
45.000000, 0.000000, 4178.974121, 4174.871582, 4187.179199, 4186.666504, 4183.589844, 4199.487305, 4211.281738, 4219.487305, 4192.820313, 4213.846191, 4184.615234, 4197.948730, 4191.281738, 4183.076660, 0.000000, 8323.000000, 7991.000000, 0.000000, 0.000000, 0.000000, 25828.000000, 570.769226, 4.000000, 4.000000, 4.000000, 4.000000, 4.000000, 4.000000, 4.000000, 4.000000, 4.000000, 4.000000, 4.000000, 4.000000, 4.000000, 4.000000, 4.000000, 4.000000
46.000000, 0.000000, 4180.512695, 4180.000000, 4189.743652, 4188.205078, 4189.743652, 4204.102539, 4223.589844, 4218.461426, 4192.820313, 4218.461426, 4191.281738, 4201.538574, 4195.384277, 4185.127930, 0.000000, 8323.000000, 7991.000000, 0.000000, 0.000000, 0.000000, 25828.000000, 578.974365, 4.000000, 4.000000, 4.000000, 4.000000, 4.000000, 4.000000, 4.000000, 4.000000, 4.000000, 4.000000, 4.000000, 4.000000, 4.000000, 4.000000, 4.000000, 4.000000
47.000000, 0.000000, 4189.743652, 4189.230469, 4197.436035, 4192.307617, 4195.384277, 4205.641113, 4230.256348, 4213.846191, 4190.769043, 4229.743652, 4201.025391, 4214.358887, 4202.563965, 4194.358887, 0.000000, 8344.000000, 7972.000000, 0.000000, 0.000000, 0.000000, 25828.000000, 586.666626, 4.000000, 4.000000, 4.000000, 4.000000, 4.000000, 4.000000, 4.000000, 4.000000, 4.000000, 4.000000, 4.000000, 4.000000, 4.000000, 4.000000, 4.000000, 4.000000
48.000000, 0.000000, 4192.820313, 4187.179199, 4201.025391, 4194.871582, 4193.333008, 4204.102539, 4219.487305, 4217.436035, 4194.358887, 4236.922852, 4204.615234, 4221.025391, 4203.589844, 4198.461426, 0.000000, 8344.000000, 7972.000000, 0.000000, 0.000000, 0.000000, 25828.000000, 594.871765, 4.000000, 4.000000, 4.000000, 4.000000, 4.000000, 4.000000, 4.000000, 4.000000, 4.000000, 4.000000, 4.000000, 4.000000, 4.000000, 4.000000, 4.000000, 4.000000
49.000000, 0.000000, 4183.589844, 4178.461426, 4195.384277, 4186.666504, 4188.717773, 4202.563965, 4213.333008, 4216.922852, 4190.256348, 4235.384277, 4199.487305, 4211.281738, 4204.102539, 4191.281738, 0.000000, 8346.000000, 7964.000000, 0.000000, 0.000000, 0.000000, 25828.000000, 603.076904, 4.000000, 4.000000, 4.000000, 4.000000, 4.000000, 4.000000, 4.000000, 4.000000, 4.000000, 4.000000, 4.000000, 4.000000, 4.000000, 4.000000, 4.000000, 4.000000
50.000000, 0.000000, 4171.794922, 4167.179199, 4184.615234, 4182.563965, 4186.666504, 4201.538574, 4218.974121, 4209.230469, 4182.051270, 4224.615234, 4190.256348, 4201.538574, 4198.461426, 4184.615234, 0.000000, 8346.000000, 7964.000000, 0.000000, 0.000000, 0.000000, 25828.000000, 610.769226, 4.000000, 4.000000, 4.000000, 4.000000, 4.000000, 4.000000, 4.000000, 4.000000, 4.000000, 4.000000, 4.000000, 4.000000, 4.000000, 4.000000, 4.000000, 4.000000
51.000000, 0.000000, 4166.153809, 4158.974121, 4177.436035, 4176.410156, 4186.153809, 4195.897461, 4211.794922, 4201.025391, 4183.589844, 4214.871582, 4184.615234, 4198.461426, 4187.692383, 4184.615234, 0.000000, 8331.000000, 7951.000000, 0.000000, 0.000000, 0.000000, 25828.000000, 618.974365, 4.000000, 4.000000, 4.000000, 4.000000, 4.000000, 4.000000, 4.000000, 4.000000, 4.000000, 4.000000, 4.000000, 4.000000, 4.000000, 4.000000, 4.000000, 4.000000
52.000000, 0.000000, 4171.281738, 4161.538574, 4176.922852, 4174.358887, 4185.127930, 4192.307617, 4196.410156, 4192.307617, 4184.615234, 4221.025391, 4188.717773, 4198.974121, 4188.717773, 4185.127930, 0.000000, 8331.000000, 7951.000000, 0.000000, 0.000000, 0.000000, 25828.000000, 626.666626, 4.000000, 4.000000, 4.000000, 4.000000, 4.000000, 4.000000, 4.000000, 4.000000, 4.000000, 4.000000, 4.000000, 4.000000, 4.000000, 4.000000, 4.000000, 4.000000
53.000000, 0.000000, 4180.512695, 4168.717773, 4185.641113, 4183.076660, 4187.179199, 4195.384277, 4201.025391, 4201.025391, 4184.102539, 4230.256348, 4198.974121, 4207.179199, 4198.974121, 4192.820313, 0.000000, 8284.000000, 7918.000000, 0.000000, 0.000000, 0.000000, 25828.000000, 634.871765, 4.000000, 4.000000, 4.000000, 4.000000, 4.000000, 4.000000, 4.000000, 4.000000, 4.000000, 4.000000, 4.000000, 4.000000, 4.000000, 4.000000, 4.000000, 4.000000
54.000000, 0.000000, 4181.025391, 4172.307617, 4194.871582, 4183.076660, 4188.205078, 4199.487305, 4210.769043, 4218.974121, 4194.358887, 4226.666504, 4203.589844, 4213.333008, 4200.512695, 4196.922852, 0.000000, 8284.000000, 7918.000000, 0.000000, 0.000000, 0.000000, 25828.000000, 642.564087, 4.000000, 4.000000, 4.000000, 4.000000, 4.000000, 4.000000, 4.000000, 4.000000, 4.000000, 4.000000, 4.000000, 4.000000, 4.000000, 4.000000, 4.000000, 4.000000
55.000000, 0.000000, 4176.922852, 4168.717773, 4198.974121, 4184.615234, 4190.769043, 4199.487305, 4204.102539, 4210.769043, 4198.461426, 4216.410156, 4198.461426, 4206.666504, 4190.769043, 4187.179199, 0.000000, 8254.000000, 7909.000000, 0.000000, 0.000000, 0.000000, 25828.000000, 650.769226, 4.000000, 4.000000, 4.000000, 4.000000, 4.000000, 4.000000, 4.000000, 4.000000, 4.000000, 4.000000, 4.000000, 4.000000, 4.000000, 4.000000, 4.000000, 4.000000
56.000000, 0.000000, 4176.922852, 4166.666504, 4196.922852, 4185.127930, 4200.000000, 4205.127930, 4195.897461, 4187.179199, 4186.666504, 4209.230469, 4190.256348, 4198.461426, 4186.153809, 4181.538574, 0.000000, 8254.000000, 7909.000000, 0.000000, 0.000000, 0.000000, 25828.000000, 658.461548, 4.000000, 4.000000, 4.000000, 4.000000, 4.000000, 4.000000, 4.000000, 4.000000, 4.000000, 4.000000, 4.000000, 4.000000, 4.000000, 4.000000, 4.000000, 4.000000
57.000000, 0.000000, 4176.922852, 4169.743652, 4192.307617, 4183.076660, 4195.384277, 4209.743652, 4199.487305, 4187.692383, 4177.436035, 4202.051270, 4188.717773, 4196.410156, 4189.230469, 4182.563965, 0.000000, 8189.000000, 7896.000000, 0.000000, 0.000000, 0.000000, 25828.000000, 666.666626, 4.000000, 4.000000, 4.000000, 4.000000, 4.000000, 4.000000, 4.000000, 4.000000, 4.000000, 4.000000, 4.000000, 4.000000, 4.000000, 4.000000, 4.000000, 4.000000
58.000000, 0.000000, 4170.256348, 4170.256348, 4187.179199, 4185.641113, 4185.641113, 4204.102539, 4200.512695, 4201.025391, 4181.538574, 4187.179199, 4182.563965, 4190.256348, 4179.487305, 4172.307617, 0.000000, 8189.000000, 7896.000000, 0.000000, 0.000000, 0.000000, 25828.000000, 674.358948, 4.000000, 4.000000, 4.000000, 4.000000, 4.000000, 4.000000, 4.000000, 4.000000, 4.000000, 4.000000, 4.000000, 4.000000, 4.000000, 4.000000, 4.000000, 4.000000
59.000000, 0.000000, 4158.974121, 4159.487305, 4186.153809, 4181.538574, 4192.820313, 4204.615234, 4201.025391, 4197.948730, 4188.717773, 4175.897461, 4166.153809, 4182.051270, 4152.820313, 4152.307617, 0.000000, 8155.000000, 7880.000000, 0.000000, 0.000000, 0.000000, 25828.000000, 682.564087, 4.000000, 4.000000, 4.000000, 4.000000, 4.000000, 4.000000, 4.000000, 4.000000, 4.000000, 4.000000, 4.000000, 4.000000, 4.000000, 4.000000, 4.000000, 4.000000
60.000000, 0.000000, 4155.384277, 4151.281738, 4186.153809, 4181.538574, 4202.051270, 4206.666504, 4206.153809, 4184.615234, 4185.127930, 4174.358887, 4162.563965, 4184.102539, 4148.205078, 4145.641113, 0.000000, 8155.000000, 7880.000000, 0.000000, 0.000000, 0.000000, 25828.000000, 690.256409, 4.000000, 4.000000, 4.000000, 4.000000, 4.000000, 4.000000, 4.000000, 4.000000, 4.000000, 4.000000, 4.000000, 4.000000, 4.000000, 4.000000, 4.000000, 4.000000
61.000000, 0.000000, 4159.487305, 4161.538574, 4180.512695, 4182.051270, 4199.487305, 4199.487305, 4201.025391, 4185.127930, 4175.384277, 4174.358887, 4176.410156, 4187.179199, 4172.820313, 4160.512695, 0.000000, 8126.000000, 7858.000000, 0.000000, 0.000000, 0.000000, 25828.000000, 698.461548, 4.000000, 4.000000, 4.000000, 4.000000, 4.000000, 4.000000, 4.000000, 4.000000, 4.000000, 4.000000, 4.000000, 4.000000, 4.000000, 4.000000, 4.000000, 4.000000
62.000000, 0.000000, 4165.641113, 4172.820313, 4176.410156, 4181.025391, 4198.461426, 4191.794922, 4187.179199, 4191.794922, 4171.281738, 4174.358887, 4186.153809, 4184.615234, 4189.230469, 4172.820313, 0.000000, 8126.000000, 7858.000000, 0.000000, 0.000000, 0.000000, 25828.000000, 706.153809, 4.000000, 4.000000, 4.000000, 4.000000, 4.000000, 4.000000, 4.000000, 4.000000, 4.000000, 4.000000, 4.000000, 4.000000, 4.000000, 4.000000, 4.000000, 4.000000
63.000000, 0.000000, 4167.179199, 4168.717773, 4180.512695, 4184.102539, 4198.461426, 4197.948730, 4192.820313, 4189.230469, 4174.871582, 4176.922852, 4190.256348, 4191.281738, 4196.922852, 4176.410156, 0.000000, 8097.000000, 7830.000000, 0.000000, 0.000000, 0.000000, 25828.000000, 714.358948, 4.000000, 4.000000, 4.000000, 4.000000, 4.000000, 4.000000, 4.000000, 4.000000, 4.000000, 4.000000, 4.000000, 4.000000, 4.000000, 4.000000, 4.000000, 4.000000
64.000000, 0.000000, 4170.769043, 4168.717773, 4185.641113, 4180.000000, 4198.461426, 4204.102539, 4202.051270, 4194.871582, 4187.692383, 4188.717773, 4201.025391, 4205.641113, 4217.436035, 4189.743652, 3492.000000, 8097.000000, 7830.000000, 0.000000, 0.000000, 0.000000, 25828.000000, 722.051270, 4.000000, 4.000000, 4.000000, 4.000000, 4.000000, 4.000000, 4.000000, 4.000000, 4.000000, 4.000000, 4.000000, 4.000000, 4.000000, 4.000000, 4.000000, 4.000000
65.000000, 0.000000, 4178.461426, 4174.871582, 4185.127930, 4183.076660, 4202.051270, 4202.051270, 4193.846191, 4207.179199, 4202.051270, 4205.641113, 4212.820313, 4211.281738, 4236.922852, 4202.051270, 2279.000000, 8092.000000, 7831.000000, 0.000000, 0.000000, 0.000000, 25828.000000, 730.256409, 4.000000, 4.000000, 4.000000, 4.000000, 4.000000, 4.000000, 4.000000, 4.000000, 4.000000, 4.000000, 4.000000, 4.000000, 4.000000, 4.000000, 4.000000, 4.000000
66.000000, 0.000000, 4179.487305, 4169.230469, 4184.102539, 4185.127930, 4202.563965, 4202.051270, 4191.794922, 4210.769043, 4204.102539, 4215.897461, 4218.974121, 4211.281738, 4246.153809, 4203.589844, 3136.000000, 8092.000000, 7831.000000, 0.000000, 0.000000, 0.000000, 25828.000000, 737.948669, 4.000000, 4.000000, 4.000000, 4.000000, 4.000000, 4.000000, 4.000000, 4.000000, 4.000000, 4.000000, 4.000000, 4.000000, 4.000000, 4.000000, 4.000000, 4.000000
67.000000, 0.000000, 4175.897461, 4160.000000, 4183.076660, 4176.922852, 4200.000000, 4203.589844, 4203.076660, 4198.461426, 4198.461426, 4215.897461, 4220.512695, 4209.230469, 4254.871582, 4205.641113, 3555.000000, 8097.000000, 7846.000000, 0.000000, 0.000000, 0.000000, 25828.000000, 746.153809, 4.000000, 4.000000, 4.000000, 4.000000, 4.000000, 4.000000, 4.000000, 4.000000, 4.000000, 4.000000, 4.000000, 4.000000, 4.000000, 4.000000, 4.000000, 4.000000
68.000000, 0.000000, 4168.717773, 4154.871582, 4181.025391, 4174.358887, 4196.922852, 4201.538574, 4206.666504, 4195.897461, 4199.487305, 4213.846191, 4216.410156, 4206.666504, 4252.820313, 4203.076660, 3526.000000, 8097.000000, 7846.000000, 0.000000, 0.000000, 0.000000, 25828.000000, 753.846130, 4.000000, 4.000000, 4.000000, 4.000000, 4.000000, 4.000000, 4.000000, 4.000000, 4.000000, 4.000000, 4.000000, 4.000000, 4.000000, 4.000000, 4.000000, 4.000000
69.000000, 0.000000, 4164.102539, 4151.281738, 4180.512695, 4170.256348, 4190.256348, 4202.563965, 4201.538574, 4208.717773, 4198.974121, 4215.897461, 4213.846191, 4208.205078, 4246.153809, 4197.948730, 3345.000000, 8106.000000, 7857.000000, 0.000000, 0.000000, 0.000000, 25828.000000, 762.051270, 4.000000, 4.000000, 4.000000, 4.000000, 4.000000, 4.000000, 4.000000, 4.000000, 4.000000, 4.000000, 4.000000, 4.000000, 4.000000, 4.000000, 4.000000, 4.000000
70.000000, 0.000000, 4166.153809, 4150.256348, 4182.051270, 4172.820313, 4191.281738, 4202.563965, 4203.589844, 4206.153809, 4192.820313, 4214.871582, 4213.333008, 4214.871582, 4248.717773, 4200.000000, 3487.000000, 8106.000000, 7857.000000, 0.000000, 0.000000, 0.000000, 25828.000000, 769.743591, 4.000000, 4.000000, 4.000000, 4.000000, 4.000000, 4.000000, 4.000000, 4.000000, 4.000000, 4.000000, 4.000000, 4.000000, 4.000000, 4.000000, 4.000000, 4.000000
71.000000, 0.000000, 4170.256348, 4153.846191, 4188.205078, 4180.512695, 4193.333008, 4196.922852, 4203.589844, 4196.922852, 4196.410156, 4215.897461, 4214.358887, 4219.487305, 4249.743652, 4204.615234, 3498.000000, 8137.000000, 7889.000000, 0.000000, 0.000000, 0.000000, 25828.000000, 777.948669, 4.000000, 4.000000, 4.000000, 4.000000, 4.000000, 4.000000, 4.000000, 4.000000, 4.000000, 4.000000, 4.000000, 4.000000, 4.000000, 4.000000, 4.000000, 4.000000
72.000000, 0.000000, 4171.281738, 4156.410156, 4194.358887, 4180.512695, 4190.769043, 4193.333008, 4197.948730, 4206.153809, 4202.563965, 4216.922852, 4217.436035, 4215.897461, 4250.769043, 4206.153809, 3348.000000, 8137.000000, 7889.000000, 0.000000, 0.000000, 0.000000, 25828.000000, 785.640991, 4.000000, 4.000000, 4.000000, 4.000000, 4.000000, 4.000000, 4.000000, 4.000000, 4.000000, 4.000000, 4.000000, 4.000000, 4.000000, 4.000000, 4.000000, 4.000000
73.000000, 0.000000, 4173.846191, 4154.871582, 4194.358887, 4181.538574, 4193.846191, 4198.974121, 4200.512695, 4220.000000, 4201.025391, 4216.922852, 4214.358887, 4211.281738, 4253.333008, 4202.563965, 3536.000000, 8158.000000, 7906.000000, 0.000000, 0.000000, 0.000000, 25828.000000, 793.846130, 4.000000, 4.000000, 4.000000, 4.000000, 4.000000, 4.000000, 4.000000, 4.000000, 4.000000, 4.000000, 4.000000, 4.000000, 4.000000, 4.000000, 4.000000, 4.000000
74.000000, 0.000000, 4178.461426, 4159.487305, 4196.410156, 4180.512695, 4206.153809, 4212.307617, 4207.692383, 4208.717773, 4195.897461, 4218.461426, 4212.820313, 4211.794922, 4255.384277, 4203.076660, 3319.000000, 8158.000000, 7906.000000, 0.000000, 0.000000, 0.000000, 25828.000000, 802.051270, 4.000000, 4.000000, 4.000000, 4.000000, 4.000000, 4.000000, 4.000000, 4.000000, 4.000000, 4.000000, 4.000000, 4.000000, 4.000000, 4.000000, 4.000000, 4.000000
75.000000, 0.000000, 4176.410156, 4162.051270, 4198.974121, 4182.051270, 4209.230469, 4220.000000, 4219.487305, 4196.922852, 4188.205078, 4217.948730, 4217.436035, 4216.410156, 4256.922852, 4209.230469, 3584.000000, 8183.000000, 7926.000000, 0.000000, 0.000000, 0.000000, 25828.000000, 809.743591, 4.000000, 4.000000, 4.000000, 4.000000, 4.000000, 4.000000, 4.000000, 4.000000, 4.000000, 4.000000, 4.000000, 4.000000, 4.000000, 4.000000, 4.000000, 4.000000
76.000000, 0.000000, 4170.769043, 4155.897461, 4190.256348, 4179.487305, 4203.076660, 4217.436035, 4221.538574, 4204.615234, 4184.615234, 4215.897461, 4212.307617, 4213.846191, 4252.820313, 4206.153809, 3524.000000, 8183.000000, 7926.000000, 0.000000, 0.000000, 0.000000, 25828.000000, 817.948669, 4.000000, 4.000000, 4.000000, 4.000000, 4.000000, 4.000000, 4.000000, 4.000000, 4.000000, 4.000000, 4.000000, 4.000000, 4.000000, 4.000000, 4.000000, 4.000000
77.000000, 0.000000, 4174.358887, 4159.487305, 4185.641113, 4175.384277, 4209.743652, 4211.794922, 4203.076660, 4200.512695, 4187.179199, 4218.974121, 4206.153809, 4212.820313, 4249.230469, 4200.000000, 3470.000000, 8237.000000, 7952.000000, 0.000000, 0.000000, 0.000000, 25828.000000, 825.640991, 4.000000, 4.000000, 4.000000, 4.000000, 4.000000, 4.000000, 4.000000, 4.000000, 4.000000, 4.000000, 4.000000, 4.000000, 4.000000, 4.000000, 4.000000, 4.000000
78.000000, 0.000000, 4179.487305, 4171.794922, 4196.410156, 4187.179199, 4215.384277, 4207.692383, 4192.307617, 4193.333008, 4184.615234, 4225.127930, 4212.307617, 4218.974121, 4256.410156, 4205.127930, 3319.000000, 8237.000000, 7952.000000, 0.000000, 0.000000, 0.000000, 25828.000000, 833.846130, 4.000000, 4.000000, 4.000000, 4.000000, 4.000000, 4.000000, 4.000000, 4.000000, 4.000000, 4.000000, 4.000000, 4.000000, 4.000000, 4.000000, 4.000000, 4.000000
79.000000, 0.000000, 4171.281738, 4169.743652, 4195.897461, 4184.615234, 4206.153809, 4203.589844, 4204.615234, 4208.717773, 4183.076660, 4224.102539, 4210.769043, 4213.333008, 4256.922852, 4200.512695, 3584.000000, 8263.000000, 7971.000000, 0.000000, 0.000000, 0.000000, 25828.000000, 841.538452, 4.000000, 4.000000, 4.000000, 4.000000, 4.000000, 4.000000, 4.000000, 4.000000, 4.000000, 4.000000, 4.000000, 4.000000, 4.000000, 4.000000, 4.000000, 4.000000
80.000000, 0.000000, 4163.589844, 4161.538574, 4185.641113, 4176.410156, 4198.461426, 4201.025391, 4206.666504, 4216.922852, 4186.666504, 4218.461426, 4197.948730, 4201.538574, 4243.589844, 4184.615234, 3524.000000, 8263.000000, 7971.000000, 0.000000, 0.000000, 0.000000, 25828.000000, 849.743591, 4.000000, 4.000000, 4.000000, 4.000000, 4.000000, 4.000000, 4.000000, 4.000000, 4.000000, 4.000000, 4.000000, 4.000000, 4.000000, 4.000000, 4.000000, 4.000000
81.000000, 0.000000, 4165.641113, 4166.666504, 4186.153809, 4178.974121, 4201.025391, 4201.025391, 4193.846191, 4196.410156, 4180.000000, 4218.461426, 4197.948730, 4200.512695, 4241.538574, 4183.589844, 3470.000000, 8325.000000, 8003.000000, 0.000000, 0.000000, 0.000000, 25828.000000, 857.435852, 4.000000, 4.000000, 4.000000, 4.000000, 4.000000, 4.000000, 4.000000, 4.000000, 4.000000, 4.000000, 4.000000, 4.000000, 4.000000, 4.000000, 4.000000, 4.000000
82.000000, 0.000000, 4164.102539, 4170.256348, 4182.051270, 4178.974121, 4206.153809, 4201.538574, 4205.641113, 4195.384277, 4175.897461, 4220.512695, 4204.615234, 4199.487305, 4250.256348, 4185.127930, 3319.000000, 8325.000000, 8003.000000, 0.000000, 0.000000, 0.000000, 25828.000000, 865.640991, 4.000000, 4.000000, 4.000000, 4.000000, 4.000000, 4.000000, 4.000000, 4.000000, 4.000000, 4.000000, 4.000000, 4.000000, 4.000000, 4.000000, 4.000000, 4.000000
83.000000, 0.000000, 4154.358887, 4158.974121, 4169.743652, 4180.000000, 4198.461426, 4205.641113, 4220.000000, 4215.384277, 4184.102539, 4222.051270, 4197.948730, 4192.307617, 4245.127930, 4171.794922, 3584.000000, 8344.000000, 8020.000000, 0.000000, 0.000000, 0.000000, 25828.000000, 873.333313, 4.000000, 4.000000, 4.000000, 4.000000, 4.000000, 4.000000, 4.000000, 4.000000, 4.000000, 4.000000, 4.000000, 4.000000, 4.000000, 4.000000, 4.000000, 4.000000
84.000000, 0.000000, 4148.717773, 4151.281738, 4166.153809, 4174.358887, 4188.717773, 4203.589844, 4203.589844, 4210.256348, 4181.025391, 4224.615234, 4188.205078, 4187.692383, 4235.384277, 4163.076660, 3524.000000, 8344.000000, 8020.000000, 0.000000, 0.000000, 0.000000, 25828.000000, 881.538452, 4.000000, 4.000000, 4.000000, 4.000000, 4.000000, 4.000000, 4.000000, 4.000000, 4.000000, 4.000000, 4.000000, 4.000000, 4.000000, 4.000000, 4.000000, 4.000000
85.000000, 0.000000, 4153.846191, 4160.000000, 4169.230469, 4172.307617, 4191.794922, 4200.512695, 4194.358887, 4195.897461, 4173.333008, 4229.743652, 4188.205078, 4187.692383, 4232.307617, 4167.179199, 3470.000000, 8364.000000, 8028.000000, 0.000000, 0.000000, 0.000000, 25828.000000, 889.230774, 4.000000, 4.000000, 4.000000, 4.000000, 4.000000, 4.000000, 4.000000, 4.000000, 4.000000, 4.000000, 4.000000, 4.000000, 4.000000, 4.000000, 4.000000, 4.000000
86.000000, 0.000000, 4158.461426, 4169.230469, 4172.307617, 4178.974121, 4202.051270, 4201.025391, 4208.717773, 4202.051270, 4181.538574, 4233.846191, 4192.307617, 4190.769043, 4233.846191, 4170.256348, 3319.000000, 8364.000000, 8028.000000, 0.000000, 0.000000, 0.000000, 25828.000000, 897.435852, 4.000000, 4.000000, 4.000000, 4.000000, 4.000000, 4.000000, 4.000000, 4.000000, 4.000000, 4.000000, 4.000000, 4.000000, 4.000000, 4.000000, 4.000000, 4.000000
87.000000, 0.000000, 4156.410156, 4171.794922, 4178.974121, 4178.461426, 4201.538574, 4194.358887, 4203.589844, 4205.127930, 4185.641113, 4232.820313, 4194.871582, 4190.256348, 4235.897461, 4168.717773, 3584.000000, 8391.000000, 8041.000000, 0.000000, 0.000000, 0.000000, 25828.000000, 905.128174, 4.000000, 4.000000, 4.000000, 4.000000, 4.000000, 4.000000, 4.000000, 4.000000, 4.000000, 4.000000, 4.000000, 4.000000, 4.000000, 4.000000, 4.000000, 4.000000
88.000000, 0.000000, 4160.000000, 4174.358887, 4185.641113, 4183.076660, 4196.410156, 4183.076660, 4181.025391, 4195.897461, 4177.948730, 4234.358887, 4195.897461, 4192.820313, 4237.436035, 4171.794922, 3524.000000, 8391.000000, 8041.000000, 0.000000, 0.000000, 0.000000, 25828.000000, 913.333313, 4.000000, 4.000000, 4.000000, 4.000000, 4.000000, 4.000000, 4.000000, 4.000000, 4.000000, 4.000000, 4.000000, 4.000000, 4.000000, 4.000000, 4.000000, 4.000000
89.000000, 0.000000, 4174.358887, 4184.615234, 4194.871582, 4186.666504, 4202.051270, 4184.615234, 4185.641113, 4201.025391, 4183.076660, 4246.666504, 4207.179199, 4207.179199, 4250.256348, 4188.205078, 3470.000000, 8392.000000, 8038.000000, 0.000000, 0.000000, 0.000000, 25828.000000, 921.025635, 4.000000, 4.000000, 4.000000, 4.000000, 4.000000, 4.000000, 4.000000, 4.000000, 4.000000, 4.000000, 4.000000, 4.000000, 4.000000, 4.000000, 4.000000, 4.000000
90.000000, 0.000000, 4182.563965, 4196.410156, 4205.127930, 4190.769043, 4208.717773, 4196.922852, 4208.717773, 4207.179199, 4191.281738, 4253.333008, 4218.461426, 4216.922852, 4264.615234, 4203.076660, 3319.000000, 8392.000000, 8038.000000, 0.000000, 0.000000, 0.000000, 25828.000000, 929.230774, 4.000000, 4.000000, 4.000000, 4.000000, 4.000000, 4.000000, 4.000000, 4.000000, 4.000000, 4.000000, 4.000000, 4.000000, 4.000000, 4.000000, 4.000000, 4.000000
91.000000, 0.000000, 4181.538574, 4201.538574, 4205.127930, 4196.922852, 4205.127930, 4202.563965, 4204.615234, 4190.256348, 4182.051270, 4249.743652, 4218.974121, 4214.871582, 4267.179199, 4204.615234, 3584.000000, 8391.000000, 8031.000000, 0.000000, 0.000000, 0.000000, 25828.000000, 936.923035, 4.000000, 4.000000, 4.000000, 4.000000, 4.000000, 4.000000, 4.000000, 4.000000, 4.000000, 4.000000, 4.000000, 4.000000, 4.000000, 4.000000, 4.000000, 4.000000
92.000000, 0.000000, 4185.641113, 4201.538574, 4197.948730, 4190.769043, 4203.076660, 4197.948730, 4183.589844, 4181.025391, 4172.820313, 4248.717773, 4216.922852, 4211.794922, 4260.512695, 4203.076660, 3524.000000, 8391.000000, 8031.000000, 0.000000, 0.000000, 0.000000, 25828.000000, 945.128174, 4.000000, 4.000000, 4.000000, 4.000000, 4.000000, 4.000000, 4.000000, 4.000000, 4.000000, 4.000000, 4.000000, 4.000000, 4.000000, 4.000000, 4.000000, 4.000000
93.000000, 0.000000, 4189.743652, 4199.487305, 4198.974121, 4189.230469, 4209.230469, 4190.769043, 4188.717773, 4191.281738, 4171.794922, 4243.076660, 4216.922852, 4214.358887, 4253.846191, 4204.102539, 3470.000000, 8375.000000, 8022.000000, 0.000000, 0.000000, 0.000000, 25828.000000, 952.820496, 4.000000, 4.000000, 4.000000, 4.000000, 4.000000, 4.000000, 4.000000, 4.000000, 4.000000, 4.000000, 4.000000, 4.000000, 4.000000, 4.000000, 4.000000, 4.000000
94.000000, 0.000000, 4189.230469, 4202.051270, 4205.641113, 4192.820313, 4211.794922, 4192.820313, 4202.051270, 4185.641113, 4169.743652, 4234.358887, 4215.384277, 4215.897461, 4254.358887, 4205.641113, 3319.000000, 8375.000000, 8022.000000, 0.000000, 0.000000, 0.000000, 25828.000000, 961.025635, 4.000000, 4.000000, 4.000000, 4.000000, 4.000000, 4.000000, 4.000000, 4.000000, 4.000000, 4.000000, 4.000000, 4.000000, 4.000000, 4.000000, 4.000000, 4.000000
95.000000, 0.000000, 4191.794922, 4206.666504, 4207.179199, 4194.871582, 4207.179199, 4199.487305, 4187.692383, 4168.205078, 4165.127930, 4232.820313, 4209.743652, 4210.769043, 4256.410156, 4206.666504, 3584.000000, 8361.000000, 8009.000000, 0.000000, 0.000000, 0.000000, 25828.000000, 968.717896, 4.000000, 4.000000, 4.000000, 4.000000, 4.000000, 4.000000, 4.000000, 4.000000, 4.000000, 4.000000, 4.000000, 4.000000, 4.000000, 4.000000, 4.000000, 4.000000
96.000000, 0.000000, 4183.589844, 4200.512695, 4196.922852, 4193.333008, 4211.281738, 4202.563965, 4180.512695, 4169.230469, 4158.461426, 4225.127930, 4196.922852, 4194.358887, 4242.563965, 4190.769043, 3524.000000, 8361.000000, 8009.000000, 0.000000, 0.000000, 0.000000, 25828.000000, 976.923035, 4.000000, 4.000000, 4.000000, 4.000000, 4.000000, 4.000000, 4.000000, 4.000000, 4.000000, 4.000000, 4.000000, 4.000000, 4.000000, 4.000000, 4.000000, 4.000000
97.000000, 0.000000, 4164.102539, 4188.205078, 4178.461426, 4181.025391, 4220.000000, 4209.743652, 4204.615234, 4180.000000, 4155.897461, 4210.256348, 4181.025391, 4178.461426, 4221.025391, 4168.717773, 3470.000000, 8333.000000, 7997.000000, 0.000000, 0.000000, 0.000000, 25828.000000, 985.128174, 4.000000, 4.000000, 4.000000, 4.000000, 4.000000, 4.000000, 4.000000, 4.000000, 4.000000, 4.000000, 4.000000, 4.000000, 4.000000, 4.000000, 4.000000, 4.000000
98.000000, 0.000000, 4158.461426, 4182.563965, 4172.307617, 4179.487305, 4220.000000, 4220.000000, 4213.333008, 4193.846191, 4174.358887, 4220.000000, 4184.102539, 4182.051270, 4223.076660, 4169.743652, 3319.000000, 8333.000000, 7997.000000, 0.000000, 0.000000, 0.000000, 25828.000000, 992.820496, 4.000000, 4.000000, 4.000000, 4.000000, 4.000000, 4.000000, 4.000000, 4.000000, 4.000000, 4.000000, 4.000000, 4.000000, 4.000000, 4.000000, 4.000000, 4.000000
99.000000, 0.000000, 4163.589844, 4183.076660, 4177.948730, 4182.563965, 4215.897461, 4217.436035, 4201.025391, 4208.717773, 4199.487305, 4245.641113, 4197.436035, 4192.307617, 4235.897461, 4180.000000, 3584.000000, 8320.000000, 7980.000000, 0.000000, 0.000000, 0.000000, 25829.000000, 1.025641, 4.000000, 4.000000, 4.000000, 4.000000, 4.000000, 4.000000, 4.000000, 4.000000, 4.000000, 4.000000, 4.000000, 4.000000, 4.000000, 4.000000, 4.000000, 4.000000
100.000000, 0.000000, 4170.256348, 4189.743652, 4186.153809, 4186.153809, 4214.358887, 4206.153809, 4200.000000, 4210.256348, 4197.948730, 4251.281738, 4204.102539, 4196.922852, 4245.127930, 4187.692383, 3524.000000, 8320.000000, 7980.000000, 0.000000, 0.000000, 0.000000, 25829.000000, 8.717949, 4.000000, 4.000000, 4.000000, 4.000000, 4.000000, 4.000000, 4.000000, 4.000000, 4.000000, 4.000000, 4.000000, 4.000000, 4.000000, 4.000000, 4.000000, 4.000000
101.000000, 0.000000, 4180.000000, 4201.025391, 4192.820313, 4193.333008, 4212.820313, 4196.410156, 4199.487305, 4197.436035, 4178.974121, 4243.589844, 4207.179199, 4201.538574, 4253.846191, 4195.384277, 3470.000000, 8297.000000, 7973.000000, 0.000000, 0.000000, 0.000000, 25829.000000, 16.923077, 4.000000, 4.000000, 4.000000, 4.000000, 4.000000, 4.000000, 4.000000, 4.000000, 4.000000, 4.000000, 4.000000, 4.000000, 4.000000, 4.000000, 4.000000, 4.000000
102.000000, 0.000000, 4184.615234, 4205.127930, 4192.820313, 4189.230469, 4212.307617, 4190.256348, 4186.666504, 4186.153809, 4170.769043, 4246.666504, 4208.205078, 4200.000000, 4254.871582, 4193.333008, 3319.000000, 8297.000000, 7973.000000, 0.000000, 0.000000, 0.000000, 25829.000000, 24.615383, 4.000000, 4.000000, 4.000000, 4.000000, 4.000000, 4.000000, 4.000000, 4.000000, 4.000000, 4.000000, 4.000000, 4.000000, 4.000000, 4.000000, 4.000000, 4.000000
103.000000, 0.000000, 4181.025391, 4202.051270, 4188.717773, 4187.179199, 4214.358887, 4189.230469, 4183.589844, 4172.307617, 4168.205078, 4247.692383, 4203.589844, 4191.281738, 4249.230469, 4185.127930, 3584.000000, 8285.000000, 7967.000000, 0.000000, 0.000000, 0.000000, 25829.000000, 32.820511, 4.000000, 4.000000, 4.000000, 4.000000, 4.000000, 4.000000, 4.000000, 4.000000, 4.000000, 4.000000, 4.000000, 4.000000, 4.000000, 4.000000, 4.000000, 4.000000
104.000000, 0.000000, 4174.358887, 4196.410156, 4184.102539, 4186.153809, 4210.769043, 4187.179199, 4194.871582, 4177.436035, 4163.589844, 4243.076660, 4198.461426, 4189.743652, 4245.641113, 4181.538574, 3524.000000, 8285.000000, 7967.000000, 0.000000, 0.000000, 0.000000, 25829.000000, 40.512821, 4.000000, 4.000000, 4.000000, 4.000000, 4.000000, 4.000000, 4.000000, 4.000000, 4.000000, 4.000000, 4.000000, 4.000000, 4.000000, 4.000000, 4.000000, 4.000000
105.000000, 0.000000, 4174.358887, 4196.410156, 4186.666504, 4186.666504, 4206.666504, 4186.666504, 4194.871582, 4205.641113, 4169.743652, 4249.230469, 4206.666504, 4198.461426, 4250.769043, 4183.589844, 3470.000000, 8267.000000, 7944.000000, 0.000000, 0.000000, 0.000000, 25829.000000, 48.717949, 4.000000, 4.000000, 4.000000, 4.000000, 4.000000, 4.000000, 4.000000, 4.000000, 4.000000, 4.000000, 4.000000, 4.000000, 4.000000, 4.000000, 4.000000, 4.000000
106.000000, 0.000000, 4180.000000, 4203.076660, 4195.897461, 4195.384277, 4212.820313, 4190.769043, 4186.666504, 4194.358887, 4170.256348, 4257.436035, 4216.410156, 4206.666504, 4258.974121, 4192.820313, 3319.000000, 8267.000000, 7944.000000, 0.000000, 0.000000, 0.000000, 25829.000000, 56.923077, 4.000000, 4.000000, 4.000000, 4.000000, 4.000000, 4.000000, 4.000000, 4.000000, 4.000000, 4.000000, 4.000000, 4.000000, 4.000000, 4.000000, 4.000000, 4.000000
107.000000, 0.000000, 4185.641113, 4209.743652, 4202.051270, 4195.384277, 4212.820313, 4192.820313, 4187.179199, 4166.666504, 4162.051270, 4261.538574, 4215.897461, 4208.717773, 4264.615234, 4201.538574, 3584.000000, 8268.000000, 7934.000000, 0.000000, 0.000000, 0.000000, 25829.000000, 64.615379, 4.000000, 4.000000, 4.000000, 4.000000, 4.000000, 4.000000, 4.000000, 4.000000, 4.000000, 4.000000, 4.000000, 4.000000, 4.000000, 4.000000, 4.000000, 4.000000
108.000000, 0.000000, 4188.717773, 4207.179199, 4204.102539, 4195.897461, 4202.563965, 4188.205078, 4188.717773, 4187.692383, 4167.692383, 4269.230469, 4211.794922, 4208.205078, 4264.615234, 4201.538574, 3524.000000, 8268.000000, 7934.000000, 0.000000, 0.000000, 0.000000, 25829.000000, 72.820511, 4.000000, 4.000000, 4.000000, 4.000000, 4.000000, 4.000000, 4.000000, 4.000000, 4.000000, 4.000000, 4.000000, 4.000000, 4.000000, 4.000000, 4.000000, 4.000000
109.000000, 0.000000, 4184.615234, 4202.051270, 4200.512695, 4195.384277, 4199.487305, 4183.589844, 4184.102539, 4209.230469, 4175.897461, 4274.871582, 4208.205078, 4203.589844, 4262.563965, 4200.000000, 3470.000000, 8275.000000, 7928.000000, 0.000000, 0.000000, 0.000000, 25829.000000, 80.512817, 4.000000, 4.000000, 4.000000, 4.000000, 4.000000, 4.000000, 4.000000, 4.000000, 4.000000, 4.000000, 4.000000, 4.000000, 4.000000, 4.000000, 4.000000, 4.000000
110.000000, 0.000000, 4182.051270, 4202.051270, 4194.358887, 4187.179199, 4202.563965, 4185.127930, 4183.076660, 4187.692383, 4168.717773, 4275.384277, 4203.076660, 4198.461426, 4261.025391, 4197.436035, 3319.000000, 8275.000000, 7928.000000, 0.000000, 0.000000, 0.000000, 25829.000000, 88.205124, 4.000000, 4.000000, 4.000000, 4.000000, 4.000000, 4.000000, 4.000000, 4.000000, 4.000000, 4.000000, 4.000000, 4.000000, 4.000000, 4.000000, 4.000000, 4.000000
111.000000, 0.000000, 4188.717773, 4202.051270, 4193.333008, 4191.794922, 4198.974121, 4185.641113, 4183.076660, 4168.205078, 4163.076660, 4276.922852, 4197.436035, 4200.512695, 4258.974121, 4192.820313, 3584.000000, 8275.000000, 7960.000000, 0.000000, 0.000000, 0.000000, 25829.000000, 96.410255, 4.000000, 4.000000, 4.000000, 4.000000, 4.000000, 4.000000, 4.000000, 4.000000, 4.000000, 4.000000, 4.000000, 4.000000, 4.000000, 4.000000, 4.000000, 4.000000
112.000000, 0.000000, 4194.358887, 4202.563965, 4197.948730, 4195.897461, 4198.974121, 4183.589844, 4174.871582, 4169.230469, 4167.692383, 4283.589844, 4201.538574, 4201.538574, 4263.076660, 4196.922852, 3524.000000, 8275.000000, 7960.000000, 0.000000, 0.000000, 0.000000, 25829.000000, 104.102562, 4.000000, 4.000000, 4.000000, 4.000000, 4.000000, 4.000000, 4.000000, 4.000000, 4.000000, 4.000000, 4.000000, 4.000000, 4.000000, 4.000000, 4.000000, 4.000000
113.000000, 0.000000, 4192.820313, 4209.743652, 4198.461426, 4195.384277, 4201.538574, 4181.025391, 4177.436035, 4177.948730, 4168.717773, 4290.256348, 4208.717773, 4200.512695, 4266.666504, 4202.563965, 3470.000000, 8273.000000, 7972.000000, 0.000000, 0.000000, 0.000000, 25829.000000, 112.307686, 4.000000, 4.000000, 4.000000, 4.000000, 4.000000, 4.000000, 4.000000, 4.000000, 4.000000, 4.000000, 4.000000, 4.000000, 4.000000, 4.000000, 4.000000, 4.000000
114.000000, 0.000000, 4193.846191, 4211.281738, 4197.948730, 4198.974121, 4201.025391, 4186.666504, 4196.922852, 4197.948730, 4174.871582, 4292.820313, 4211.281738, 4201.538574, 4264.102539, 4205.127930, 3319.000000, 8273.000000, 7972.000000, 0.000000, 0.000000, 0.000000, 25829.000000, 120.000000, 4.000000, 4.000000, 4.000000, 4.000000, 4.000000, 4.000000, 4.000000, 4.000000, 4.000000, 4.000000, 4.000000, 4.000000, 4.000000, 4.000000, 4.000000, 4.000000
115.000000, 0.000000, 4203.589844, 4206.666504, 4203.076660, 4201.025391, 4206.153809, 4193.333008, 4203.076660, 4199.487305, 4184.615234, 4302.051270, 4216.410156, 4208.205078, 4268.717773, 4214.871582, 3584.000000, 8285.000000, 8028.000000, 0.000000, 0.000000, 0.000000, 25829.000000, 128.205124, 4.000000, 4.000000, 4.000000, 4.000000, 4.000000, 4.000000, 4.000000, 4.000000, 4.000000, 4.000000, 4.000000, 4.000000, 4.000000, 4.000000, 4.000000, 4.000000
116.000000, 0.000000, 4204.615234, 4204.102539, 4205.127930, 4200.512695, 4209.743652, 4193.333008, 4198.461426, 4186.153809, 4187.692383, 4310.256348, 4221.538574, 4216.922852, 4275.384277, 4218.974121, 3524.000000, 8285.000000, 8028.000000, 0.000000, 0.000000, 0.000000, 25829.000000, 136.410248, 4.000000, 4.000000, 4.000000, 4.000000, 4.000000, 4.000000, 4.000000, 4.000000, 4.000000, 4.000000, 4.000000, 4.000000, 4.000000, 4.000000, 4.000000, 4.000000
117.000000, 0.000000, 4193.846191, 4195.384277, 4194.871582, 4193.846191, 4204.102539, 4188.717773, 4209.230469, 4191.281738, 4187.179199, 4308.205078, 4220.000000, 4214.358887, 4271.281738, 4208.205078, 3470.000000, 8288.000000, 8055.000000, 0.000000, 0.000000, 0.000000, 25829.000000, 144.102554, 4.000000, 4.000000, 4.000000, 4.000000, 4.000000, 4.000000, 4.000000, 4.000000, 4.000000, 4.000000, 4.000000, 4.000000, 4.000000, 4.000000, 4.000000, 4.000000
118.000000, 0.000000, 4186.666504, 4183.076660, 4185.641113, 4193.333008, 4200.000000, 4185.641113, 4212.307617, 4204.102539, 4188.205078, 4305.641113, 4216.922852, 4204.615234, 4260.000000, 4200.000000, 3319.000000, 8288.000000, 8055.000000, 0.000000, 0.000000, 0.000000, 25829.000000, 151.794861, 4.000000, 4.000000, 4.000000, 4.000000, 4.000000, 4.000000, 4.000000, 4.000000, 4.000000, 4.000000, 4.000000, 4.000000, 4.000000, 4.000000, 4.000000, 4.000000
119.000000, 0.000000, 4185.641113, 4179.487305, 4185.127930, 4194.871582, 4203.076660, 4192.820313, 4197.436035, 4197.948730, 4187.179199, 4310.256348, 4212.307617, 4200.000000, 4251.794922, 4197.436035, 3584.000000, 8298.000000, 8075.000000, 0.000000, 0.000000, 0.000000, 25829.000000, 160.000000, 4.000000, 4.000000, 4.000000, 4.000000, 4.000000, 4.000000, 4.000000, 4.000000, 4.000000, 4.000000, 4.000000, 4.000000, 4.000000, 4.000000, 4.000000, 4.000000
120.000000, 0.000000, 4185.127930, 4175.897461, 4185.127930, 4187.692383, 4206.666504, 4199.487305, 4197.948730, 4186.666504, 4185.641113, 4312.820313, 4205.127930, 4197.948730, 4247.179199, 4194.358887, 3524.000000, 8298.000000, 8075.000000, 0.000000, 0.000000, 0.000000, 25829.000000, 168.205124, 4.000000, 4.000000, 4.000000, 4.000000, 4.000000, 4.000000, 4.000000, 4.000000, 4.000000, 4.000000, 4.000000, 4.000000, 4.000000, 4.000000, 4.000000, 4.000000
121.000000, 0.000000, 4186.666504, 4167.692383, 4186.666504, 4193.333008, 4204.102539, 4193.333008, 4199.487305, 4187.179199, 4187.692383, 4315.384277, 4205.127930, 4200.512695, 4248.717773, 4195.384277, 3470.000000, 8323.000000, 8108.000000, 0.000000, 0.000000, 0.000000, 25829.000000, 175.897430, 4.000000, 4.000000, 4.000000, 4.000000, 4.000000, 4.000000, 4.000000, 4.000000, 4.000000, 4.000000, 4.000000, 4.000000, 4.000000, 4.000000, 4.000000, 4.000000
122.000000, 0.000000, 4189.743652, 4169.743652, 4195.897461, 4199.487305, 4198.974121, 4191.281738, 4183.076660, 4189.230469, 4188.717773, 4323.076660, 4213.846191, 4206.666504, 4252.820313, 4201.538574, 3319.000000, 8323.000000, 8108.000000, 0.000000, 0.000000, 0.000000, 25829.000000, 184.102554, 4.000000, 4.000000, 4.000000, 4.000000, 4.000000, 4.000000, 4.000000, 4.000000, 4.000000, 4.000000, 4.000000, 4.000000, 4.000000, 4.000000, 4.000000, 4.000000
123.000000, 0.000000, 4190.769043, 4172.820313, 4201.025391, 4197.948730, 4204.102539, 4201.538574, 4185.641113, 4184.102539, 4187.692383, 4326.153809, 4213.333008, 4206.153809, 4251.794922, 4206.153809, 3584.000000, 8330.000000, 8131.000000, 0.000000, 0.000000, 0.000000, 25829.000000, 191.794861, 4.000000, 4.000000, 4.000000, 4.000000, 4.000000, 4.000000, 4.000000, 4.000000, 4.000000, 4.000000, 4.000000, 4.000000, 4.000000, 4.000000, 4.000000, 4.000000
124.000000, 0.000000, 4187.179199, 4170.769043, 4191.794922, 4197.948730, 4212.307617, 4205.127930, 4202.563965, 4181.025391, 4184.102539, 4322.563965, 4204.102539, 4201.025391, 4248.205078, 4202.051270, 3524.000000, 8330.000000, 8131.000000, 0.000000, 0.000000, 0.000000, 25829.000000, 200.000000, 4.000000, 4.000000, 4.000000, 4.000000, 4.000000, 4.000000, 4.000000, 4.000000, 4.000000, 4.000000, 4.000000, 4.000000, 4.000000, 4.000000, 4.000000, 4.000000
125.000000, 0.000000, 4183.589844, 4170.769043, 4185.127930, 4195.384277, 4208.205078, 4200.512695, 4197.948730, 4187.179199, 4186.153809, 4323.076660, 4202.563965, 4196.922852, 4244.102539, 4194.871582, 3470.000000, 8344.000000, 8173.000000, 0.000000, 0.000000, 0.000000, 25829.000000, 207.692307, 4.000000, 4.000000, 4.000000, 4.000000, 4.000000, 4.000000, 4.000000, 4.000000, 4.000000, 4.000000, 4.000000, 4.000000, 4.000000, 4.000000, 4.000000, 4.000000
126.000000, 0.000000, 4182.563965, 4166.153809, 4186.153809, 4197.948730, 4201.538574, 4201.538574, 4196.922852, 4185.127930, 4185.641113, 4323.076660, 4201.025391, 4192.820313, 4237.436035, 4190.256348, 3319.000000, 8344.000000, 8173.000000, 0.000000, 0.000000, 0.000000, 25829.000000, 215.897430, 4.000000, 4.000000, 4.000000, 4.000000, 4.000000, 4.000000, 4.000000, 4.000000, 4.000000, 4.000000, 4.000000, 4.000000, 4.000000, 4.000000, 4.000000, 4.000000
127.000000, 0.000000, 4180.000000, 4165.127930, 4185.641113, 4196.410156, 4202.563965, 4198.461426, 4201.025391, 4170.256348, 4173.846191, 4314.358887, 4191.794922, 4186.666504, 4231.281738, 4186.153809, 53.000000, 8358.000000, 8195.000000, 0.000000, 0.000000, 0.000000, 25829.000000, 223.589737, 4.000000, 4.000000, 4.000000, 4.000000, 4.000000, 4.000000, 4.000000, 4.000000, 4.000000, 4.000000, 4.000000, 4.000000, 4.000000, 4.000000, 4.000000, 4.000000
0.000000, 0.000000, 4186.153809, 4170.769043, 4184.615234, 4192.307617, 4203.589844, 4192.307617, 4188.717773, 4166.666504, 4168.205078, 4312.307617, 4188.205078, 4184.102539, 4233.333008, 4191.794922, 3492.000000, 8358.000000, 8195.000000, 0.000000, 0.000000, 0.000000, 25829.000000, 231.794861, 4.000000, 4.000000, 4.000000, 4.000000, 4.000000, 4.000000, 4.000000, 4.000000, 4.000000, 4.000000, 4.000000, 4.000000, 4.000000, 4.000000, 4.000000, 4.000000
1.000000, 0.000000, 4184.615234, 4152.820313, 4187.179199, 4194.358887, 4201.025391, 4196.922852, 4189.230469, 4178.461426, 4178.974121, 4325.641113, 4197.436035, 4195.384277, 4237.436035, 4201.025391, 2279.000000, 8392.000000, 8274.000000, 0.000000, 0.000000, 0.000000, 25829.000000, 239.487167, 4.000000, 4.000000, 4.000000, 4.000000, 4.000000, 4.000000, 4.000000, 4.000000, 4.000000, 4.000000, 4.000000, 4.000000, 4.000000, 4.000000, 4.000000, 4.000000
2.000000, 0.000000, 4170.256348, 4133.846191, 4186.153809, 4190.769043, 4200.512695, 4206.153809, 4217.436035, 4211.281738, 4199.487305, 4341.025391, 4204.102539, 4201.538574, 4233.846191, 4194.871582, 3138.000000, 8392.000000, 8274.000000, 0.000000, 0.000000, 0.000000, 25829.000000, 247.692307, 4.000000, 4.000000, 4.000000, 4.000000, 4.000000, 4.000000, 4.000000, 4.000000, 4.000000, 4.000000, 4.000000, 4.000000, 4.000000, 4.000000, 4.000000, 4.000000
3.000000, 0.000000, 4175.897461, 4158.461426, 4184.102539, 4197.436035, 4205.127930, 4210.769043, 4223.076660, 4224.102539, 4203.589844, 4344.102539, 4200.000000, 4192.307617, 4234.358887, 4186.666504, 3558.000000, 8409.000000, 8307.000000, 0.000000, 0.000000, 0.000000, 25829.000000, 255.897430, 4.000000, 4.000000, 4.000000, 4.000000, 4.000000, 4.000000, 4.000000, 4.000000, 4.000000, 4.000000, 4.000000, 4.000000, 4.000000, 4.000000, 4.000000, 4.000000
4.000000, 0.000000, 4194.358887, 4188.717773, 4184.102539, 4206.153809, 4218.974121, 4206.153809, 4196.410156, 4185.127930, 4189.230469, 4343.589844, 4201.025391, 4191.281738, 4241.538574, 4197.948730, 3526.000000, 8409.000000, 8307.000000, 0.000000, 0.000000, 0.000000, 25829.000000, 263.589752, 4.000000, 4.000000, 4.000000, 4.000000, 4.000000, 4.000000, 4.000000, 4.000000, 4.000000, 4.000000, 4.000000, 4.000000, 4.000000, 4.000000, 4.000000, 4.000000
5.000000, 0.000000, 4195.897461, 4186.153809, 4184.615234, 4203.589844, 4218.461426, 4200.512695, 4195.897461, 4171.281738, 4184.102539, 4346.666504, 4204.102539, 4196.922852, 4241.025391, 4204.102539, 3528.000000, 8441.000000, 8327.000000, 0.000000, 0.000000, 0.000000, 25829.000000, 271.794861, 4.000000, 4.000000, 4.000000, 4.000000, 4.000000, 4.000000, 4.000000, 4.000000, 4.000000, 4.000000, 4.000000, 4.000000, 4.000000, 4.000000, 4.000000, 4.000000
6.000000, 0.000000, 4191.281738, 4186.153809, 4190.256348, 4206.666504, 4202.051270, 4203.589844, 4221.025391, 4201.538574, 4187.179199, 4345.641113, 4200.000000, 4197.436035, 4231.794922, 4195.897461, 3671.000000, 8441.000000, 8327.000000, 0.000000, 0.000000, 0.000000, 25829.000000, 279.487183, 4.000000, 4.000000, 4.000000, 4.000000, 4.000000, 4.000000, 4.000000, 4.000000, 4.000000, 4.000000, 4.000000, 4.000000, 4.000000, 4.000000, 4.000000, 4.000000
7.000000, 0.000000, 4207.179199, 4209.230469, 4201.025391, 4212.820313, 4205.641113, 4200.512695, 4201.025391, 4197.948730, 4177.948730, 4346.666504, 4201.025391, 4201.025391, 4230.256348, 4200.000000, 3693.000000, 8484.000000, 8341.000000, 0.000000, 0.000000, 0.000000, 25829.000000, 287.692291, 4.000000, 4.000000, 4.000000, 4.000000, 4.000000, 4.000000, 4.000000, 4.000000, 4.000000, 4.000000, 4.000000, 4.000000, 4.000000, 4.000000, 4.000000, 4.000000
8.000000, 0.000000, 4222.051270, 4225.641113, 4207.692383, 4218.461426, 4218.974121, 4184.615234, 4162.563965, 4162.563965, 4167.179199, 4351.281738, 4207.692383, 4211.794922, 4235.384277, 4208.205078, 3352.000000, 8484.000000, 8341.000000, 0.000000, 0.000000, 0.000000, 25829.000000, 295.384613, 4.000000, 4.000000, 4.000000, 4.000000, 4.000000, 4.000000, 4.000000, 4.000000, 4.000000, 4.000000, 4.000000, 4.000000, 4.000000, 4.000000, 4.000000, 4.000000
9.000000, 0.000000, 4214.871582, 4228.205078, 4204.615234, 4217.948730, 4216.922852, 4187.179199, 4176.922852, 4155.384277, 4166.666504, 4356.410156, 4206.153809, 4212.820313, 4230.256348, 4203.589844, 3531.000000, 8496.000000, 8344.000000, 0.000000, 0.000000, 0.000000, 25829.000000, 303.589722, 4.000000, 4.000000, 4.000000, 4.000000, 4.000000, 4.000000, 4.000000, 4.000000, 4.000000, 4.000000, 4.000000, 4.000000, 4.000000, 4.000000, 4.000000, 4.000000
10.000000, 0.000000, 4210.256348, 4230.769043, 4201.538574, 4213.846191, 4213.333008, 4200.512695, 4197.948730, 4169.230469, 4170.769043, 4356.410156, 4197.948730, 4203.589844, 4217.436035, 4197.436035, 3319.000000, 8496.000000, 8344.000000, 0.000000, 0.000000, 0.000000, 25829.000000, 311.282043, 4.000000, 4.000000, 4.000000, 4.000000, 4.000000, 4.000000, 4.000000, 4.000000, 4.000000, 4.000000, 4.000000, 4.000000, 4.000000, 4.000000, 4.000000, 4.000000
11.000000, 0.000000, 4215.384277, 4235.384277, 4200.512695, 4218.974121, 4216.410156, 4192.307617, 4189.743652, 4174.871582, 4171.281738, 4346.666504, 4189.230469, 4198.461426, 4203.076660, 4187.179199, 3583.000000, 8498.000000, 8326.000000, 0.000000, 0.000000, 0.000000, 25829.000000, 319.487183, 4.000000, 4.000000, 4.000000, 4.000000, 4.000000, 4.000000, 4.000000, 4.000000, 4.000000, 4.000000, 4.000000, 4.000000, 4.000000, 4.000000, 4.000000, 4.000000
12.000000, 0.000000, 4212.307617, 4236.922852, 4196.410156, 4217.948730, 4216.410156, 4190.256348, 4191.281738, 4171.794922, 4165.641113, 4337.436035, 4177.948730, 4193.846191, 4185.127930, 4173.333008, 3524.000000, 8498.000000, 8326.000000, 0.000000, 0.000000, 0.000000, 25829.000000, 327.179474, 4.000000, 4.000000, 4.000000, 4.000000, 4.000000, 4.000000, 4.000000, 4.000000, 4.000000, 4.000000, 4.000000, 4.000000, 4.000000, 4.000000, 4.000000, 4.000000
13.000000, 0.000000, 4201.538574, 4229.230469, 4191.794922, 4213.333008, 4209.743652, 4202.563965, 4200.000000, 4170.256348, 4161.538574, 4335.384277, 4169.230469, 4186.153809, 4170.769043, 4165.641113, 3624.000000, 8483.000000, 8315.000000, 0.000000, 0.000000, 0.000000, 25829.000000, 335.384613, 4.000000, 4.000000, 4.000000, 4.000000, 4.000000, 4.000000, 4.000000, 4.000000, 4.000000, 4.000000, 4.000000, 4.000000, 4.000000, 4.000000, 4.000000, 4.000000
14.000000, 0.000000, 4198.461426, 4225.641113, 4189.743652, 4210.769043, 4202.051270, 4197.948730, 4189.743652, 4181.025391, 4168.717773, 4335.897461, 4169.743652, 4180.000000, 4171.281738, 4168.717773, 3319.000000, 8483.000000, 8315.000000, 0.000000, 0.000000, 0.000000, 25829.000000, 343.076904, 4.000000, 4.000000, 4.000000, 4.000000, 4.000000, 4.000000, 4.000000, 4.000000, 4.000000, 4.000000, 4.000000, 4.000000, 4.000000, 4.000000, 4.000000, 4.000000
15.000000, 0.000000, 4204.615234, 4229.230469, 4190.256348, 4209.230469, 4201.025391, 4186.666504, 4186.153809, 4192.307617, 4175.897461, 4334.871582, 4173.333008, 4181.538574, 4175.897461, 4172.307617, 3583.000000, 8455.000000, 8308.000000, 0.000000, 0.000000, 0.000000, 25829.000000, 351.282043, 4.000000, 4.000000, 4.000000, 4.000000, 4.000000, 4.000000, 4.000000, 4.000000, 4.000000, 4.000000, 4.000000, 4.000000, 4.000000, 4.000000, 4.000000, 4.000000
16.000000, 0.000000, 4208.717773, 4230.769043, 4189.743652, 4216.410156, 4202.051270, 4189.743652, 4192.307617, 4185.641113, 4169.743652, 4330.256348, 4170.769043, 4186.666504, 4166.153809, 4169.230469, 0.000000, 8455.000000, 8308.000000, 0.000000, 0.000000, 0.000000, 25829.000000, 358.974365, 4.000000, 4.000000, 4.000000, 4.000000, 4.000000, 4.000000, 4.000000, 4.000000, 4.000000, 4.000000, 4.000000, 4.000000, 4.000000, 4.000000, 4.000000, 4.000000
17.000000, 0.000000, 4206.666504, 4232.307617, 4189.743652, 4217.436035, 4198.974121, 4185.127930, 4184.102539, 4176.410156, 4161.025391, 4320.000000, 4169.230469, 4183.589844, 4158.461426, 4168.205078, 0.000000, 8394.000000, 8301.000000, 0.000000, 0.000000, 0.000000, 25829.000000, 367.179474, 4.000000, 4.000000, 4.000000, 4.000000, 4.000000, 4.000000, 4.000000, 4.000000, 4.000000, 4.000000, 4.000000, 4.000000, 4.000000, 4.000000, 4.000000, 4.000000
18.000000, 0.000000, 4209.230469, 4234.871582, 4195.384277, 4217.948730, 4207.179199, 4183.589844, 4175.897461, 4170.256348, 4158.974121, 4311.794922, 4169.743652, 4179.487305, 4153.333008, 4169.230469, 0.000000, 8394.000000, 8301.000000, 0.000000, 0.000000, 0.000000, 25829.000000, 375.384613, 4.000000, 4.000000, 4.000000, 4.000000, 4.000000, 4.000000, 4.000000, 4.000000, 4.000000, 4.000000, 4.000000, 4.000000, 4.000000, 4.000000, 4.000000, 4.000000
19.000000, 0.000000, 4215.384277, 4233.846191, 4200.000000, 4221.025391, 4222.051270, 4195.384277, 4180.512695, 4161.538574, 4153.846191, 4308.205078, 4166.153809, 4180.512695, 4140.512695, 4168.205078, 0.000000, 8351.000000, 8295.000000, 0.000000, 0.000000, 0.000000, 25829.000000, 383.076904, 4.000000, 4.000000, 4.000000, 4.000000, 4.000000, 4.000000, 4.000000, 4.000000, 4.000000, 4.000000, 4.000000, 4.000000, 4.000000, 4.000000, 4.000000, 4.000000
20.000000, 0.000000, 4215.897461, 4233.333008, 4197.948730, 4216.922852, 4222.563965, 4196.410156, 4186.666504, 4146.153809, 4141.025391, 4297.948730, 4165.641113, 4181.025391, 4135.384277, 4168.717773, 0.000000, 8351.000000, 8295.000000, 0.000000, 0.000000, 0.000000, 25829.000000, 391.282043, 4.000000, 4.000000, 4.000000, 4.000000, 4.000000, 4.000000, 4.000000, 4.000000, 4.000000, 4.000000, 4.000000, 4.000000, 4.000000, 4.000000, 4.000000, 4.000000
21.000000, 0.000000, 4212.307617, 4230.256348, 4191.281738, 4220.000000, 4215.384277, 4185.127930, 4181.025391, 4136.410156, 4134.358887, 4289.743652, 4168.717773, 4182.051270, 4134.871582, 4168.717773, 0.000000, 8285.000000, 8281.000000, 0.000000, 0.000000, 0.000000, 25829.000000, 398.974335, 4.000000, 4.000000, 4.000000, 4.000000, 4.000000, 4.000000, 4.000000, 4.000000, 4.000000, 4.000000, 4.000000, 4.000000, 4.000000, 4.000000, 4.000000, 4.000000
22.000000, 0.000000, 4209.743652, 4221.538574, 4185.641113, 4219.487305, 4215.897461, 4178.974121, 4170.769043, 4147.692383, 4147.179199, 4300.512695, 4169.743652, 4181.538574, 4127.179199, 4166.666504, 0.000000, 8285.000000, 8281.000000, 0.000000, 0.000000, 0.000000, 25829.000000, 407.179474, 4.000000, 4.000000, 4.000000, 4.000000, 4.000000, 4.000000, 4.000000, 4.000000, 4.000000, 4.000000, 4.000000, 4.000000, 4.000000, 4.000000, 4.000000, 4.000000
23.000000, 0.000000, 4215.384277, 4218.461426, 4189.230469, 4219.487305, 4217.436035, 4183.589844, 4168.717773, 4166.153809, 4163.589844, 4312.307617, 4175.384277, 4179.487305, 4123.589844, 4170.769043, 0.000000, 8250.000000, 8278.000000, 0.000000, 0.000000, 0.000000, 25829.000000, 414.871796, 4.000000, 4.000000, 4.000000, 4.000000, 4.000000, 4.000000, 4.000000, 4.000000, 4.000000, 4.000000, 4.000000, 4.000000, 4.000000, 4.000000, 4.000000, 4.000000
24.000000, 0.000000, 4212.307617, 4215.384277, 4189.230469, 4222.563965, 4213.846191, 4191.281738, 4181.025391, 4185.641113, 4170.769043, 4310.769043, 4176.922852, 4173.846191, 4119.487305, 4168.205078, 0.000000, 8250.000000, 8278.000000, 0.000000, 0.000000, 0.000000, 25829.000000, 423.076904, 4.000000, 4.000000, 4.000000, 4.000000, 4.000000, 4.000000, 4.000000, 4.000000, 4.000000, 4.000000, 4.000000, 4.000000, 4.000000, 4.000000, 4.000000, 4.000000
25.000000, 0.000000, 4198.974121, 4205.127930, 4176.922852, 4215.897461, 4215.384277, 4201.025391, 4201.025391, 4204.615234, 4177.436035, 4307.692383, 4167.692383, 4164.615234, 4104.102539, 4155.897461, 0.000000, 8213.000000, 8276.000000, 0.000000, 0.000000, 0.000000, 25829.000000, 430.769226, 4.000000, 4.000000, 4.000000, 4.000000, 4.000000, 4.000000, 4.000000, 4.000000, 4.000000, 4.000000, 4.000000, 4.000000, 4.000000, 4.000000, 4.000000, 4.000000
26.000000, 0.000000, 4191.794922, 4191.281738, 4165.127930, 4212.307617, 4211.794922, 4204.102539, 4199.487305, 4200.512695, 4175.384277, 4304.615234, 4157.436035, 4161.025391, 4089.230713, 4147.692383, 0.000000, 8213.000000, 8276.000000, 0.000000, 0.000000, 0.000000, 25829.000000, 438.974335, 4.000000, 4.000000, 4.000000, 4.000000, 4.000000, 4.000000, 4.000000, 4.000000, 4.000000, 4.000000, 4.000000, 4.000000, 4.000000, 4.000000, 4.000000, 4.000000
27.000000, 0.000000, 4190.256348, 4177.948730, 4166.153809, 4208.205078, 4199.487305, 4196.410156, 4185.641113, 4178.974121, 4161.538574, 4297.948730, 4155.384277, 4163.589844, 4084.102539, 4143.589844, 0.000000, 8150.000000, 8282.000000, 0.000000, 0.000000, 0.000000, 25829.000000, 447.179474, 4.000000, 4.000000, 4.000000, 4.000000, 4.000000, 4.000000, 4.000000, 4.000000, 4.000000, 4.000000, 4.000000, 4.000000, 4.000000, 4.000000, 4.000000, 4.000000
28.000000, 0.000000, 4192.820313, 4176.922852, 4174.871582, 4208.205078, 4202.051270, 4194.871582, 4192.307617, 4168.717773, 4155.897461, 4297.436035, 4163.076660, 4167.692383, 4087.179443, 4146.153809, 0.000000, 8150.000000, 8282.000000, 0.000000, 0.000000, 0.000000, 25829.000000, 454.871796, 4.000000, 4.000000, 4.000000, 4.000000, 4.000000, 4.000000, 4.000000, 4.000000, 4.000000, 4.000000, 4.000000, 4.000000, 4.000000, 4.000000, 4.000000, 4.000000
29.000000, 0.000000, 4196.922852, 4181.025391, 4182.051270, 4215.897461, 4216.922852, 4206.666504, 4205.127930, 4182.563965, 4166.153809, 4302.051270, 4166.153809, 4169.230469, 4084.615234, 4150.769043, 0.000000, 8130.000000, 8283.000000, 0.000000, 0.000000, 0.000000, 25829.000000, 463.076904, 4.000000, 4.000000, 4.000000, 4.000000, 4.000000, 4.000000, 4.000000, 4.000000, 4.000000, 4.000000, 4.000000, 4.000000, 4.000000, 4.000000, 4.000000, 4.000000
30.000000, 0.000000, 4201.538574, 4180.000000, 4187.692383, 4216.922852, 4217.948730, 4215.897461, 4205.641113, 4203.589844, 4178.461426, 4304.615234, 4163.589844, 4174.358887, 4077.948730, 4153.333008, 0.000000, 8130.000000, 8283.000000, 0.000000, 0.000000, 0.000000, 25829.000000, 470.769226, 4.000000, 4.000000, 4.000000, 4.000000, 4.000000, 4.000000, 4.000000, 4.000000, 4.000000, 4.000000, 4.000000, 4.000000, 4.000000, 4.000000, 4.000000, 4.000000
31.000000, 0.000000, 4211.794922, 4178.461426, 4197.436035, 4220.000000, 4215.384277, 4207.692383, 4199.487305, 4200.000000, 4178.974121, 4314.358887, 4173.846191, 4189.743652, 4086.666504, 4164.102539, 0.000000, 8114.000000, 8278.000000, 0.000000, 0.000000, 0.000000, 25829.000000, 478.974335, 4.000000, 4.000000, 4.000000, 4.000000, 4.000000, 4.000000, 4.000000, 4.000000, 4.000000, 4.000000, 4.000000, 4.000000, 4.000000, 4.000000, 4.000000, 4.000000
32.000000, 0.000000, 4220.512695, 4181.538574, 4205.127930, 4221.025391, 4215.384277, 4193.846191, 4188.205078, 4168.717773, 4166.153809, 4321.538574, 4187.179199, 4203.076660, 4096.922852, 4178.461426, 0.000000, 8114.000000, 8278.000000, 0.000000, 0.000000, 0.000000, 25829.000000, 486.666656, 4.000000, 4.000000, 4.000000, 4.000000, 4.000000, 4.000000, 4.000000, 4.000000, 4.000000, 4.000000, 4.000000, 4.000000, 4.000000, 4.000000, 4.000000, 4.000000
33.000000, 0.000000, 4223.589844, 4183.076660, 4204.615234, 4223.589844, 4206.153809, 4183.076660, 4171.794922, 4147.179199, 4149.230469, 4310.769043, 4179.487305, 4200.000000, 4084.615234, 4175.897461, 0.000000, 8108.000000, 8265.000000, 0.000000, 0.000000, 0.000000, 25829.000000, 494.871796, 4.000000, 4.000000, 4.000000, 4.000000, 4.000000, 4.000000, 4.000000, 4.000000, 4.000000, 4.000000, 4.000000, 4.000000, 4.000000, 4.000000, 4.000000, 4.000000
34.000000, 0.000000, 4220.000000, 4179.487305, 4202.051270, 4229.230469, 4200.000000, 4180.512695, 4167.179199, 4156.922852, 4151.281738, 4306.153809, 4167.692383, 4195.384277, 4077.948730, 4169.230469, 0.000000, 8108.000000, 8265.000000, 0.000000, 0.000000, 0.000000, 25829.000000, 502.564087, 4.000000, 4.000000, 4.000000, 4.000000, 4.000000, 4.000000, 4.000000, 4.000000, 4.000000, 4.000000, 4.000000, 4.000000, 4.000000, 4.000000, 4.000000, 4.000000
35.000000, 0.000000, 4214.358887, 4170.256348, 4200.512695, 4221.025391, 4203.076660, 4185.641113, 4174.871582, 4174.358887, 4172.820313, 4323.589844, 4170.769043, 4195.897461, 4089.230713, 4171.794922, 0.000000, 8092.000000, 8253.000000, 0.000000, 0.000000, 0.000000, 25829.000000, 510.769226, 4.000000, 4.000000, 4.000000, 4.000000, 4.000000, 4.000000, 4.000000, 4.000000, 4.000000, 4.000000, 4.000000, 4.000000, 4.000000, 4.000000, 4.000000, 4.000000
36.000000, 0.000000, 4212.307617, 4159.487305, 4197.436035, 4215.897461, 4199.487305, 4187.179199, 4182.051270, 4171.281738, 4184.615234, 4333.846191, 4175.897461, 4196.410156, 4093.333252, 4174.358887, 0.000000, 8092.000000, 8253.000000, 0.000000, 0.000000, 0.000000, 25829.000000, 518.461548, 4.000000, 4.000000, 4.000000, 4.000000, 4.000000, 4.000000, 4.000000, 4.000000, 4.000000, 4.000000, 4.000000, 4.000000, 4.000000, 4.000000, 4.000000, 4.000000
37.000000, 0.000000, 4214.871582, 4161.025391, 4201.538574, 4218.461426, 4201.025391, 4185.127930, 4184.615234, 4169.743652, 4186.666504, 4334.358887, 4181.538574, 4200.000000, 4093.845947, 4175.384277, 0.000000, 8085.000000, 8250.000000, 0.000000, 0.000000, 0.000000, 25829.000000, 526.666626, 4.000000, 4.000000, 4.000000, 4.000000, 4.000000, 4.000000, 4.000000, 4.000000, 4.000000, 4.000000, 4.000000, 4.000000, 4.000000, 4.000000, 4.000000, 4.000000
38.000000, 0.000000, 4210.769043, 4162.051270, 4202.051270, 4221.025391, 4202.563965, 4185.641113, 4182.051270, 4181.025391, 4187.692383, 4336.410156, 4176.410156, 4198.974121, 4084.102539, 4168.205078, 0.000000, 8085.000000, 8250.000000, 0.000000, 0.000000, 0.000000, 25829.000000, 534.358948, 4.000000, 4.000000, 4.000000, 4.000000, 4.000000, 4.000000, 4.000000, 4.000000, 4.000000, 4.000000, 4.000000, 4.000000, 4.000000, 4.000000, 4.000000, 4.000000
39.000000, 0.000000, 4202.563965, 4152.307617, 4190.769043, 4218.974121, 4191.281738, 4185.641113, 4183.589844, 4180.512695, 4186.153809, 4338.461426, 4163.589844, 4190.769043, 4075.897217, 4160.000000, 0.000000, 8082.000000, 8249.000000, 0.000000, 0.000000, 0.000000, 25829.000000, 542.564087, 4.000000, 4.000000, 4.000000, 4.000000, 4.000000, 4.000000, 4.000000, 4.000000, 4.000000, 4.000000, 4.000000, 4.000000, 4.000000, 4.000000, 4.000000, 4.000000
40.000000, 0.000000, 4210.769043, 4155.384277, 4189.230469, 4211.794922, 4192.820313, 4186.666504, 4187.179199, 4167.179199, 4190.256348, 4348.205078, 4174.871582, 4189.743652, 4097.948730, 4170.769043, 0.000000, 8082.000000, 8249.000000, 0.000000, 0.000000, 0.000000, 25829.000000, 550.256409, 4.000000, 4.000000, 4.000000, 4.000000, 4.000000, 4.000000, 4.000000, 4.000000, 4.000000, 4.000000, 4.000000, 4.000000, 4.000000, 4.000000, 4.000000, 4.000000
41.000000, 0.000000, 4221.538574, 4161.025391, 4196.410156, 4216.922852, 4205.127930, 4194.358887, 4186.153809, 4161.538574, 4197.948730, 4355.384277, 4190.769043, 4194.871582, 4113.846191, 4180.512695, 0.000000, 8070.000000, 8237.000000, 0.000000, 0.000000, 0.000000, 25829.000000, 558.461548, 4.000000, 4.000000, 4.000000, 4.000000, 4.000000, 4.000000, 4.000000, 4.000000, 4.000000, 4.000000, 4.000000, 4.000000, 4.000000, 4.000000, 4.000000, 4.000000
42.000000, 0.000000, 4215.384277, 4157.436035, 4191.794922, 4221.538574, 4203.589844, 4199.487305, 4186.153809, 4166.666504, 4198.974121, 4348.205078, 4178.461426, 4188.205078, 4096.410156, 4166.153809, 0.000000, 8070.000000, 8237.000000, 0.000000, 0.000000, 0.000000, 25829.000000, 566.153809, 4.000000, 4.000000, 4.000000, 4.000000, 4.000000, 4.000000, 4.000000, 4.000000, 4.000000, 4.000000, 4.000000, 4.000000, 4.000000, 4.000000, 4.000000, 4.000000
43.000000, 0.000000, 4206.666504, 4157.436035, 4182.051270, 4215.897461, 4199.487305, 4200.000000, 4194.871582, 4176.922852, 4202.563965, 4344.102539, 4166.153809, 4177.436035, 4090.256348, 4155.384277, 0.000000, 8061.000000, 8239.000000, 0.000000, 0.000000, 0.000000, 25829.000000, 574.358948, 4.000000, 4.000000, 4.000000, 4.000000, 4.000000, 4.000000, 4.000000, 4.000000, 4.000000, 4.000000, 4.000000, 4.000000, 4.000000, 4.000000, 4.000000, 4.000000
44.000000, 0.000000, 4201.538574, 4154.358887, 4181.538574, 4215.384277, 4196.410156, 4198.461426, 4203.076660, 4183.076660, 4214.871582, 4349.743652, 4169.743652, 4177.436035, 4096.410156, 4155.897461, 0.000000, 8061.000000, 8239.000000, 0.000000, 0.000000, 0.000000, 25829.000000, 582.051270, 4.000000, 4.000000, 4.000000, 4.000000, 4.000000, 4.000000, 4.000000, 4.000000, 4.000000, 4.000000, 4.000000, 4.000000, 4.000000, 4.000000, 4.000000, 4.000000
45.000000, 0.000000, 4200.512695, 4142.051270, 4184.102539, 4210.256348, 4188.205078, 4190.256348, 4201.538574, 4177.948730, 4218.461426, 4356.922852, 4173.846191, 4181.538574, 4095.384521, 4154.871582, 0.000000, 8052.000000, 8231.000000, 0.000000, 0.000000, 0.000000, 25829.000000, 590.256409, 4.000000, 4.000000, 4.000000, 4.000000, 4.000000, 4.000000, 4.000000, 4.000000, 4.000000, 4.000000, 4.000000, 4.000000, 4.000000, 4.000000, 4.000000, 4.000000
46.000000, 0.000000, 4201.025391, 4144.102539, 4186.153809, 4207.692383, 4186.666504, 4184.615234, 4202.051270, 4178.974121, 4213.846191, 4360.512695, 4174.871582, 4186.153809, 4102.051270, 4158.974121, 0.000000, 8052.000000, 8231.000000, 0.000000, 0.000000, 0.000000, 25829.000000, 597.948730, 4.000000, 4.000000, 4.000000, 4.000000, 4.000000, 4.000000, 4.000000, 4.000000, 4.000000, 4.000000, 4.000000, 4.000000, 4.000000, 4.000000, 4.000000, 4.000000
47.000000, 0.000000, 4199.487305, 4151.794922, 4187.179199, 4212.820313, 4190.769043, 4189.230469, 4202.051270, 4189.230469, 4215.384277, 4353.333008, 4177.436035, 4187.692383, 4105.127930, 4161.538574, 0.000000, 8047.000000, 8229.000000, 0.000000, 0.000000, 0.000000, 25829.000000, 606.153809, 4.000000, 4.000000, 4.000000, 4.000000, 4.000000, 4.000000, 4.000000, 4.000000, 4.000000, 4.000000, 4.000000, 4.000000, 4.000000, 4.000000, 4.000000, 4.000000
48.000000, 0.000000, 4200.512695, 4146.153809, 4184.102539, 4209.743652, 4186.153809, 4194.871582, 4199.487305, 4186.666504, 4217.948730, 4346.666504, 4172.307617, 4184.102539, 4091.794678, 4155.897461, 0.000000, 8047.000000, 8229.000000, 0.000000, 0.000000, 0.000000, 25829.000000, 613.846130, 4.000000, 4.000000, 4.000000, 4.000000, 4.000000, 4.000000, 4.000000, 4.000000, 4.000000, 4.000000, 4.000000, 4.000000, 4.000000, 4.000000, 4.000000, 4.000000
49.000000, 0.000000, 4200.512695, 4145.127930, 4184.102539, 4207.179199, 4183.076660, 4197.436035, 4207.179199, 4186.666504, 4215.897461, 4356.410156, 4168.717773, 4187.179199, 4091.794678, 4151.281738, 0.000000, 8052.000000, 8221.000000, 0.000000, 0.000000, 0.000000, 25829.000000, 622.051270, 4.000000, 4.000000, 4.000000, 4.000000, 4.000000, 4.000000, 4.000000, 4.000000, 4.000000, 4.000000, 4.000000, 4.000000, 4.000000, 4.000000, 4.000000, 4.000000
50.000000, 0.000000, 4197.436035, 4152.820313, 4183.589844, 4205.641113, 4189.230469, 4201.025391, 4212.820313, 4192.307617, 4216.922852, 4369.230469, 4177.948730, 4191.794922, 4107.179199, 4154.871582, 0.000000, 8052.000000, 8221.000000, 0.000000, 0.000000, 0.000000, 25829.000000, 629.743591, 4.000000, 4.000000, 4.000000, 4.000000, 4.000000, 4.000000, 4.000000, 4.000000, 4.000000, 4.000000, 4.000000, 4.000000, 4.000000, 4.000000, 4.000000, 4.000000
51.000000, 0.000000, 4198.461426, 4150.256348, 4186.153809, 4207.179199, 4192.820313, 4203.589844, 4203.076660, 4192.820313, 4226.153809, 4367.692383, 4185.127930, 4194.358887, 4109.743652, 4163.076660, 0.000000, 8062.000000, 8193.000000, 0.000000, 0.000000, 0.000000, 25829.000000, 637.948730, 4.000000, 4.000000, 4.000000, 4.000000, 4.000000, 4.000000, 4.000000, 4.000000, 4.000000, 4.000000, 4.000000, 4.000000, 4.000000, 4.000000, 4.000000, 4.000000
52.000000, 0.000000, 4200.000000, 4150.769043, 4191.794922, 4208.205078, 4188.717773, 4200.000000, 4197.948730, 4195.897461, 4227.179199, 4362.051270, 4177.948730, 4195.384277, 4101.538574, 4163.076660, 0.000000, 8062.000000, 8193.000000, 0.000000, 0.000000, 0.000000, 25829.000000, 645.640991, 4.000000, 4.000000, 4.000000, 4.000000, 4.000000, 4.000000, 4.000000, 4.000000, 4.000000, 4.000000, 4.000000, 4.000000, 4.000000, 4.000000, 4.000000, 4.000000
53.000000, 0.000000, 4198.461426, 4153.333008, 4190.769043, 4202.051270, 4186.153809, 4191.794922, 4202.051270, 4200.512695, 4220.512695, 4368.717773, 4172.820313, 4200.000000, 4100.512695, 4158.974121, 0.000000, 8059.000000, 8182.000000, 0.000000, 0.000000, 0.000000, 25829.000000, 653.846130, 4.000000, 4.000000, 4.000000, 4.000000, 4.000000, 4.000000, 4.000000, 4.000000, 4.000000, 4.000000, 4.000000, 4.000000, 4.000000, 4.000000, 4.000000, 4.000000
54.000000, 0.000000, 4202.563965, 4148.205078, 4188.717773, 4204.615234, 4187.179199, 4189.230469, 4204.102539, 4198.461426, 4225.127930, 4377.948730, 4183.589844, 4204.102539, 4109.743652, 4164.615234, 0.000000, 8059.000000, 8182.000000, 0.000000, 0.000000, 0.000000, 25829.000000, 661.538452, 4.000000, 4.000000, 4.000000, 4.000000, 4.000000, 4.000000, 4.000000, 4.000000, 4.000000, 4.000000, 4.000000, 4.000000, 4.000000, 4.000000, 4.000000, 4.000000
55.000000, 0.000000, 4207.179199, 4154.358887, 4191.794922, 4209.743652, 4186.153809, 4194.871582, 4207.692383, 4200.000000, 4235.384277, 4376.922852, 4189.230469, 4202.563965, 4112.307617, 4174.358887, 0.000000, 8069.000000, 8168.000000, 0.000000, 0.000000, 0.000000, 25829.000000, 669.743591, 4.000000, 4.000000, 4.000000, 4.000000, 4.000000, 4.000000, 4.000000, 4.000000, 4.000000, 4.000000, 4.000000, 4.000000, 4.000000, 4.000000, 4.000000, 4.000000
56.000000, 0.000000, 4204.615234, 4161.538574, 4193.333008, 4212.307617, 4185.641113, 4202.051270, 4216.410156, 4208.717773, 4234.358887, 4373.333008, 4181.538574, 4200.000000, 4107.179199, 4170.769043, 0.000000, 8069.000000, 8168.000000, 0.000000, 0.000000, 0.000000, 25829.000000, 677.435852, 4.000000, 4.000000, 4.000000, 4.000000, 4.000000, 4.000000, 4.000000, 4.000000, 4.000000, 4.000000, 4.000000, 4.000000, 4.000000, 4.000000, 4.000000, 4.000000
57.000000, 0.000000, 4199.487305, 4149.743652, 4189.743652, 4209.743652, 4187.692383, 4197.948730, 4214.358887, 4204.615234, 4232.307617, 4378.974121, 4181.538574, 4200.512695, 4113.846191, 4166.666504, 0.000000, 8075.000000, 8159.000000, 0.000000, 0.000000, 0.000000, 25829.000000, 685.640991, 4.000000, 4.000000, 4.000000, 4.000000, 4.000000, 4.000000, 4.000000, 4.000000, 4.000000, 4.000000, 4.000000, 4.000000, 4.000000, 4.000000, 4.000000, 4.000000
58.000000, 0.000000, 4195.897461, 4141.538574, 4186.153809, 4201.025391, 4185.641113, 4191.794922, 4211.281738, 4198.974121, 4234.358887, 4381.538574, 4187.179199, 4201.538574, 4124.102539, 4171.794922, 0.000000, 8075.000000, 8159.000000, 0.000000, 0.000000, 0.000000, 25829.000000, 693.333313, 4.000000, 4.000000, 4.000000, 4.000000, 4.000000, 4.000000, 4.000000, 4.000000, 4.000000, 4.000000, 4.000000, 4.000000, 4.000000, 4.000000, 4.000000, 4.000000
59.000000, 0.000000, 4194.358887, 4141.538574, 4186.153809, 4202.563965, 4180.512695, 4194.871582, 4217.436035, 4204.615234, 4233.333008, 4378.461426, 4188.205078, 4204.615234, 4124.615234, 4170.769043, 0.000000, 8086.000000, 8163.000000, 0.000000, 0.000000, 0.000000, 25829.000000, 701.025635, 4.000000, 4.000000, 4.000000, 4.000000, 4.000000, 4.000000, 4.000000, 4.000000, 4.000000, 4.000000, 4.000000, 4.000000, 4.000000, 4.000000, 4.000000, 4.000000
60.000000, 0.000000, 4193.333008, 4138.461426, 4185.641113, 4202.051270, 4178.974121, 4201.538574, 4214.358887, 4202.051270, 4234.871582, 4381.538574, 4184.102539, 4200.000000, 4120.000000, 4163.589844, 0.000000, 8086.000000, 8163.000000, 0.000000, 0.000000, 0.000000, 25829.000000, 709.230774, 4.000000, 4.000000, 4.000000, 4.000000, 4.000000, 4.000000, 4.000000, 4.000000, 4.000000, 4.000000, 4.000000, 4.000000, 4.000000, 4.000000, 4.000000, 4.000000
61.000000, 0.000000, 4189.743652, 4141.538574, 4184.102539, 4201.025391, 4180.000000, 4200.000000, 4200.000000, 4192.307617, 4232.307617, 4375.897461, 4174.358887, 4188.205078, 4114.871582, 4155.384277, 0.000000, 8097.000000, 8164.000000, 0.000000, 0.000000, 0.000000, 25829.000000, 716.923035, 4.000000, 4.000000, 4.000000, 4.000000, 4.000000, 4.000000, 4.000000, 4.000000, 4.000000, 4.000000, 4.000000, 4.000000, 4.000000, 4.000000, 4.000000, 4.000000
62.000000, 0.000000, 4183.589844, 4152.820313, 4181.538574, 4205.127930, 4184.102539, 4195.384277, 4195.897461, 4181.538574, 4220.000000, 4365.127930, 4168.717773, 4181.538574, 4114.871582, 4146.666504, 0.000000, 8097.000000, 8164.000000, 0.000000, 0.000000, 0.000000, 25829.000000, 725.128174, 4.000000, 4.000000, 4.000000, 4.000000, 4.000000, 4.000000, 4.000000, 4.000000, 4.000000, 4.000000, 4.000000, 4.000000, 4.000000, 4.000000, 4.000000, 4.000000
63.000000, 0.000000, 4185.127930, 4155.897461, 4182.563965, 4200.512695, 4188.717773, 4200.000000, 4203.589844, 4172.820313, 4213.846191, 4365.127930, 4171.794922, 4184.615234, 4121.025391, 4144.615234, 0.000000, 8110.000000, 8164.000000, 0.000000, 0.000000, 0.000000, 25829.000000, 732.820496, 4.000000, 4.000000, 4.000000, 4.000000, 4.000000, 4.000000, 4.000000, 4.000000, 4.000000, 4.000000, 4.000000, 4.000000, 4.000000, 4.000000, 4.000000, 4.000000
64.000000, 0.000000, 4190.769043, 4151.794922, 4183.589844, 4201.025391, 4186.666504, 4202.563965, 4198.461426, 4169.230469, 4216.410156, 4367.692383, 4171.794922, 4185.641113, 4122.051270, 4150.769043, 3492.000000, 8110.000000, 8164.000000, 0.000000, 0.000000, 0.000000, 25829.000000, 740.512817, 4.000000, 4.000000, 4.000000, 4.000000, 4.000000, 4.000000, 4.000000, 4.000000, 4.000000, 4.000000, 4.000000, 4.000000, 4.000000, 4.000000, 4.000000, 4.000000
65.000000, 0.000000, 4196.410156, 4157.948730, 4183.589844, 4205.127930, 4184.102539, 4199.487305, 4186.666504, 4176.410156, 4217.948730, 4370.256348, 4172.820313, 4185.641113, 4120.512695, 4155.384277, 2272.000000, 8141.000000, 8157.000000, 0.000000, 0.000000, 0.000000, 25829.000000, 748.717957, 4.000000, 4.000000, 4.000000, 4.000000, 4.000000, 4.000000, 4.000000, 4.000000, 4.000000, 4.000000, 4.000000, 4.000000, 4.000000, 4.000000, 4.000000, 4.000000
66.000000, 0.000000, 4202.563965, 4169.743652, 4186.666504, 4208.205078, 4190.769043, 4197.948730, 4188.717773, 4174.871582, 4216.410156, 4373.333008, 4180.000000, 4186.153809, 4127.692383, 4155.897461, 3135.000000, 8141.000000, 8157.000000, 0.000000, 0.000000, 0.000000, 25829.000000, 756.410217, 4.000000, 4.000000, 4.000000, 4.000000, 4.000000, 4.000000, 4.000000, 4.000000, 4.000000, 4.000000, 4.000000, 4.000000, 4.000000, 4.000000, 4.000000, 4.000000
67.000000, 0.000000, 4201.538574, 4169.230469, 4187.692383, 4211.281738, 4200.512695, 4200.512695, 4197.436035, 4167.692383, 4211.281738, 4370.256348, 4175.384277, 4180.000000, 4127.179199, 4153.333008, 3559.000000, 8157.000000, 8157.000000, 0.000000, 0.000000, 0.000000, 25829.000000, 764.615356, 4.000000, 4.000000, 4.000000, 4.000000, 4.000000, 4.000000, 4.000000, 4.000000, 4.000000, 4.000000, 4.000000, 4.000000, 4.000000, 4.000000, 4.000000, 4.000000
68.000000, 0.000000, 4193.333008, 4157.948730, 4183.589844, 4202.563965, 4202.051270, 4205.641113, 4202.563965, 4171.281738, 4203.076660, 4357.948730, 4158.974121, 4170.256348, 4110.769043, 4143.589844, 3526.000000, 8157.000000, 8157.000000, 0.000000, 0.000000, 0.000000, 25829.000000, 772.820496, 4.000000, 4.000000, 4.000000, 4.000000, 4.000000, 4.000000, 4.000000, 4.000000, 4.000000, 4.000000, 4.000000, 4.000000, 4.000000, 4.000000, 4.000000, 4.000000
69.000000, 0.000000, 4185.127930, 4150.256348, 4178.974121, 4197.948730, 4191.281738, 4205.127930, 4196.922852, 4168.717773, 4194.358887, 4346.153809, 4148.717773, 4164.615234, 4097.948730, 4131.281738, 3553.000000, 8187.000000, 8160.000000, 0.000000, 0.000000, 0.000000, 25829.000000, 780.512817, 4.000000, 4.000000, 4.000000, 4.000000, 4.000000, 4.000000, 4.000000, 4.000000, 4.000000, 4.000000, 4.000000, 4.000000, 4.000000, 4.000000, 4.000000, 4.000000
70.000000, 0.000000, 4179.487305, 4149.230469, 4177.436035, 4197.948730, 4184.102539, 4204.615234, 4194.871582, 4167.179199, 4203.589844, 4349.230469, 4150.256348, 4167.179199, 4101.025391, 4132.820313, 3521.000000, 8187.000000, 8160.000000, 0.000000, 0.000000, 0.000000, 25829.000000, 788.717957, 4.000000, 4.000000, 4.000000, 4.000000, 4.000000, 4.000000, 4.000000, 4.000000, 4.000000, 4.000000, 4.000000, 4.000000, 4.000000, 4.000000, 4.000000, 4.000000
71.000000, 0.000000, 4186.666504, 4153.846191, 4179.487305, 4196.410156, 4184.615234, 4201.025391, 4195.384277, 4183.076660, 4223.076660, 4367.179199, 4162.051270, 4178.461426, 4114.358887, 4147.179199, 3524.000000, 8206.000000, 8156.000000, 0.000000, 0.000000, 0.000000, 25829.000000, 796.410217, 4.000000, 4.000000, 4.000000, 4.000000, 4.000000, 4.000000, 4.000000, 4.000000, 4.000000, 4.000000, 4.000000, 4.000000, 4.000000, 4.000000, 4.000000, 4.000000
72.000000, 0.000000, 4202.051270, 4164.615234, 4188.205078, 4204.102539, 4177.436035, 4185.127930, 4190.256348, 4190.769043, 4225.127930, 4377.435547, 4175.897461, 4191.794922, 4127.179199, 4163.589844, 3347.000000, 8206.000000, 8156.000000, 0.000000, 0.000000, 0.000000, 25829.000000, 804.102539, 4.000000, 4.000000, 4.000000, 4.000000, 4.000000, 4.000000, 4.000000, 4.000000, 4.000000, 4.000000, 4.000000, 4.000000, 4.000000, 4.000000, 4.000000, 4.000000
73.000000, 0.000000, 4209.230469, 4172.820313, 4198.974121, 4209.743652, 4176.922852, 4178.974121, 4183.076660, 4176.922852, 4214.358887, 4377.948730, 4184.615234, 4198.974121, 4138.974121, 4179.487305, 3518.000000, 8221.000000, 8155.000000, 0.000000, 0.000000, 0.000000, 25829.000000, 812.307678, 4.000000, 4.000000, 4.000000, 4.000000, 4.000000, 4.000000, 4.000000, 4.000000, 4.000000, 4.000000, 4.000000, 4.000000, 4.000000, 4.000000, 4.000000, 4.000000
74.000000, 0.000000, 4209.743652, 4175.897461, 4202.563965, 4215.384277, 4193.846191, 4194.358887, 4180.512695, 4158.461426, 4210.769043, 4383.589844, 4188.717773, 4204.615234, 4149.230469, 4186.666504, 3321.000000, 8221.000000, 8155.000000, 0.000000, 0.000000, 0.000000, 25829.000000, 820.000000, 4.000000, 4.000000, 4.000000, 4.000000, 4.000000, 4.000000, 4.000000, 4.000000, 4.000000, 4.000000, 4.000000, 4.000000, 4.000000, 4.000000, 4.000000, 4.000000
75.000000, 0.000000, 4211.281738, 4182.051270, 4200.000000, 4213.333008, 4204.615234, 4206.153809, 4187.692383, 4171.281738, 4217.436035, 4389.743652, 4192.820313, 4206.153809, 4157.436035, 4185.127930, 3582.000000, 8245.000000, 8158.000000, 0.000000, 0.000000, 0.000000, 25829.000000, 828.205078, 4.000000, 4.000000, 4.000000, 4.000000, 4.000000, 4.000000, 4.000000, 4.000000, 4.000000, 4.000000, 4.000000, 4.000000, 4.000000, 4.000000, 4.000000, 4.000000
76.000000, 0.000000, 4214.871582, 4188.717773, 4198.461426, 4209.230469, 4200.512695, 4203.076660, 4196.922852, 4193.333008, 4221.025391, 4391.281738, 4195.384277, 4201.538574, 4158.461426, 4186.666504, 3522.000000, 8245.000000, 8158.000000, 0.000000, 0.000000, 0.000000, 25829.000000, 835.897400, 4.000000, 4.000000, 4.000000, 4.000000, 4.000000, 4.000000, 4.000000, 4.000000, 4.000000, 4.000000, 4.000000, 4.000000, 4.000000, 4.000000, 4.000000, 4.000000
77.000000, 0.000000, 4213.846191, 4186.666504, 4196.922852, 4212.820313, 4195.384277, 4196.922852, 4194.871582, 4178.974121, 4214.871582, 4388.717773, 4188.717773, 4199.487305, 4152.820313, 4183.589844, 3492.000000, 8256.000000, 8153.000000, 0.000000, 0.000000, 0.000000, 25829.000000, 843.589722, 4.000000, 4.000000, 4.000000, 4.000000, 4.000000, 4.000000, 4.000000, 4.000000, 4.000000, 4.000000, 4.000000, 4.000000, 4.000000, 4.000000, 4.000000, 4.000000
78.000000, 0.000000, 4213.333008, 4183.589844, 4195.897461, 4208.205078, 4191.281738, 4195.384277, 4191.794922, 4172.820313, 4216.410156, 4388.717773, 4184.615234, 4200.512695, 4150.769043, 4178.461426, 3321.000000, 8256.000000, 8153.000000, 0.000000, 0.000000, 0.000000, 25829.000000, 851.282043, 4.000000, 4.000000, 4.000000, 4.000000, 4.000000, 4.000000, 4.000000, 4.000000, 4.000000, 4.000000, 4.000000, 4.000000, 4.000000, 4.000000, 4.000000, 4.000000
79.000000, 0.000000, 4220.000000, 4191.794922, 4202.051270, 4210.256348, 4193.333008, 4203.076660, 4204.102539, 4202.563965, 4231.281738, 4393.846191, 4192.820313, 4203.076660, 4154.871582, 4184.102539, 3582.000000, 8270.000000, 8160.000000, 0.000000, 0.000000, 0.000000, 25829.000000, 859.487183, 4.000000, 4.000000, 4.000000, 4.000000, 4.000000, 4.000000, 4.000000, 4.000000, 4.000000, 4.000000, 4.000000, 4.000000, 4.000000, 4.000000, 4.000000, 4.000000
80.000000, 0.000000, 4217.948730, 4201.025391, 4203.076660, 4215.384277, 4194.358887, 4203.076660, 4202.563965, 4202.563965, 4234.358887, 4395.897461, 4196.922852, 4204.615234, 4156.410156, 4186.666504, 3522.000000, 8270.000000, 8160.000000, 0.000000, 0.000000, 0.000000, 25829.000000, 867.179443, 4.000000, 4.000000, 4.000000, 4.000000, 4.000000, 4.000000, 4.000000, 4.000000, 4.000000, 4.000000, 4.000000, 4.000000, 4.000000, 4.000000, 4.000000, 4.000000
81.000000, 0.000000, 4211.281738, 4194.871582, 4191.281738, 4208.717773, 4185.127930, 4186.666504, 4181.538574, 4187.179199, 4231.281738, 4393.846191, 4190.256348, 4196.922852, 4155.384277, 4174.871582, 3492.000000, 8272.000000, 8160.000000, 0.000000, 0.000000, 0.000000, 25829.000000, 875.384583, 4.000000, 4.000000, 4.000000, 4.000000, 4.000000, 4.000000, 4.000000, 4.000000, 4.000000, 4.000000, 4.000000, 4.000000, 4.000000, 4.000000, 4.000000, 4.000000
82.000000, 0.000000, 4207.179199, 4184.102539, 4182.563965, 4206.666504, 4180.512695, 4183.589844, 4182.563965, 4202.563965, 4235.384277, 4390.256348, 4186.153809, 4190.256348, 4152.307617, 4167.179199, 3321.000000, 8272.000000, 8160.000000, 0.000000, 0.000000, 0.000000, 25829.000000, 883.076904, 4.000000, 4.000000, 4.000000, 4.000000, 4.000000, 4.000000, 4.000000, 4.000000, 4.000000, 4.000000, 4.000000, 4.000000, 4.000000, 4.000000, 4.000000, 4.000000
83.000000, 0.000000, 4206.153809, 4188.205078, 4183.589844, 4207.692383, 4188.205078, 4198.461426, 4196.410156, 4201.025391, 4229.230469, 4389.230469, 4186.666504, 4190.256348, 4150.256348, 4171.281738, 3582.000000, 8267.000000, 8187.000000, 0.000000, 0.000000, 0.000000, 25829.000000, 890.769226, 4.000000, 4.000000, 4.000000, 4.000000, 4.000000, 4.000000, 4.000000, 4.000000, 4.000000, 4.000000, 4.000000, 4.000000, 4.000000, 4.000000, 4.000000, 4.000000
84.000000, 0.000000, 4210.769043, 4199.487305, 4185.641113, 4209.743652, 4193.846191, 4204.102539, 4189.743652, 4173.846191, 4220.000000, 4390.769043, 4187.692383, 4190.769043, 4152.307617, 4173.333008, 3522.000000, 8267.000000, 8187.000000, 0.000000, 0.000000, 0.000000, 25829.000000, 898.974365, 4.000000, 4.000000, 4.000000, 4.000000, 4.000000, 4.000000, 4.000000, 4.000000, 4.000000, 4.000000, 4.000000, 4.000000, 4.000000, 4.000000, 4.000000, 4.000000
85.000000, 0.000000, 4214.358887, 4199.487305, 4184.102539, 4211.281738, 4194.871582, 4200.000000, 4182.051270, 4180.512695, 4222.051270, 4386.666504, 4187.692383, 4192.820313, 4148.717773, 4172.820313, 3492.000000, 8260.000000, 8201.000000, 0.000000, 0.000000, 0.000000, 25829.000000, 906.666626, 4.000000, 4.000000, 4.000000, 4.000000, 4.000000, 4.000000, 4.000000, 4.000000, 4.000000, 4.000000, 4.000000, 4.000000, 4.000000, 4.000000, 4.000000, 4.000000
86.000000, 0.000000, 4209.230469, 4191.794922, 4183.589844, 4206.666504, 4192.307617, 4197.948730, 4189.230469, 4205.127930, 4223.589844, 4374.871582, 4185.641113, 4192.307617, 4138.974121, 4171.281738, 3321.000000, 8260.000000, 8201.000000, 0.000000, 0.000000, 0.000000, 25829.000000, 914.871765, 4.000000, 4.000000, 4.000000, 4.000000, 4.000000, 4.000000, 4.000000, 4.000000, 4.000000, 4.000000, 4.000000, 4.000000, 4.000000, 4.000000, 4.000000, 4.000000
87.000000, 0.000000, 4206.666504, 4187.692383, 4184.102539, 4206.666504, 4187.179199, 4202.563965, 4191.794922, 4193.846191, 4216.922852, 4367.179199, 4181.538574, 4188.205078, 4136.410156, 4172.307617, 3582.000000, 8254.000000, 8216.000000, 0.000000, 0.000000, 0.000000, 25829.000000, 922.564087, 4.000000, 4.000000, 4.000000, 4.000000, 4.000000, 4.000000, 4.000000, 4.000000, 4.000000, 4.000000, 4.000000, 4.000000, 4.000000, 4.000000, 4.000000, 4.000000
88.000000, 0.000000, 4214.871582, 4183.589844, 4185.641113, 4204.102539, 4185.127930, 4200.512695, 4185.641113, 4167.179199, 4206.666504, 4366.153809, 4182.051270, 4189.743652, 4135.897461, 4177.436035, 3522.000000, 8254.000000, 8216.000000, 0.000000, 0.000000, 0.000000, 25829.000000, 930.256409, 4.000000, 4.000000, 4.000000, 4.000000, 4.000000, 4.000000, 4.000000, 4.000000, 4.000000, 4.000000, 4.000000, 4.000000, 4.000000, 4.000000, 4.000000, 4.000000
89.000000, 0.000000, 4217.948730, 4178.461426, 4191.281738, 4205.127930, 4184.102539, 4187.692383, 4184.102539, 4175.384277, 4207.692383, 4362.563965, 4186.153809, 4195.897461, 4132.307617, 4180.000000, 3492.000000, 8246.000000, 8236.000000, 0.000000, 0.000000, 0.000000, 25829.000000, 938.461487, 4.000000, 4.000000, 4.000000, 4.000000, 4.000000, 4.000000, 4.000000, 4.000000, 4.000000, 4.000000, 4.000000, 4.000000, 4.000000, 4.000000, 4.000000, 4.000000
90.000000, 0.000000, 4208.205078, 4170.256348, 4191.794922, 4207.692383, 4185.641113, 4187.179199, 4184.615234, 4192.820313, 4212.820313, 4358.974121, 4179.487305, 4192.820313, 4120.000000, 4172.820313, 3321.000000, 8246.000000, 8236.000000, 0.000000, 0.000000, 0.000000, 25829.000000, 946.153809, 4.000000, 4.000000, 4.000000, 4.000000, 4.000000, 4.000000, 4.000000, 4.000000, 4.000000, 4.000000, 4.000000, 4.000000, 4.000000, 4.000000, 4.000000, 4.000000
91.000000, 0.000000, 4198.974121, 4157.948730, 4181.538574, 4198.461426, 4188.717773, 4198.974121, 4186.153809, 4169.743652, 4204.615234, 4350.769043, 4166.153809, 4182.563965, 4105.127930, 4162.051270, 3582.000000, 8236.000000, 8242.000000, 0.000000, 0.000000, 0.000000, 25829.000000, 954.358948, 4.000000, 4.000000, 4.000000, 4.000000, 4.000000, 4.000000, 4.000000, 4.000000, 4.000000, 4.000000, 4.000000, 4.000000, 4.000000, 4.000000, 4.000000, 4.000000
92.000000, 0.000000, 4199.487305, 4156.922852, 4178.461426, 4198.974121, 4188.205078, 4204.102539, 4186.666504, 4163.589844, 4203.076660, 4349.743652, 4167.692383, 4184.615234, 4112.820313, 4167.692383, 3522.000000, 8236.000000, 8242.000000, 0.000000, 0.000000, 0.000000, 25829.000000, 962.051270, 4.000000, 4.000000, 4.000000, 4.000000, 4.000000, 4.000000, 4.000000, 4.000000, 4.000000, 4.000000, 4.000000, 4.000000, 4.000000, 4.000000, 4.000000, 4.000000
93.000000, 0.000000, 4201.025391, 4162.051270, 4185.127930, 4203.076660, 4187.692383, 4198.974121, 4181.538574, 4184.615234, 4219.487305, 4351.794922, 4172.307617, 4187.692383, 4117.948730, 4172.820313, 3492.000000, 8212.000000, 8244.000000, 0.000000, 0.000000, 0.000000, 25829.000000, 970.256409, 4.000000, 4.000000, 4.000000, 4.000000, 4.000000, 4.000000, 4.000000, 4.000000, 4.000000, 4.000000, 4.000000, 4.000000, 4.000000, 4.000000, 4.000000, 4.000000
94.000000, 0.000000, 4195.384277, 4153.846191, 4186.153809, 4201.538574, 4186.666504, 4201.025391, 4182.051270, 4167.179199, 4218.461426, 4335.897461, 4162.051270, 4182.051270, 4092.820313, 4155.384277, 3321.000000, 8212.000000, 8244.000000, 0.000000, 0.000000, 0.000000, 25829.000000, 977.948669, 4.000000, 4.000000, 4.000000, 4.000000, 4.000000, 4.000000, 4.000000, 4.000000, 4.000000, 4.000000, 4.000000, 4.000000, 4.000000, 4.000000, 4.000000, 4.000000
95.000000, 0.000000, 4198.461426, 4152.307617, 4189.230469, 4207.179199, 4190.256348, 4210.256348, 4190.769043, 4148.717773, 4211.794922, 4323.589844, 4160.512695, 4187.179199, 4095.384521, 4156.922852, 3582.000000, 8200.000000, 8241.000000, 0.000000, 0.000000, 0.000000, 25829.000000, 986.153809, 4.000000, 4.000000, 4.000000, 4.000000, 4.000000, 4.000000, 4.000000, 4.000000, 4.000000, 4.000000, 4.000000, 4.000000, 4.000000, 4.000000, 4.000000, 4.000000
96.000000, 0.000000, 4210.769043, 4163.589844, 4195.897461, 4207.692383, 4192.820313, 4209.230469, 4200.512695, 4178.461426, 4228.205078, 4333.333008, 4175.897461, 4202.051270, 4133.846191, 4185.641113, 3522.000000, 8200.000000, 8241.000000, 0.000000, 0.000000, 0.000000, 25829.000000, 993.846130, 4.000000, 4.000000, 4.000000, 4.000000, 4.000000, 4.000000, 4.000000, 4.000000, 4.000000, 4.000000, 4.000000, 4.000000, 4.000000, 4.000000, 4.000000, 4.000000
97.000000, 0.000000, 4210.769043, 4159.487305, 4191.794922, 4205.641113, 4183.076660, 4198.974121, 4200.000000, 4198.974121, 4234.871582, 4343.589844, 4187.692383, 4205.641113, 4143.589844, 4192.307617, 3492.000000, 8189.000000, 8248.000000, 0.000000, 0.000000, 0.000000, 25830.000000, 1.538461, 4.000000, 4.000000, 4.000000, 4.000000, 4.000000, 4.000000, 4.000000, 4.000000, 4.000000, 4.000000, 4.000000, 4.000000, 4.000000, 4.000000, 4.000000, 4.000000
98.000000, 0.000000, 4205.127930, 4153.846191, 4182.563965, 4203.076660, 4181.538574, 4197.948730, 4191.281738, 4180.000000, 4222.563965, 4332.820313, 4184.102539, 4197.436035, 4135.384277, 4181.538574, 3321.000000, 8189.000000, 8248.000000, 0.000000, 0.000000, 0.000000, 25830.000000, 9.743589, 4.000000, 4.000000, 4.000000, 4.000000, 4.000000, 4.000000, 4.000000, 4.000000, 4.000000, 4.000000, 4.000000, 4.000000, 4.000000, 4.000000, 4.000000, 4.000000
99.000000, 0.000000, 4211.794922, 4160.000000, 4190.769043, 4203.589844, 4195.384277, 4204.615234, 4189.230469, 4173.846191, 4224.102539, 4323.076660, 4182.563965, 4198.461426, 4151.794922, 4191.281738, 3582.000000, 8174.000000, 8236.000000, 0.000000, 0.000000, 0.000000, 25830.000000, 17.435898, 4.000000, 4.000000, 4.000000, 4.000000, 4.000000, 4.000000, 4.000000, 4.000000, 4.000000, 4.000000, 4.000000, 4.000000, 4.000000, 4.000000, 4.000000, 4.000000
100.000000, 0.000000, 4216.410156, 4160.512695, 4202.563965, 4207.179199, 4195.384277, 4203.076660, 4200.512695, 4185.127930, 4234.358887, 4332.307617, 4194.358887, 4203.076660, 4171.281738, 4205.127930, 3522.000000, 8174.000000, 8236.000000, 0.000000, 0.000000, 0.000000, 25830.000000, 25.641026, 4.000000, 4.000000, 4.000000, 4.000000, 4.000000, 4.000000, 4.000000, 4.000000, 4.000000, 4.000000, 4.000000, 4.000000, 4.000000, 4.000000, 4.000000, 4.000000
101.000000, 0.000000, 4210.769043, 4161.538574, 4194.358887, 4203.589844, 4183.589844, 4201.538574, 4204.102539, 4188.205078, 4234.358887, 4337.436035, 4205.641113, 4202.051270, 4171.794922, 4199.487305, 3492.000000, 8168.000000, 8209.000000, 0.000000, 0.000000, 0.000000, 25830.000000, 33.333332, 4.000000, 4.000000, 4.000000, 4.000000, 4.000000, 4.000000, 4.000000, 4.000000, 4.000000, 4.000000, 4.000000, 4.000000, 4.000000, 4.000000, 4.000000, 4.000000
102.000000, 0.000000, 4206.666504, 4165.127930, 4183.589844, 4203.589844, 4183.076660, 4198.974121, 4197.436035, 4189.230469, 4231.794922, 4323.589844, 4201.025391, 4201.025391, 4164.615234, 4188.717773, 3321.000000, 8168.000000, 8209.000000, 0.000000, 0.000000, 0.000000, 25830.000000, 41.025639, 4.000000, 4.000000, 4.000000, 4.000000, 4.000000, 4.000000, 4.000000, 4.000000, 4.000000, 4.000000, 4.000000, 4.000000, 4.000000, 4.000000, 4.000000, 4.000000
103.000000, 0.000000, 4207.179199, 4169.743652, 4188.717773, 4202.051270, 4182.563965, 4192.820313, 4198.974121, 4196.410156, 4233.333008, 4318.461426, 4189.743652, 4203.076660, 4167.179199, 4187.692383, 3582.000000, 8161.000000, 8224.000000, 0.000000, 0.000000, 0.000000, 25830.000000, 49.230766, 4.000000, 4.000000, 4.000000, 4.000000, 4.000000, 4.000000, 4.000000, 4.000000, 4.000000, 4.000000, 4.000000, 4.000000, 4.000000, 4.000000, 4.000000, 4.000000
104.000000, 0.000000, 4206.666504, 4171.794922, 4194.358887, 4196.922852, 4176.410156, 4188.717773, 4200.000000, 4200.512695, 4234.358887, 4318.461426, 4185.641113, 4200.512695, 4174.358887, 4191.794922, 3522.000000, 8161.000000, 8224.000000, 0.000000, 0.000000, 0.000000, 25830.000000, 56.923077, 4.000000, 4.000000, 4.000000, 4.000000, 4.000000, 4.000000, 4.000000, 4.000000, 4.000000, 4.000000, 4.000000, 4.000000, 4.000000, 4.000000, 4.000000, 4.000000
105.000000, 0.000000, 4196.410156, 4155.897461, 4182.051270, 4193.333008, 4169.743652, 4181.538574, 4189.743652, 4202.051270, 4231.794922, 4298.461426, 4182.051270, 4190.769043, 4167.179199, 4184.615234, 3492.000000, 8151.000000, 8245.000000, 0.000000, 0.000000, 0.000000, 25830.000000, 65.128204, 4.000000, 4.000000, 4.000000, 4.000000, 4.000000, 4.000000, 4.000000, 4.000000, 4.000000, 4.000000, 4.000000, 4.000000, 4.000000, 4.000000, 4.000000, 4.000000
106.000000, 0.000000, 4193.846191, 4150.256348, 4179.487305, 4189.743652, 4167.179199, 4180.512695, 4183.076660, 4200.512695, 4226.153809, 4289.230469, 4183.076660, 4189.230469, 4166.666504, 4181.538574, 3321.000000, 8151.000000, 8245.000000, 0.000000, 0.000000, 0.000000, 25830.000000, 72.820511, 4.000000, 4.000000, 4.000000, 4.000000, 4.000000, 4.000000, 4.000000, 4.000000, 4.000000, 4.000000, 4.000000, 4.000000, 4.000000, 4.000000, 4.000000, 4.000000
107.000000, 0.000000, 4212.307617, 4173.333008, 4195.384277, 4200.000000, 4175.897461, 4195.384277, 4191.281738, 4181.538574, 4222.051270, 4297.948730, 4194.871582, 4201.025391, 4188.205078, 4198.974121, 3582.000000, 8144.000000, 8244.000000, 0.000000, 0.000000, 0.000000, 25830.000000, 80.512817, 4.000000, 4.000000, 4.000000, 4.000000, 4.000000, 4.000000, 4.000000, 4.000000, 4.000000, 4.000000, 4.000000, 4.000000, 4.000000, 4.000000, 4.000000, 4.000000
108.000000, 0.000000, 4227.692383, 4187.692383, 4203.076660, 4208.717773, 4190.769043, 4207.692383, 4203.076660, 4189.743652, 4230.256348, 4298.461426, 4202.563965, 4211.794922, 4204.615234, 4213.846191, 3522.000000, 8144.000000, 8244.000000, 0.000000, 0.000000, 0.000000, 25830.000000, 88.717949, 4.000000, 4.000000, 4.000000, 4.000000, 4.000000, 4.000000, 4.000000, 4.000000, 4.000000, 4.000000, 4.000000, 4.000000, 4.000000, 4.000000, 4.000000, 4.000000
109.000000, 0.000000, 4229.230469, 4188.205078, 4203.076660, 4206.666504, 4190.256348, 4205.127930, 4204.102539, 4216.922852, 4236.410156, 4295.897461, 4203.589844, 4211.281738, 4210.256348, 4214.871582, 3492.000000, 8137.000000, 8190.000000, 0.000000, 0.000000, 0.000000, 25830.000000, 96.410255, 4.000000, 4.000000, 4.000000, 4.000000, 4.000000, 4.000000, 4.000000, 4.000000, 4.000000, 4.000000, 4.000000, 4.000000, 4.000000, 4.000000, 4.000000, 4.000000
110.000000, 0.000000, 4228.205078, 4195.384277, 4210.256348, 4209.230469, 4184.102539, 4201.025391, 4201.025391, 4205.127930, 4231.794922, 4294.358887, 4203.589844, 4212.307617, 4216.410156, 4213.846191, 3321.000000, 8137.000000, 8190.000000, 0.000000, 0.000000, 0.000000, 25830.000000, 104.102562, 4.000000, 4.000000, 4.000000, 4.000000, 4.000000, 4.000000, 4.000000, 4.000000, 4.000000, 4.000000, 4.000000, 4.000000, 4.000000, 4.000000, 4.000000, 4.000000
111.000000, 0.000000, 4231.281738, 4196.410156, 4214.358887, 4207.692383, 4186.666504, 4200.512695, 4203.589844, 4194.871582, 4240.000000, 4293.333008, 4206.153809, 4214.871582, 4226.153809, 4215.897461, 3582.000000, 8138.000000, 8181.000000, 0.000000, 0.000000, 0.000000, 25830.000000, 112.307686, 4.000000, 4.000000, 4.000000, 4.000000, 4.000000, 4.000000, 4.000000, 4.000000, 4.000000, 4.000000, 4.000000, 4.000000, 4.000000, 4.000000, 4.000000, 4.000000
112.000000, 0.000000, 4231.281738, 4192.820313, 4212.307617, 4207.179199, 4183.589844, 4197.948730, 4206.153809, 4218.974121, 4254.871582, 4295.384277, 4204.102539, 4213.333008, 4231.794922, 4215.384277, 3522.000000, 8138.000000, 8181.000000, 0.000000, 0.000000, 0.000000, 25830.000000, 120.000000, 4.000000, 4.000000, 4.000000, 4.000000, 4.000000, 4.000000, 4.000000, 4.000000, 4.000000, 4.000000, 4.000000, 4.000000, 4.000000, 4.000000, 4.000000, 4.000000
113.000000, 0.000000, 4225.641113, 4198.461426, 4210.256348, 4207.179199, 4179.487305, 4198.461426, 4201.025391, 4221.538574, 4247.179199, 4285.641113, 4200.000000, 4211.281738, 4232.820313, 4210.769043, 3492.000000, 8139.000000, 8181.000000, 0.000000, 0.000000, 0.000000, 25830.000000, 128.205124, 4.000000, 4.000000, 4.000000, 4.000000, 4.000000, 4.000000, 4.000000, 4.000000, 4.000000, 4.000000, 4.000000, 4.000000, 4.000000, 4.000000, 4.000000, 4.000000
114.000000, 0.000000, 4226.666504, 4204.615234, 4207.692383, 4202.051270, 4185.641113, 4204.102539, 4198.974121, 4204.615234, 4234.358887, 4273.846191, 4198.974121, 4208.205078, 4238.974121, 4204.615234, 3321.000000, 8139.000000, 8181.000000, 0.000000, 0.000000, 0.000000, 25830.000000, 135.897430, 4.000000, 4.000000, 4.000000, 4.000000, 4.000000, 4.000000, 4.000000, 4.000000, 4.000000, 4.000000, 4.000000, 4.000000, 4.000000, 4.000000, 4.000000, 4.000000
115.000000, 0.000000, 4229.230469, 4202.563965, 4203.076660, 4203.589844, 4181.025391, 4204.615234, 4203.589844, 4207.179199, 4230.769043, 4274.871582, 4200.512695, 4206.666504, 4248.717773, 4202.051270, 3582.000000, 8138.000000, 8185.000000, 0.000000, 0.000000, 0.000000, 25830.000000, 144.102554, 4.000000, 4.000000, 4.000000, 4.000000, 4.000000, 4.000000, 4.000000, 4.000000, 4.000000, 4.000000, 4.000000, 4.000000, 4.000000, 4.000000, 4.000000, 4.000000
116.000000, 0.000000, 4224.615234, 4201.538574, 4199.487305, 4202.563965, 4172.820313, 4200.000000, 4197.948730, 4210.256348, 4226.666504, 4272.820313, 4198.461426, 4198.974121, 4250.769043, 4200.512695, 3522.000000, 8138.000000, 8185.000000, 0.000000, 0.000000, 0.000000, 25830.000000, 151.794861, 4.000000, 4.000000, 4.000000, 4.000000, 4.000000, 4.000000, 4.000000, 4.000000, 4.000000, 4.000000, 4.000000, 4.000000, 4.000000, 4.000000, 4.000000, 4.000000
117.000000, 0.000000, 4223.589844, 4214.358887, 4200.512695, 4203.076660, 4180.512695, 4198.974121, 4190.256348, 4193.846191, 4213.333008, 4258.461426, 4191.281738, 4192.307617, 4247.179199, 4198.974121, 3492.000000, 8144.000000, 8190.000000, 0.000000, 0.000000, 0.000000, 25830.000000, 160.000000, 4.000000, 4.000000, 4.000000, 4.000000, 4.000000, 4.000000, 4.000000, 4.000000, 4.000000, 4.000000, 4.000000, 4.000000, 4.000000, 4.000000, 4.000000, 4.000000
118.000000, 0.000000, 4230.256348, 4227.692383, 4204.615234, 4204.615234, 4187.179199, 4196.410156, 4192.820313, 4177.436035, 4201.538574, 4245.641113, 4185.127930, 4195.384277, 4247.179199, 4198.974121, 3321.000000, 8144.000000, 8190.000000, 0.000000, 0.000000, 0.000000, 25830.000000, 167.692307, 4.000000, 4.000000, 4.000000, 4.000000, 4.000000, 4.000000, 4.000000, 4.000000, 4.000000, 4.000000, 4.000000, 4.000000, 4.000000, 4.000000, 4.000000, 4.000000
119.000000, 0.000000, 4234.871582, 4223.589844, 4207.692383, 4203.076660, 4183.076660, 4184.615234, 4190.769043, 4185.641113, 4207.692383, 4246.153809, 4185.127930, 4197.436035, 4247.179199, 4200.000000, 3582.000000, 8147.000000, 8195.000000, 0.000000, 0.000000, 0.000000, 25830.000000, 175.897430, 4.000000, 4.000000, 4.000000, 4.000000, 4.000000, 4.000000, 4.000000, 4.000000, 4.000000, 4.000000, 4.000000, 4.000000, 4.000000, 4.000000, 4.000000, 4.000000
120.000000, 0.000000, 4230.769043, 4221.538574, 4204.615234, 4208.717773, 4181.025391, 4181.538574, 4184.102539, 4200.000000, 4213.333008, 4248.717773, 4186.153809, 4193.846191, 4247.692383, 4197.948730, 3522.000000, 8147.000000, 8195.000000, 0.000000, 0.000000, 0.000000, 25830.000000, 183.589737, 4.000000, 4.000000, 4.000000, 4.000000, 4.000000, 4.000000, 4.000000, 4.000000, 4.000000, 4.000000, 4.000000, 4.000000, 4.000000, 4.000000, 4.000000, 4.000000
121.000000, 0.000000, 4229.230469, 4230.256348, 4197.436035, 4202.563965, 4183.589844, 4195.897461, 4185.641113, 4190.769043, 4205.127930, 4241.025391, 4183.076660, 4191.794922, 4245.641113, 4193.846191, 3492.000000, 8154.000000, 8200.000000, 0.000000, 0.000000, 0.000000, 25830.000000, 191.282043, 4.000000, 4.000000, 4.000000, 4.000000, 4.000000, 4.000000, 4.000000, 4.000000, 4.000000, 4.000000, 4.000000, 4.000000, 4.000000, 4.000000, 4.000000, 4.000000
122.000000, 0.000000, 4234.871582, 4232.820313, 4197.948730, 4197.436035, 4186.666504, 4205.641113, 4188.205078, 4183.076660, 4201.025391, 4237.436035, 4187.692383, 4200.512695, 4248.205078, 4198.461426, 3321.000000, 8154.000000, 8200.000000, 0.000000, 0.000000, 0.000000, 25830.000000, 199.487167, 4.000000, 4.000000, 4.000000, 4.000000, 4.000000, 4.000000, 4.000000, 4.000000, 4.000000, 4.000000, 4.000000, 4.000000, 4.000000, 4.000000, 4.000000, 4.000000
123.000000, 0.000000, 4241.025391, 4233.846191, 4207.179199, 4204.615234, 4185.127930, 4203.589844, 4191.794922, 4186.153809, 4202.563965, 4242.563965, 4195.384277, 4209.230469, 4256.410156, 4208.205078, 3582.000000, 8156.000000, 8193.000000, 0.000000, 0.000000, 0.000000, 25830.000000, 207.179489, 4.000000, 4.000000, 4.000000, 4.000000, 4.000000, 4.000000, 4.000000, 4.000000, 4.000000, 4.000000, 4.000000, 4.000000, 4.000000, 4.000000, 4.000000, 4.000000
124.000000, 0.000000, 4246.666504, 4244.615234, 4212.820313, 4205.641113, 4184.102539, 4202.051270, 4200.000000, 4183.076660, 4204.615234, 4246.153809, 4201.538574, 4210.769043, 4263.589844, 4211.794922, 3522.000000, 8156.000000, 8193.000000, 0.000000, 0.000000, 0.000000, 25830.000000, 215.384613, 4.000000, 4.000000, 4.000000, 4.000000, 4.000000, 4.000000, 4.000000, 4.000000, 4.000000, 4.000000, 4.000000, 4.000000, 4.000000, 4.000000, 4.000000, 4.000000
125.000000, 0.000000, 4255.384277, 4262.563965, 4215.384277, 4215.384277, 4195.384277, 4201.538574, 4202.051270, 4203.076660, 4219.487305, 4252.820313, 4210.256348, 4218.461426, 4272.820313, 4221.538574, 3492.000000, 8157.000000, 8196.000000, 0.000000, 0.000000, 0.000000, 25830.000000, 223.076920, 4.000000, 4.000000, 4.000000, 4.000000, 4.000000, 4.000000, 4.000000, 4.000000, 4.000000, 4.000000, 4.000000, 4.000000, 4.000000, 4.000000, 4.000000, 4.000000
126.000000, 0.000000, 4257.948730, 4268.205078, 4220.512695, 4222.563965, 4204.615234, 4202.051270, 4196.922852, 4224.615234, 4231.794922, 4256.410156, 4214.358887, 4226.666504, 4273.333008, 4226.153809, 3321.000000, 8157.000000, 8196.000000, 0.000000, 0.000000, 0.000000, 25830.000000, 230.769226, 4.000000, 4.000000, 4.000000, 4.000000, 4.000000, 4.000000, 4.000000, 4.000000, 4.000000, 4.000000, 4.000000, 4.000000, 4.000000, 4.000000, 4.000000, 4.000000
127.000000, 0.000000, 4244.615234, 4250.769043, 4216.410156, 4214.358887, 4193.846191, 4204.102539, 4199.487305, 4197.436035, 4214.871582, 4240.512695, 4196.410156, 4216.410156, 4248.205078, 4208.205078, 53.000000, 8161.000000, 8196.000000, 0.000000, 0.000000, 0.000000, 25830.000000, 238.974350, 4.000000, 4.000000, 4.000000, 4.000000, 4.000000, 4.000000, 4.000000, 4.000000, 4.000000, 4.000000, 4.000000, 4.000000, 4.000000, 4.000000, 4.000000, 4.000000
0.000000, 0.000000, 4230.769043, 4237.948730, 4201.538574, 4205.127930, 4182.563965, 4196.922852, 4202.051270, 4175.384277, 4198.461426, 4226.666504, 4183.076660, 4203.589844, 4237.436035, 4198.461426, 3492.000000, 8161.000000, 8196.000000, 0.000000, 0.000000, 0.000000, 25830.000000, 246.666656, 4.000000, 4.000000, 4.000000, 4.000000, 4.000000, 4.000000, 4.000000, 4.000000, 4.000000, 4.000000, 4.000000, 4.000000, 4.000000, 4.000000, 4.000000, 4.000000
1.000000, 0.000000, 4236.922852, 4249.230469, 4196.922852, 4203.589844, 4186.153809, 4188.717773, 4193.333008, 4186.153809, 4201.538574, 4232.307617, 4201.538574, 4209.743652, 4267.179199, 4215.384277, 2275.000000, 8162.000000, 8191.000000, 0.000000, 0.000000, 0.000000, 25830.000000, 254.871796, 4.000000, 4.000000, 4.000000, 4.000000, 4.000000, 4.000000, 4.000000, 4.000000, 4.000000, 4.000000, 4.000000, 4.000000, 4.000000, 4.000000, 4.000000, 4.000000
2.000000, 0.000000, 4247.179199, 4251.281738, 4201.538574, 4207.692383, 4183.076660, 4194.358887, 4183.076660, 4186.153809, 4203.589844, 4231.794922, 4216.410156, 4218.461426, 4287.692383, 4228.205078, 3130.000000, 8162.000000, 8191.000000, 0.000000, 0.000000, 0.000000, 25830.000000, 262.564087, 4.000000, 4.000000, 4.000000, 4.000000, 4.000000, 4.000000, 4.000000, 4.000000, 4.000000, 4.000000, 4.000000, 4.000000, 4.000000, 4.000000, 4.000000, 4.000000
3.000000, 0.000000, 4249.230469, 4244.102539, 4205.127930, 4205.127930, 4168.205078, 4197.948730, 4184.102539, 4181.538574, 4207.179199, 4227.692383, 4220.512695, 4220.512695, 4294.358887, 4234.871582, 3547.000000, 8164.000000, 8187.000000, 0.000000, 0.000000, 0.000000, 25830.000000, 270.256409, 4.000000, 4.000000, 4.000000, 4.000000, 4.000000, 4.000000, 4.000000, 4.000000, 4.000000, 4.000000, 4.000000, 4.000000, 4.000000, 4.000000, 4.000000, 4.000000
4.000000, 0.000000, 4259.487305, 4255.384277, 4212.307617, 4205.127930, 4168.717773, 4199.487305, 4190.256348, 4187.179199, 4211.794922, 4238.974121, 4237.948730, 4228.717773, 4325.127930, 4255.384277, 3528.000000, 8164.000000, 8187.000000, 0.000000, 0.000000, 0.000000, 25830.000000, 278.461517, 4.000000, 4.000000, 4.000000, 4.000000, 4.000000, 4.000000, 4.000000, 4.000000, 4.000000, 4.000000, 4.000000, 4.000000, 4.000000, 4.000000, 4.000000, 4.000000
5.000000, 0.000000, 4267.692383, 4260.000000, 4216.410156, 4211.281738, 4183.589844, 4201.025391, 4189.230469, 4187.179199, 4213.846191, 4250.256348, 4250.769043, 4236.410156, 4349.230469, 4272.820313, 3571.000000, 8166.000000, 8192.000000, 0.000000, 0.000000, 0.000000, 25830.000000, 286.153839, 4.000000, 4.000000, 4.000000, 4.000000, 4.000000, 4.000000, 4.000000, 4.000000, 4.000000, 4.000000, 4.000000, 4.000000, 4.000000, 4.000000, 4.000000, 4.000000
6.000000, 0.000000, 4268.205078, 4253.333008, 4214.871582, 4206.666504, 4187.179199, 4192.820313, 4183.589844, 4192.307617, 4222.051270, 4251.794922, 4251.281738, 4237.948730, 4351.794922, 4278.974121, 3512.000000, 8166.000000, 8192.000000, 0.000000, 0.000000, 0.000000, 25830.000000, 293.846161, 4.000000, 4.000000, 4.000000, 4.000000, 4.000000, 4.000000, 4.000000, 4.000000, 4.000000, 4.000000, 4.000000, 4.000000, 4.000000, 4.000000, 4.000000, 4.000000
7.000000, 0.000000, 4270.256348, 4251.794922, 4217.948730, 4208.205078, 4180.512695, 4190.769043, 4189.230469, 4204.615234, 4232.307617, 4252.307617, 4257.948730, 4247.179199, 4361.025391, 4281.538574, 3516.000000, 8166.000000, 8193.000000, 0.000000, 0.000000, 0.000000, 25830.000000, 302.051270, 4.000000, 4.000000, 4.000000, 4.000000, 4.000000, 4.000000, 4.000000, 4.000000, 4.000000, 4.000000, 4.000000, 4.000000, 4.000000, 4.000000, 4.000000, 4.000000
8.000000, 0.000000, 4272.307617, 4257.948730, 4227.692383, 4213.846191, 4185.127930, 4203.589844, 4204.102539, 4217.436035, 4236.410156, 4256.410156, 4268.205078, 4255.897461, 4371.281738, 4282.051270, 3353.000000, 8166.000000, 8193.000000, 0.000000, 0.000000, 0.000000, 25830.000000, 309.743591, 4.000000, 4.000000, 4.000000, 4.000000, 4.000000, 4.000000, 4.000000, 4.000000, 4.000000, 4.000000, 4.000000, 4.000000, 4.000000, 4.000000, 4.000000, 4.000000
9.000000, 0.000000, 4269.230469, 4257.948730, 4232.820313, 4213.333008, 4189.230469, 4202.563965, 4201.538574, 4230.256348, 4237.436035, 4250.769043, 4263.076660, 4250.256348, 4364.615234, 4277.436035, 3539.000000, 8158.000000, 8187.000000, 0.000000, 0.000000, 0.000000, 25830.000000, 317.948700, 4.000000, 4.000000, 4.000000, 4.000000, 4.000000, 4.000000, 4.000000, 4.000000, 4.000000, 4.000000, 4.000000, 4.000000, 4.000000, 4.000000, 4.000000, 4.000000
10.000000, 0.000000, 4257.436035, 4249.743652, 4227.692383, 4210.256348, 4178.461426, 4189.230469, 4186.666504, 4221.538574, 4233.846191, 4238.461426, 4252.307617, 4240.512695, 4355.897461, 4262.563965, 3316.000000, 8158.000000, 8187.000000, 0.000000, 0.000000, 0.000000, 25830.000000, 325.641022, 4.000000, 4.000000, 4.000000, 4.000000, 4.000000, 4.000000, 4.000000, 4.000000, 4.000000, 4.000000, 4.000000, 4.000000, 4.000000, 4.000000, 4.000000, 4.000000
11.000000, 0.000000, 4248.717773, 4247.179199, 4217.948730, 4201.025391, 4165.641113, 4193.846191, 4189.743652, 4190.256348, 4222.563965, 4231.794922, 4244.615234, 4231.281738, 4349.230469, 4248.717773, 3582.000000, 8147.000000, 8185.000000, 0.000000, 0.000000, 0.000000, 25830.000000, 333.846161, 4.000000, 4.000000, 4.000000, 4.000000, 4.000000, 4.000000, 4.000000, 4.000000, 4.000000, 4.000000, 4.000000, 4.000000, 4.000000, 4.000000, 4.000000, 4.000000
12.000000, 0.000000, 4246.153809, 4243.076660, 4211.794922, 4195.897461, 4165.127930, 4199.487305, 4201.025391, 4177.948730, 4214.871582, 4223.589844, 4233.846191, 4218.974121, 4333.333008, 4241.538574, 3527.000000, 8147.000000, 8185.000000, 0.000000, 0.000000, 0.000000, 25830.000000, 341.538452, 4.000000, 4.000000, 4.000000, 4.000000, 4.000000, 4.000000, 4.000000, 4.000000, 4.000000, 4.000000, 4.000000, 4.000000, 4.000000, 4.000000, 4.000000, 4.000000
13.000000, 0.000000, 4245.641113, 4243.589844, 4210.256348, 4199.487305, 4177.948730, 4198.461426, 4199.487305, 4194.358887, 4221.025391, 4217.948730, 4230.256348, 4214.358887, 4322.051270, 4241.025391, 3477.000000, 8135.000000, 8188.000000, 0.000000, 0.000000, 0.000000, 25830.000000, 349.230774, 4.000000, 4.000000, 4.000000, 4.000000, 4.000000, 4.000000, 4.000000, 4.000000, 4.000000, 4.000000, 4.000000, 4.000000, 4.000000, 4.000000, 4.000000, 4.000000
14.000000, 0.000000, 4253.333008, 4255.897461, 4217.948730, 4207.179199, 4192.820313, 4208.717773, 4195.897461, 4205.641113, 4230.769043, 4221.538574, 4239.487305, 4224.615234, 4328.205078, 4246.666504, 3316.000000, 8135.000000, 8188.000000, 0.000000, 0.000000, 0.000000, 25830.000000, 357.435883, 4.000000, 4.000000, 4.000000, 4.000000, 4.000000, 4.000000, 4.000000, 4.000000, 4.000000, 4.000000, 4.000000, 4.000000, 4.000000, 4.000000, 4.000000, 4.000000
15.000000, 0.000000, 4260.512695, 4267.692383, 4224.102539, 4214.358887, 4195.384277, 4218.974121, 4198.974121, 4201.025391, 4229.230469, 4221.538574, 4247.692383, 4235.897461, 4332.820313, 4249.743652, 3582.000000, 8130.000000, 8187.000000, 0.000000, 0.000000, 0.000000, 25830.000000, 365.128204, 4.000000, 4.000000, 4.000000, 4.000000, 4.000000, 4.000000, 4.000000, 4.000000, 4.000000, 4.000000, 4.000000, 4.000000, 4.000000, 4.000000, 4.000000, 4.000000
16.000000, 0.000000, 4254.358887, 4270.769043, 4217.948730, 4206.153809, 4187.179199, 4210.769043, 4201.538574, 4196.922852, 4217.948730, 4211.794922, 4244.615234, 4231.794922, 4328.205078, 4248.717773, 0.000000, 8130.000000, 8187.000000, 0.000000, 0.000000, 0.000000, 25830.000000, 372.820496, 4.000000, 4.000000, 4.000000, 4.000000, 4.000000, 4.000000, 4.000000, 4.000000, 4.000000, 4.000000, 4.000000, 4.000000, 4.000000, 4.000000, 4.000000, 4.000000
17.000000, 0.000000, 4250.769043, 4271.281738, 4212.820313, 4202.051270, 4181.025391, 4192.820313, 4198.461426, 4202.563965, 4213.846191, 4205.127930, 4241.025391, 4229.743652, 4328.205078, 4254.871582, 0.000000, 8125.000000, 8184.000000, 0.000000, 0.000000, 0.000000, 25830.000000, 381.025635, 4.000000, 4.000000, 4.000000, 4.000000, 4.000000, 4.000000, 4.000000, 4.000000, 4.000000, 4.000000, 4.000000, 4.000000, 4.000000, 4.000000, 4.000000, 4.000000
18.000000, 0.000000, 4258.461426, 4274.871582, 4216.922852, 4206.666504, 4188.205078, 4192.307617, 4192.820313, 4203.076660, 4217.436035, 4212.820313, 4241.538574, 4237.948730, 4335.897461, 4263.589844, 0.000000, 8125.000000, 8184.000000, 0.000000, 0.000000, 0.000000, 25830.000000, 388.717926, 4.000000, 4.000000, 4.000000, 4.000000, 4.000000, 4.000000, 4.000000, 4.000000, 4.000000, 4.000000, 4.000000, 4.000000, 4.000000, 4.000000, 4.000000, 4.000000
19.000000, 0.000000, 4256.922852, 4269.743652, 4218.461426, 4205.127930, 4187.179199, 4203.076660, 4203.589844, 4205.127930, 4222.563965, 4214.871582, 4246.666504, 4241.025391, 4340.512695, 4262.563965, 0.000000, 8101.000000, 8180.000000, 0.000000, 0.000000, 0.000000, 25830.000000, 396.410248, 4.000000, 4.000000, 4.000000, 4.000000, 4.000000, 4.000000, 4.000000, 4.000000, 4.000000, 4.000000, 4.000000, 4.000000, 4.000000, 4.000000, 4.000000, 4.000000
20.000000, 0.000000, 4248.205078, 4260.000000, 4214.871582, 4203.589844, 4170.769043, 4203.589844, 4222.051270, 4220.512695, 4228.717773, 4206.153809, 4247.179199, 4235.897461, 4340.512695, 4256.410156, 0.000000, 8101.000000, 8180.000000, 0.000000, 0.000000, 0.000000, 25830.000000, 404.615387, 4.000000, 4.000000, 4.000000, 4.000000, 4.000000, 4.000000, 4.000000, 4.000000, 4.000000, 4.000000, 4.000000, 4.000000, 4.000000, 4.000000, 4.000000, 4.000000
21.000000, 0.000000, 4250.256348, 4261.538574, 4214.358887, 4196.922852, 4174.358887, 4200.000000, 4215.897461, 4226.153809, 4232.820313, 4206.153809, 4237.436035, 4229.230469, 4346.153809, 4251.794922, 0.000000, 8099.000000, 8182.000000, 0.000000, 0.000000, 0.000000, 25830.000000, 412.307678, 4.000000, 4.000000, 4.000000, 4.000000, 4.000000, 4.000000, 4.000000, 4.000000, 4.000000, 4.000000, 4.000000, 4.000000, 4.000000, 4.000000, 4.000000, 4.000000
22.000000, 0.000000, 4253.333008, 4281.538574, 4214.871582, 4200.512695, 4191.281738, 4204.102539, 4202.051270, 4215.897461, 4233.333008, 4212.820313, 4240.000000, 4232.307617, 4353.333008, 4250.256348, 0.000000, 8099.000000, 8182.000000, 0.000000, 0.000000, 0.000000, 25830.000000, 420.000000, 4.000000, 4.000000, 4.000000, 4.000000, 4.000000, 4.000000, 4.000000, 4.000000, 4.000000, 4.000000, 4.000000, 4.000000, 4.000000, 4.000000, 4.000000, 4.000000
23.000000, 0.000000, 4246.153809, 4294.871582, 4207.692383, 4208.717773, 4183.076660, 4204.102539, 4203.589844, 4215.897461, 4231.794922, 4206.666504, 4246.666504, 4234.871582, 4349.230469, 4248.205078, 0.000000, 8088.000000, 8183.000000, 0.000000, 0.000000, 0.000000, 25830.000000, 428.205109, 4.000000, 4.000000, 4.000000, 4.000000, 4.000000, 4.000000, 4.000000, 4.000000, 4.000000, 4.000000, 4.000000, 4.000000, 4.000000, 4.000000, 4.000000, 4.000000
24.000000, 0.000000, 4245.127930, 4286.153809, 4199.487305, 4204.615234, 4172.820313, 4196.410156, 4204.102539, 4226.666504, 4232.820313, 4194.871582, 4242.563965, 4222.563965, 4345.127930, 4240.512695, 0.000000, 8088.000000, 8183.000000, 0.000000, 0.000000, 0.000000, 25830.000000, 435.897430, 4.000000, 4.000000, 4.000000, 4.000000, 4.000000, 4.000000, 4.000000, 4.000000, 4.000000, 4.000000, 4.000000, 4.000000, 4.000000, 4.000000, 4.000000, 4.000000
25.000000, 0.000000, 4247.179199, 4283.589844, 4199.487305, 4200.000000, 4181.025391, 4200.000000, 4200.000000, 4226.666504, 4232.820313, 4190.256348, 4227.692383, 4215.897461, 4353.846191, 4233.846191, 0.000000, 8085.000000, 8178.000000, 0.000000, 0.000000, 0.000000, 25830.000000, 444.102539, 4.000000, 4.000000, 4.000000, 4.000000, 4.000000, 4.000000, 4.000000, 4.000000, 4.000000, 4.000000, 4.000000, 4.000000, 4.000000, 4.000000, 4.000000, 4.000000
26.000000, 0.000000, 4239.487305, 4288.205078, 4201.538574, 4193.333008, 4181.025391, 4198.461426, 4202.563965, 4216.922852, 4227.692383, 4184.615234, 4209.230469, 4220.512695, 4358.974121, 4233.333008, 0.000000, 8085.000000, 8178.000000, 0.000000, 0.000000, 0.000000, 25830.000000, 451.794861, 4.000000, 4.000000, 4.000000, 4.000000, 4.000000, 4.000000, 4.000000, 4.000000, 4.000000, 4.000000, 4.000000, 4.000000, 4.000000, 4.000000, 4.000000, 4.000000
27.000000, 0.000000, 4235.897461, 4283.589844, 4201.025391, 4193.846191, 4167.179199, 4187.179199, 4202.051270, 4203.589844, 4218.461426, 4181.025391, 4210.256348, 4220.512695, 4356.410156, 4230.256348, 0.000000, 8085.000000, 8173.000000, 0.000000, 0.000000, 0.000000, 25830.000000, 459.487183, 4.000000, 4.000000, 4.000000, 4.000000, 4.000000, 4.000000, 4.000000, 4.000000, 4.000000, 4.000000, 4.000000, 4.000000, 4.000000, 4.000000, 4.000000, 4.000000
28.000000, 0.000000, 4243.076660, 4274.871582, 4206.153809, 4197.948730, 4164.615234, 4188.717773, 4196.410156, 4197.436035, 4212.307617, 4184.102539, 4234.871582, 4220.000000, 4368.205078, 4229.743652, 0.000000, 8085.000000, 8173.000000, 0.000000, 0.000000, 0.000000, 25830.000000, 467.179474, 4.000000, 4.000000, 4.000000, 4.000000, 4.000000, 4.000000, 4.000000, 4.000000, 4.000000, 4.000000, 4.000000, 4.000000, 4.000000, 4.000000, 4.000000, 4.000000
29.000000, 0.000000, 4251.281738, 4285.127930, 4217.436035, 4196.922852, 4177.948730, 4201.538574, 4201.025391, 4208.717773, 4214.358887, 4186.666504, 4249.230469, 4227.692383, 4386.153809, 4239.487305, 0.000000, 8089.000000, 8174.000000, 0.000000, 0.000000, 0.000000, 25830.000000, 475.384613, 4.000000, 4.000000, 4.000000, 4.000000, 4.000000, 4.000000, 4.000000, 4.000000, 4.000000, 4.000000, 4.000000, 4.000000, 4.000000, 4.000000, 4.000000, 4.000000
30.000000, 0.000000, 4253.846191, 4309.230469, 4220.512695, 4206.153809, 4189.230469, 4203.589844, 4204.615234, 4219.487305, 4215.384277, 4181.025391, 4239.487305, 4231.281738, 4392.820313, 4244.102539, 0.000000, 8089.000000, 8174.000000, 0.000000, 0.000000, 0.000000, 25830.000000, 483.076904, 4.000000, 4.000000, 4.000000, 4.000000, 4.000000, 4.000000, 4.000000, 4.000000, 4.000000, 4.000000, 4.000000, 4.000000, 4.000000, 4.000000, 4.000000, 4.000000
31.000000, 0.000000, 4244.102539, 4306.666504, 4209.230469, 4202.051270, 4177.436035, 4191.281738, 4194.358887, 4208.717773, 4203.076660, 4164.102539, 4227.179199, 4216.922852, 4387.692383, 4227.692383, 0.000000, 8089.000000, 8178.000000, 0.000000, 0.000000, 0.000000, 25830.000000, 491.282043, 4.000000, 4.000000, 4.000000, 4.000000, 4.000000, 4.000000, 4.000000, 4.000000, 4.000000, 4.000000, 4.000000, 4.000000, 4.000000, 4.000000, 4.000000, 4.000000
32.000000, 0.000000, 4229.743652, 4283.589844, 4196.922852, 4187.692383, 4153.333008, 4174.358887, 4176.410156, 4186.153809, 4187.179199, 4149.230469, 4217.436035, 4201.025391, 4384.102539, 4212.307617, 0.000000, 8089.000000, 8178.000000, 0.000000, 0.000000, 0.000000, 25830.000000, 498.974335, 4.000000, 4.000000, 4.000000, 4.000000, 4.000000, 4.000000, 4.000000, 4.000000, 4.000000, 4.000000, 4.000000, 4.000000, 4.000000, 4.000000, 4.000000, 4.000000
33.000000, 0.000000, 4231.281738, 4284.102539, 4197.948730, 4191.794922, 4152.820313, 4168.717773, 4169.230469, 4181.025391, 4185.127930, 4146.666504, 4216.922852, 4207.692383, 4393.333008, 4218.974121, 0.000000, 8102.000000, 8185.000000, 0.000000, 0.000000, 0.000000, 25830.000000, 506.666656, 4.000000, 4.000000, 4.000000, 4.000000, 4.000000, 4.000000, 4.000000, 4.000000, 4.000000, 4.000000, 4.000000, 4.000000, 4.000000, 4.000000, 4.000000, 4.000000
34.000000, 0.000000, 4242.563965, 4303.076660, 4204.615234, 4199.487305, 4167.179199, 4175.897461, 4176.922852, 4186.666504, 4185.641113, 4140.512695, 4223.076660, 4214.358887, 4398.461426, 4225.641113, 0.000000, 8102.000000, 8185.000000, 0.000000, 0.000000, 0.000000, 25830.000000, 514.871765, 4.000000, 4.000000, 4.000000, 4.000000, 4.000000, 4.000000, 4.000000, 4.000000, 4.000000, 4.000000, 4.000000, 4.000000, 4.000000, 4.000000, 4.000000, 4.000000
35.000000, 0.000000, 4230.256348, 4292.820313, 4198.461426, 4196.922852, 4171.794922, 4181.538574, 4186.666504, 4188.205078, 4173.846191, 4120.512695, 4209.743652, 4194.358887, 4382.563965, 4207.179199, 0.000000, 8106.000000, 8184.000000, 0.000000, 0.000000, 0.000000, 25830.000000, 522.564087, 4.000000, 4.000000, 4.000000, 4.000000, 4.000000, 4.000000, 4.000000, 4.000000, 4.000000, 4.000000, 4.000000, 4.000000, 4.000000, 4.000000, 4.000000, 4.000000
36.000000, 0.000000, 4209.743652, 4268.717773, 4183.589844, 4185.127930, 4170.256348, 4189.743652, 4194.871582, 4190.256348, 4174.871582, 4110.769043, 4199.487305, 4178.461426, 4372.307617, 4188.717773, 0.000000, 8106.000000, 8184.000000, 0.000000, 0.000000, 0.000000, 25830.000000, 530.769226, 4.000000, 4.000000, 4.000000, 4.000000, 4.000000, 4.000000, 4.000000, 4.000000, 4.000000, 4.000000, 4.000000, 4.000000, 4.000000, 4.000000, 4.000000, 4.000000
37.000000, 0.000000, 4218.974121, 4273.846191, 4187.179199, 4185.641113, 4173.333008, 4202.563965, 4202.051270, 4206.666504, 4202.051270, 4132.307617, 4220.512695, 4197.436035, 4393.333008, 4200.000000, 0.000000, 8115.000000, 8183.000000, 0.000000, 0.000000, 0.000000, 25830.000000, 538.461548, 4.000000, 4.000000, 4.000000, 4.000000, 4.000000, 4.000000, 4.000000, 4.000000, 4.000000, 4.000000, 4.000000, 4.000000, 4.000000, 4.000000, 4.000000, 4.000000
38.000000, 0.000000, 4234.358887, 4290.769043, 4206.153809, 4197.436035, 4173.846191, 4204.615234, 4205.127930, 4230.769043, 4221.538574, 4157.436035, 4237.948730, 4217.948730, 4421.025391, 4223.589844, 0.000000, 8115.000000, 8183.000000, 0.000000, 0.000000, 0.000000, 25830.000000, 546.666626, 4.000000, 4.000000, 4.000000, 4.000000, 4.000000, 4.000000, 4.000000, 4.000000, 4.000000, 4.000000, 4.000000, 4.000000, 4.000000, 4.000000, 4.000000, 4.000000
39.000000, 0.000000, 4238.461426, 4296.922852, 4214.871582, 4201.025391, 4174.358887, 4202.563965, 4205.127930, 4231.794922, 4211.794922, 4158.974121, 4236.410156, 4218.461426, 4427.692383, 4233.333008, 0.000000, 8127.000000, 8187.000000, 0.000000, 0.000000, 0.000000, 25830.000000, 554.358948, 4.000000, 4.000000, 4.000000, 4.000000, 4.000000, 4.000000, 4.000000, 4.000000, 4.000000, 4.000000, 4.000000, 4.000000, 4.000000, 4.000000, 4.000000, 4.000000
40.000000, 0.000000, 4243.076660, 4296.410156, 4216.410156, 4203.076660, 4181.538574, 4200.512695, 4199.487305, 4206.153809, 4192.307617, 4152.307617, 4246.666504, 4221.538574, 4428.205078, 4235.384277, 0.000000, 8127.000000, 8187.000000, 0.000000, 0.000000, 0.000000, 25830.000000, 562.564087, 4.000000, 4.000000, 4.000000, 4.000000, 4.000000, 4.000000, 4.000000, 4.000000, 4.000000, 4.000000, 4.000000, 4.000000, 4.000000, 4.000000, 4.000000, 4.000000
41.000000, 0.000000, 4244.102539, 4298.461426, 4215.897461, 4200.512695, 4180.512695, 4193.333008, 4187.179199, 4196.410156, 4180.512695, 4150.769043, 4261.025391, 4225.641113, 4432.820313, 4237.436035, 0.000000, 8135.000000, 8186.000000, 0.000000, 0.000000, 0.000000, 25830.000000, 570.256409, 4.000000, 4.000000, 4.000000, 4.000000, 4.000000, 4.000000, 4.000000, 4.000000, 4.000000, 4.000000, 4.000000, 4.000000, 4.000000, 4.000000, 4.000000, 4.000000
42.000000, 0.000000, 4240.000000, 4299.487305, 4209.743652, 4196.922852, 4177.436035, 4192.307617, 4182.563965, 4203.589844, 4174.358887, 4145.641113, 4252.307617, 4220.512695, 4429.743652, 4235.897461, 0.000000, 8135.000000, 8186.000000, 0.000000, 0.000000, 0.000000, 25830.000000, 577.948730, 4.000000, 4.000000, 4.000000, 4.000000, 4.000000, 4.000000, 4.000000, 4.000000, 4.000000, 4.000000, 4.000000, 4.000000, 4.000000, 4.000000, 4.000000, 4.000000
43.000000, 0.000000, 4237.436035, 4293.846191, 4209.230469, 4200.512695, 4185.127930, 4201.025391, 4195.384277, 4199.487305, 4171.281738, 4137.948730, 4242.051270, 4216.410156, 4416.922852, 4231.281738, 0.000000, 8162.000000, 8191.000000, 0.000000, 0.000000, 0.000000, 25830.000000, 586.153809, 4.000000, 4.000000, 4.000000, 4.000000, 4.000000, 4.000000, 4.000000, 4.000000, 4.000000, 4.000000, 4.000000, 4.000000, 4.000000, 4.000000, 4.000000, 4.000000
44.000000, 0.000000, 4234.871582, 4285.641113, 4213.333008, 4195.897461, 4186.153809, 4201.025391, 4202.051270, 4206.153809, 4170.769043, 4139.487305, 4247.692383, 4216.410156, 4409.230469, 4227.692383, 0.000000, 8162.000000, 8191.000000, 0.000000, 0.000000, 0.000000, 25830.000000, 593.846130, 4.000000, 4.000000, 4.000000, 4.000000, 4.000000, 4.000000, 4.000000, 4.000000, 4.000000, 4.000000, 4.000000, 4.000000, 4.000000, 4.000000, 4.000000, 4.000000
45.000000, 0.000000, 4226.666504, 4274.871582, 4207.692383, 4191.281738, 4175.897461, 4191.794922, 4192.307617, 4220.000000, 4168.205078, 4139.487305, 4242.563965, 4215.384277, 4400.512695, 4220.512695, 0.000000, 8167.000000, 8185.000000, 0.000000, 0.000000, 0.000000, 25830.000000, 601.538452, 4.000000, 4.000000, 4.000000, 4.000000, 4.000000, 4.000000, 4.000000, 4.000000, 4.000000, 4.000000, 4.000000, 4.000000, 4.000000, 4.000000, 4.000000, 4.000000
