title:neutral18, recorded:17.05.18 21.52.54, timestamp started:2018-05-12T20:28:52.032863+02:00            , sampling:128, subject:Noé, labels:COUNTER INTERPOLATED AF3 F7 F3 FC5 T7 P7 O1 O2 P8 T8 FC6 F4 F8 AF4 RAW_CQ GYROX GYROY MARKER MARKER_HARDWARE SYNC TIME_STAMP_s TIME_STAMP_ms CQ_AF3 CQ_F7 CQ_F3 CQ_FC5 CQ_T7 CQ_P7 CQ_O1 CQ_O2 CQ_P8 CQ_T8 CQ_FC6 CQ_F4 CQ_F8 CQ_AF4 CQ_CMS CQ_DRL, chan:40, samples:2698, units:emotiv
8.000000, 0.000000, 3836.410156, 3978.461426, 4174.358887, 4232.820313, 4189.743652, 4200.000000, 4198.974121, 4202.563965, 4201.538574, 4220.000000, 4201.538574, 4154.871582, 4171.281738, 4204.102539, 3515.000000, 8234.000000, 8185.000000, 0.000000, 0.000000, 0.000000, -21709.000000, 408.717926, 4.000000, 4.000000, 4.000000, 4.000000, 4.000000, 4.000000, 4.000000, 4.000000, 4.000000, 4.000000, 4.000000, 4.000000, 4.000000, 4.000000, 4.000000, 4.000000
9.000000, 0.000000, 3829.743408, 3973.845947, 4171.281738, 4227.692383, 4185.127930, 4200.000000, 4200.512695, 4208.717773, 4204.102539, 4222.051270, 4203.076660, 4157.948730, 4174.358887, 4208.717773, 3547.000000, 8224.000000, 8183.000000, 0.000000, 0.000000, 0.000000, -21709.000000, 416.923065, 4.000000, 4.000000, 4.000000, 4.000000, 4.000000, 4.000000, 4.000000, 4.000000, 4.000000, 4.000000, 4.000000, 4.000000, 4.000000, 4.000000, 4.000000, 4.000000
10.000000, 0.000000, 3837.435791, 3975.897217, 4174.358887, 4234.871582, 4183.589844, 4204.102539, 4199.487305, 4203.076660, 4199.487305, 4225.127930, 4207.179199, 4162.051270, 4185.641113, 4204.615234, 3551.000000, 8224.000000, 8183.000000, 0.000000, 0.000000, 0.000000, -21709.000000, 424.615387, 4.000000, 4.000000, 4.000000, 4.000000, 4.000000, 4.000000, 4.000000, 4.000000, 4.000000, 4.000000, 4.000000, 4.000000, 4.000000, 4.000000, 4.000000, 4.000000
11.000000, 0.000000, 3843.076904, 3978.974365, 4179.487305, 4244.615234, 4188.205078, 4205.641113, 4204.102539, 4202.051270, 4201.538574, 4226.153809, 4210.256348, 4165.641113, 4187.179199, 4204.615234, 946.000000, 8217.000000, 8173.000000, 0.000000, 0.000000, 0.000000, -21709.000000, 432.307678, 4.000000, 4.000000, 4.000000, 4.000000, 4.000000, 4.000000, 4.000000, 4.000000, 4.000000, 4.000000, 4.000000, 4.000000, 4.000000, 4.000000, 4.000000, 4.000000
12.000000, 0.000000, 3832.307617, 3975.897217, 4178.461426, 4234.358887, 4185.127930, 4202.051270, 4209.230469, 4202.563965, 4200.000000, 4216.922852, 4201.025391, 4158.974121, 4171.281738, 4201.538574, 3477.000000, 8217.000000, 8173.000000, 0.000000, 0.000000, 0.000000, -21709.000000, 440.000000, 4.000000, 4.000000, 4.000000, 4.000000, 4.000000, 4.000000, 4.000000, 4.000000, 4.000000, 4.000000, 4.000000, 4.000000, 4.000000, 4.000000, 4.000000, 4.000000
13.000000, 0.000000, 3834.871582, 3977.948730, 4176.922852, 4228.717773, 4186.153809, 4201.025391, 4202.563965, 4193.846191, 4189.743652, 4208.205078, 4191.281738, 4147.692383, 4164.102539, 4198.461426, 3422.000000, 8212.000000, 8174.000000, 0.000000, 0.000000, 0.000000, -21709.000000, 448.205109, 4.000000, 4.000000, 4.000000, 4.000000, 4.000000, 4.000000, 4.000000, 4.000000, 4.000000, 4.000000, 4.000000, 4.000000, 4.000000, 4.000000, 4.000000, 4.000000
14.000000, 0.000000, 3844.102539, 3987.692139, 4175.897461, 4241.025391, 4185.127930, 4201.025391, 4196.410156, 4189.743652, 4187.692383, 4212.820313, 4195.897461, 4146.666504, 4175.897461, 4207.179199, 3551.000000, 8212.000000, 8174.000000, 0.000000, 0.000000, 0.000000, -21709.000000, 455.897430, 4.000000, 4.000000, 4.000000, 4.000000, 4.000000, 4.000000, 4.000000, 4.000000, 4.000000, 4.000000, 4.000000, 4.000000, 4.000000, 4.000000, 4.000000, 4.000000
15.000000, 0.000000, 3855.897461, 3993.845947, 4175.897461, 4243.589844, 4180.512695, 4191.794922, 4194.358887, 4186.153809, 4191.281738, 4223.076660, 4199.487305, 4153.333008, 4180.000000, 4208.205078, 946.000000, 8211.000000, 8163.000000, 0.000000, 0.000000, 0.000000, -21709.000000, 463.589722, 4.000000, 4.000000, 4.000000, 4.000000, 4.000000, 4.000000, 4.000000, 4.000000, 4.000000, 4.000000, 4.000000, 4.000000, 4.000000, 4.000000, 4.000000, 4.000000
16.000000, 0.000000, 3855.384521, 3990.256348, 4174.358887, 4237.948730, 4187.692383, 4184.615234, 4190.769043, 4174.871582, 4186.666504, 4225.641113, 4196.922852, 4157.436035, 4175.897461, 4200.512695, 0.000000, 8211.000000, 8163.000000, 0.000000, 0.000000, 0.000000, -21709.000000, 471.282043, 4.000000, 4.000000, 4.000000, 4.000000, 4.000000, 4.000000, 4.000000, 4.000000, 4.000000, 4.000000, 4.000000, 4.000000, 4.000000, 4.000000, 4.000000, 4.000000
17.000000, 0.000000, 3848.717773, 3990.256348, 4175.897461, 4243.076660, 4200.512695, 4190.256348, 4189.743652, 4173.333008, 4182.563965, 4222.051270, 4197.436035, 4153.846191, 4173.846191, 4198.974121, 0.000000, 8211.000000, 8165.000000, 0.000000, 0.000000, 0.000000, -21709.000000, 479.487183, 4.000000, 4.000000, 4.000000, 4.000000, 4.000000, 4.000000, 4.000000, 4.000000, 4.000000, 4.000000, 4.000000, 4.000000, 4.000000, 4.000000, 4.000000, 4.000000
18.000000, 0.000000, 3855.384521, 3992.307617, 4181.025391, 4248.205078, 4203.589844, 4199.487305, 4196.922852, 4183.589844, 4187.692383, 4227.179199, 4198.974121, 4151.794922, 4176.922852, 4200.000000, 0.000000, 8211.000000, 8165.000000, 0.000000, 0.000000, 0.000000, -21709.000000, 487.179474, 4.000000, 4.000000, 4.000000, 4.000000, 4.000000, 4.000000, 4.000000, 4.000000, 4.000000, 4.000000, 4.000000, 4.000000, 4.000000, 4.000000, 4.000000, 4.000000
19.000000, 0.000000, 3857.948730, 3990.769043, 4181.538574, 4243.589844, 4195.897461, 4202.051270, 4207.179199, 4187.692383, 4196.410156, 4236.410156, 4200.512695, 4155.384277, 4184.615234, 4202.563965, 0.000000, 8213.000000, 8161.000000, 0.000000, 0.000000, 0.000000, -21709.000000, 494.871796, 4.000000, 4.000000, 4.000000, 4.000000, 4.000000, 4.000000, 4.000000, 4.000000, 4.000000, 4.000000, 4.000000, 4.000000, 4.000000, 4.000000, 4.000000, 4.000000
20.000000, 0.000000, 3863.589600, 3989.743408, 4180.512695, 4237.436035, 4192.307617, 4202.563965, 4207.179199, 4188.205078, 4200.000000, 4230.256348, 4201.025391, 4154.871582, 4185.641113, 4201.538574, 0.000000, 8213.000000, 8161.000000, 0.000000, 0.000000, 0.000000, -21709.000000, 503.076904, 4.000000, 4.000000, 4.000000, 4.000000, 4.000000, 4.000000, 4.000000, 4.000000, 4.000000, 4.000000, 4.000000, 4.000000, 4.000000, 4.000000, 4.000000, 4.000000
21.000000, 0.000000, 3857.435791, 3980.000000, 4171.281738, 4229.230469, 4185.127930, 4202.051270, 4202.051270, 4189.743652, 4191.794922, 4217.948730, 4193.846191, 4146.153809, 4174.358887, 4195.897461, 0.000000, 8215.000000, 8157.000000, 0.000000, 0.000000, 0.000000, -21709.000000, 510.769226, 4.000000, 4.000000, 4.000000, 4.000000, 4.000000, 4.000000, 4.000000, 4.000000, 4.000000, 4.000000, 4.000000, 4.000000, 4.000000, 4.000000, 4.000000, 4.000000
22.000000, 0.000000, 3845.640869, 3975.897217, 4157.948730, 4225.127930, 4173.846191, 4198.974121, 4203.589844, 4182.563965, 4178.461426, 4214.358887, 4181.538574, 4135.384277, 4164.615234, 4195.897461, 0.000000, 8215.000000, 8157.000000, 0.000000, 0.000000, 0.000000, -21709.000000, 518.461548, 4.000000, 4.000000, 4.000000, 4.000000, 4.000000, 4.000000, 4.000000, 4.000000, 4.000000, 4.000000, 4.000000, 4.000000, 4.000000, 4.000000, 4.000000, 4.000000
23.000000, 0.000000, 3854.871582, 3987.692139, 4159.487305, 4232.307617, 4181.025391, 4203.076660, 4210.256348, 4183.589844, 4185.127930, 4216.922852, 4185.127930, 4134.871582, 4170.769043, 4201.538574, 0.000000, 8211.000000, 8145.000000, 0.000000, 0.000000, 0.000000, -21709.000000, 526.666626, 4.000000, 4.000000, 4.000000, 4.000000, 4.000000, 4.000000, 4.000000, 4.000000, 4.000000, 4.000000, 4.000000, 4.000000, 4.000000, 4.000000, 4.000000, 4.000000
24.000000, 0.000000, 3856.923096, 3987.692139, 4164.615234, 4233.846191, 4200.000000, 4215.897461, 4217.948730, 4204.615234, 4208.717773, 4224.102539, 4198.461426, 4142.563965, 4178.974121, 4206.666504, 0.000000, 8211.000000, 8145.000000, 0.000000, 0.000000, 0.000000, -21709.000000, 534.358948, 4.000000, 4.000000, 4.000000, 4.000000, 4.000000, 4.000000, 4.000000, 4.000000, 4.000000, 4.000000, 4.000000, 4.000000, 4.000000, 4.000000, 4.000000, 4.000000
25.000000, 0.000000, 3860.512695, 3984.615234, 4161.025391, 4233.846191, 4205.641113, 4221.025391, 4223.589844, 4218.461426, 4215.897461, 4242.051270, 4201.538574, 4144.102539, 4183.076660, 4201.025391, 0.000000, 8214.000000, 8140.000000, 0.000000, 0.000000, 0.000000, -21709.000000, 542.051270, 4.000000, 4.000000, 4.000000, 4.000000, 4.000000, 4.000000, 4.000000, 4.000000, 4.000000, 4.000000, 4.000000, 4.000000, 4.000000, 4.000000, 4.000000, 4.000000
26.000000, 0.000000, 3865.640869, 3986.666504, 4162.051270, 4240.512695, 4199.487305, 4219.487305, 4219.487305, 4217.948730, 4209.230469, 4254.871582, 4198.974121, 4141.025391, 4187.179199, 4196.410156, 0.000000, 8214.000000, 8140.000000, 0.000000, 0.000000, 0.000000, -21709.000000, 549.743591, 4.000000, 4.000000, 4.000000, 4.000000, 4.000000, 4.000000, 4.000000, 4.000000, 4.000000, 4.000000, 4.000000, 4.000000, 4.000000, 4.000000, 4.000000, 4.000000
27.000000, 0.000000, 3861.025635, 3985.128174, 4166.666504, 4241.538574, 4205.127930, 4218.461426, 4205.127930, 4214.358887, 4203.076660, 4242.563965, 4201.025391, 4146.153809, 4187.179199, 4201.538574, 0.000000, 8214.000000, 8138.000000, 0.000000, 0.000000, 0.000000, -21709.000000, 557.948730, 4.000000, 4.000000, 4.000000, 4.000000, 4.000000, 4.000000, 4.000000, 4.000000, 4.000000, 4.000000, 4.000000, 4.000000, 4.000000, 4.000000, 4.000000, 4.000000
28.000000, 0.000000, 3865.640869, 3986.666504, 4165.641113, 4233.846191, 4200.000000, 4213.333008, 4203.076660, 4212.307617, 4198.461426, 4230.256348, 4200.512695, 4153.333008, 4184.102539, 4201.538574, 0.000000, 8214.000000, 8138.000000, 0.000000, 0.000000, 0.000000, -21709.000000, 565.640991, 4.000000, 4.000000, 4.000000, 4.000000, 4.000000, 4.000000, 4.000000, 4.000000, 4.000000, 4.000000, 4.000000, 4.000000, 4.000000, 4.000000, 4.000000, 4.000000
29.000000, 0.000000, 3864.615234, 3987.692139, 4162.563965, 4231.281738, 4184.102539, 4209.743652, 4215.897461, 4214.871582, 4205.641113, 4233.846191, 4198.461426, 4157.948730, 4184.102539, 4200.512695, 0.000000, 8208.000000, 8135.000000, 0.000000, 0.000000, 0.000000, -21709.000000, 573.333313, 4.000000, 4.000000, 4.000000, 4.000000, 4.000000, 4.000000, 4.000000, 4.000000, 4.000000, 4.000000, 4.000000, 4.000000, 4.000000, 4.000000, 4.000000, 4.000000
30.000000, 0.000000, 3869.743408, 3987.692139, 4164.615234, 4234.358887, 4187.179199, 4214.358887, 4219.487305, 4217.436035, 4213.333008, 4232.820313, 4197.436035, 4160.512695, 4183.589844, 4199.487305, 0.000000, 8208.000000, 8135.000000, 0.000000, 0.000000, 0.000000, -21709.000000, 581.538452, 4.000000, 4.000000, 4.000000, 4.000000, 4.000000, 4.000000, 4.000000, 4.000000, 4.000000, 4.000000, 4.000000, 4.000000, 4.000000, 4.000000, 4.000000, 4.000000
31.000000, 0.000000, 3874.871582, 3985.128174, 4164.102539, 4229.743652, 4198.461426, 4215.384277, 4214.871582, 4213.333008, 4209.230469, 4231.794922, 4197.436035, 4160.000000, 4178.461426, 4197.436035, 0.000000, 8208.000000, 8139.000000, 0.000000, 0.000000, 0.000000, -21709.000000, 589.230774, 4.000000, 4.000000, 4.000000, 4.000000, 4.000000, 4.000000, 4.000000, 4.000000, 4.000000, 4.000000, 4.000000, 4.000000, 4.000000, 4.000000, 4.000000, 4.000000
32.000000, 0.000000, 3870.769043, 3980.000000, 4159.487305, 4224.615234, 4198.974121, 4212.820313, 4222.051270, 4216.410156, 4210.769043, 4244.102539, 4197.948730, 4156.922852, 4178.974121, 4201.025391, 0.000000, 8208.000000, 8139.000000, 0.000000, 0.000000, 0.000000, -21709.000000, 597.435913, 4.000000, 4.000000, 4.000000, 4.000000, 4.000000, 4.000000, 4.000000, 4.000000, 4.000000, 4.000000, 4.000000, 4.000000, 4.000000, 4.000000, 4.000000, 4.000000
33.000000, 0.000000, 3877.435791, 3977.435791, 4161.538574, 4224.615234, 4197.948730, 4218.461426, 4230.769043, 4226.666504, 4219.487305, 4249.743652, 4198.974121, 4158.461426, 4180.512695, 4201.025391, 0.000000, 8202.000000, 8142.000000, 0.000000, 0.000000, 0.000000, -21709.000000, 605.128174, 4.000000, 4.000000, 4.000000, 4.000000, 4.000000, 4.000000, 4.000000, 4.000000, 4.000000, 4.000000, 4.000000, 4.000000, 4.000000, 4.000000, 4.000000, 4.000000
34.000000, 0.000000, 3873.333252, 3976.923096, 4167.179199, 4225.641113, 4200.000000, 4221.538574, 4226.666504, 4217.436035, 4211.281738, 4236.922852, 4199.487305, 4158.974121, 4175.897461, 4201.025391, 0.000000, 8202.000000, 8142.000000, 0.000000, 0.000000, 0.000000, -21709.000000, 612.820496, 4.000000, 4.000000, 4.000000, 4.000000, 4.000000, 4.000000, 4.000000, 4.000000, 4.000000, 4.000000, 4.000000, 4.000000, 4.000000, 4.000000, 4.000000, 4.000000
35.000000, 0.000000, 3870.256348, 3981.025635, 4168.717773, 4228.205078, 4201.025391, 4215.384277, 4214.871582, 4199.487305, 4197.948730, 4231.281738, 4194.358887, 4152.820313, 4171.794922, 4202.051270, 0.000000, 8204.000000, 8145.000000, 0.000000, 0.000000, 0.000000, -21709.000000, 621.025635, 4.000000, 4.000000, 4.000000, 4.000000, 4.000000, 4.000000, 4.000000, 4.000000, 4.000000, 4.000000, 4.000000, 4.000000, 4.000000, 4.000000, 4.000000, 4.000000
36.000000, 0.000000, 3878.461426, 3983.589600, 4164.615234, 4231.281738, 4194.871582, 4216.410156, 4214.358887, 4202.051270, 4201.025391, 4236.410156, 4189.230469, 4152.307617, 4174.358887, 4201.538574, 0.000000, 8204.000000, 8145.000000, 0.000000, 0.000000, 0.000000, -21709.000000, 629.230774, 4.000000, 4.000000, 4.000000, 4.000000, 4.000000, 4.000000, 4.000000, 4.000000, 4.000000, 4.000000, 4.000000, 4.000000, 4.000000, 4.000000, 4.000000, 4.000000
37.000000, 0.000000, 3878.461426, 3982.563965, 4165.641113, 4232.307617, 4186.153809, 4220.512695, 4220.512695, 4210.256348, 4202.563965, 4232.307617, 4192.307617, 4155.384277, 4178.974121, 4200.512695, 0.000000, 8199.000000, 8152.000000, 0.000000, 0.000000, 0.000000, -21709.000000, 636.923035, 4.000000, 4.000000, 4.000000, 4.000000, 4.000000, 4.000000, 4.000000, 4.000000, 4.000000, 4.000000, 4.000000, 4.000000, 4.000000, 4.000000, 4.000000, 4.000000
38.000000, 0.000000, 3884.102539, 3986.666504, 4174.871582, 4232.307617, 4190.769043, 4215.897461, 4215.897461, 4204.102539, 4196.922852, 4232.820313, 4199.487305, 4153.846191, 4182.563965, 4199.487305, 0.000000, 8199.000000, 8152.000000, 0.000000, 0.000000, 0.000000, -21709.000000, 645.128174, 4.000000, 4.000000, 4.000000, 4.000000, 4.000000, 4.000000, 4.000000, 4.000000, 4.000000, 4.000000, 4.000000, 4.000000, 4.000000, 4.000000, 4.000000, 4.000000
39.000000, 0.000000, 3886.153809, 3988.717773, 4174.871582, 4235.384277, 4203.589844, 4211.281738, 4212.820313, 4201.025391, 4201.025391, 4246.666504, 4206.153809, 4162.563965, 4189.230469, 4203.589844, 0.000000, 8199.000000, 8153.000000, 0.000000, 0.000000, 0.000000, -21709.000000, 652.820496, 4.000000, 4.000000, 4.000000, 4.000000, 4.000000, 4.000000, 4.000000, 4.000000, 4.000000, 4.000000, 4.000000, 4.000000, 4.000000, 4.000000, 4.000000, 4.000000
40.000000, 0.000000, 3890.769043, 3987.179443, 4174.358887, 4235.384277, 4205.641113, 4216.410156, 4220.512695, 4210.256348, 4210.256348, 4251.281738, 4209.230469, 4172.820313, 4191.794922, 4203.589844, 0.000000, 8199.000000, 8153.000000, 0.000000, 0.000000, 0.000000, -21709.000000, 660.512817, 4.000000, 4.000000, 4.000000, 4.000000, 4.000000, 4.000000, 4.000000, 4.000000, 4.000000, 4.000000, 4.000000, 4.000000, 4.000000, 4.000000, 4.000000, 4.000000
41.000000, 0.000000, 3893.845947, 3987.179443, 4179.487305, 4229.230469, 4199.487305, 4215.897461, 4219.487305, 4218.461426, 4209.230469, 4245.641113, 4206.153809, 4165.641113, 4190.769043, 4198.974121, 0.000000, 8202.000000, 8152.000000, 0.000000, 0.000000, 0.000000, -21709.000000, 668.717957, 4.000000, 4.000000, 4.000000, 4.000000, 4.000000, 4.000000, 4.000000, 4.000000, 4.000000, 4.000000, 4.000000, 4.000000, 4.000000, 4.000000, 4.000000, 4.000000
42.000000, 0.000000, 3886.666504, 3988.205078, 4178.461426, 4228.717773, 4187.179199, 4205.641113, 4211.281738, 4214.358887, 4205.127930, 4248.717773, 4202.563965, 4162.051270, 4193.846191, 4197.948730, 0.000000, 8202.000000, 8152.000000, 0.000000, 0.000000, 0.000000, -21709.000000, 676.410217, 4.000000, 4.000000, 4.000000, 4.000000, 4.000000, 4.000000, 4.000000, 4.000000, 4.000000, 4.000000, 4.000000, 4.000000, 4.000000, 4.000000, 4.000000, 4.000000
43.000000, 0.000000, 3892.307617, 3991.281982, 4176.922852, 4230.769043, 4181.025391, 4203.589844, 4212.820313, 4202.563965, 4201.538574, 4248.717773, 4201.538574, 4164.615234, 4193.846191, 4196.922852, 0.000000, 8205.000000, 8162.000000, 0.000000, 0.000000, 0.000000, -21709.000000, 684.102539, 4.000000, 4.000000, 4.000000, 4.000000, 4.000000, 4.000000, 4.000000, 4.000000, 4.000000, 4.000000, 4.000000, 4.000000, 4.000000, 4.000000, 4.000000, 4.000000
44.000000, 0.000000, 3884.615234, 3982.051270, 4173.846191, 4221.025391, 4192.820313, 4203.589844, 4211.281738, 4191.794922, 4182.051270, 4226.153809, 4186.153809, 4147.692383, 4179.487305, 4194.871582, 0.000000, 8205.000000, 8162.000000, 0.000000, 0.000000, 0.000000, -21709.000000, 691.794861, 4.000000, 4.000000, 4.000000, 4.000000, 4.000000, 4.000000, 4.000000, 4.000000, 4.000000, 4.000000, 4.000000, 4.000000, 4.000000, 4.000000, 4.000000, 4.000000
45.000000, 0.000000, 3870.256348, 3972.820313, 4164.615234, 4213.333008, 4203.589844, 4201.025391, 4203.076660, 4182.051270, 4164.615234, 4205.641113, 4166.666504, 4126.666504, 4161.538574, 4192.820313, 0.000000, 8209.000000, 8164.000000, 0.000000, 0.000000, 0.000000, -21709.000000, 700.000000, 4.000000, 4.000000, 4.000000, 4.000000, 4.000000, 4.000000, 4.000000, 4.000000, 4.000000, 4.000000, 4.000000, 4.000000, 4.000000, 4.000000, 4.000000, 4.000000
46.000000, 0.000000, 3872.820313, 3976.923096, 4160.512695, 4214.871582, 4198.974121, 4208.205078, 4204.615234, 4183.589844, 4174.871582, 4215.384277, 4171.281738, 4126.153809, 4157.948730, 4194.358887, 0.000000, 8209.000000, 8164.000000, 0.000000, 0.000000, 0.000000, -21709.000000, 708.205139, 4.000000, 4.000000, 4.000000, 4.000000, 4.000000, 4.000000, 4.000000, 4.000000, 4.000000, 4.000000, 4.000000, 4.000000, 4.000000, 4.000000, 4.000000, 4.000000
47.000000, 0.000000, 3871.281982, 3977.435791, 4165.127930, 4214.871582, 4196.922852, 4215.897461, 4208.717773, 4194.871582, 4190.769043, 4234.871582, 4184.615234, 4138.974121, 4167.179199, 4196.922852, 0.000000, 8210.000000, 8169.000000, 0.000000, 0.000000, 0.000000, -21709.000000, 715.897400, 4.000000, 4.000000, 4.000000, 4.000000, 4.000000, 4.000000, 4.000000, 4.000000, 4.000000, 4.000000, 4.000000, 4.000000, 4.000000, 4.000000, 4.000000, 4.000000
48.000000, 0.000000, 3877.948730, 3978.461426, 4171.281738, 4214.358887, 4196.922852, 4209.230469, 4205.641113, 4194.871582, 4190.769043, 4235.384277, 4184.102539, 4145.641113, 4179.487305, 4199.487305, 0.000000, 8210.000000, 8169.000000, 0.000000, 0.000000, 0.000000, -21709.000000, 723.589722, 4.000000, 4.000000, 4.000000, 4.000000, 4.000000, 4.000000, 4.000000, 4.000000, 4.000000, 4.000000, 4.000000, 4.000000, 4.000000, 4.000000, 4.000000, 4.000000
49.000000, 0.000000, 3881.538330, 3983.076904, 4172.820313, 4216.922852, 4183.076660, 4196.410156, 4195.897461, 4180.512695, 4179.487305, 4226.153809, 4184.102539, 4143.589844, 4185.641113, 4206.666504, 0.000000, 8209.000000, 8172.000000, 0.000000, 0.000000, 0.000000, -21709.000000, 731.794861, 4.000000, 4.000000, 4.000000, 4.000000, 4.000000, 4.000000, 4.000000, 4.000000, 4.000000, 4.000000, 4.000000, 4.000000, 4.000000, 4.000000, 4.000000, 4.000000
50.000000, 0.000000, 3881.025635, 3984.615234, 4174.358887, 4218.461426, 4173.846191, 4190.256348, 4181.538574, 4169.743652, 4170.256348, 4223.589844, 4194.358887, 4147.692383, 4187.692383, 4206.153809, 0.000000, 8209.000000, 8172.000000, 0.000000, 0.000000, 0.000000, -21709.000000, 739.487183, 4.000000, 4.000000, 4.000000, 4.000000, 4.000000, 4.000000, 4.000000, 4.000000, 4.000000, 4.000000, 4.000000, 4.000000, 4.000000, 4.000000, 4.000000, 4.000000
51.000000, 0.000000, 3890.256348, 3988.205078, 4178.461426, 4225.127930, 4188.717773, 4193.333008, 4179.487305, 4175.384277, 4181.538574, 4227.179199, 4204.102539, 4162.051270, 4200.512695, 4199.487305, 0.000000, 8210.000000, 8170.000000, 0.000000, 0.000000, 0.000000, -21709.000000, 747.179443, 4.000000, 4.000000, 4.000000, 4.000000, 4.000000, 4.000000, 4.000000, 4.000000, 4.000000, 4.000000, 4.000000, 4.000000, 4.000000, 4.000000, 4.000000, 4.000000
52.000000, 0.000000, 3888.717773, 3993.845947, 4181.538574, 4233.846191, 4205.127930, 4202.563965, 4194.358887, 4186.666504, 4197.948730, 4236.922852, 4211.281738, 4174.358887, 4213.333008, 4204.615234, 0.000000, 8210.000000, 8170.000000, 0.000000, 0.000000, 0.000000, -21709.000000, 754.871765, 4.000000, 4.000000, 4.000000, 4.000000, 4.000000, 4.000000, 4.000000, 4.000000, 4.000000, 4.000000, 4.000000, 4.000000, 4.000000, 4.000000, 4.000000, 4.000000
53.000000, 0.000000, 3891.794678, 3992.820313, 4185.641113, 4231.794922, 4196.410156, 4203.589844, 4203.076660, 4191.794922, 4190.769043, 4244.102539, 4216.410156, 4173.846191, 4211.281738, 4207.179199, 0.000000, 8205.000000, 8171.000000, 0.000000, 0.000000, 0.000000, -21709.000000, 763.076904, 4.000000, 4.000000, 4.000000, 4.000000, 4.000000, 4.000000, 4.000000, 4.000000, 4.000000, 4.000000, 4.000000, 4.000000, 4.000000, 4.000000, 4.000000, 4.000000
54.000000, 0.000000, 3895.897461, 3986.666504, 4191.281738, 4229.230469, 4184.615234, 4197.948730, 4203.076660, 4194.358887, 4187.692383, 4245.127930, 4218.974121, 4175.384277, 4211.281738, 4205.127930, 0.000000, 8205.000000, 8171.000000, 0.000000, 0.000000, 0.000000, -21709.000000, 771.282043, 4.000000, 4.000000, 4.000000, 4.000000, 4.000000, 4.000000, 4.000000, 4.000000, 4.000000, 4.000000, 4.000000, 4.000000, 4.000000, 4.000000, 4.000000, 4.000000
55.000000, 0.000000, 3894.358887, 3990.256348, 4193.333008, 4232.307617, 4190.769043, 4200.512695, 4203.076660, 4199.487305, 4199.487305, 4248.205078, 4219.487305, 4180.512695, 4214.871582, 4208.205078, 0.000000, 8203.000000, 8164.000000, 0.000000, 0.000000, 0.000000, -21709.000000, 778.974365, 4.000000, 4.000000, 4.000000, 4.000000, 4.000000, 4.000000, 4.000000, 4.000000, 4.000000, 4.000000, 4.000000, 4.000000, 4.000000, 4.000000, 4.000000, 4.000000
56.000000, 0.000000, 3896.410156, 3993.845947, 4186.666504, 4228.717773, 4181.538574, 4201.538574, 4201.025391, 4201.025391, 4193.846191, 4245.127930, 4213.333008, 4175.897461, 4206.153809, 4202.051270, 0.000000, 8203.000000, 8164.000000, 0.000000, 0.000000, 0.000000, -21709.000000, 786.666626, 4.000000, 4.000000, 4.000000, 4.000000, 4.000000, 4.000000, 4.000000, 4.000000, 4.000000, 4.000000, 4.000000, 4.000000, 4.000000, 4.000000, 4.000000, 4.000000
57.000000, 0.000000, 3889.743408, 3986.666504, 4182.051270, 4224.102539, 4172.820313, 4201.538574, 4207.179199, 4200.000000, 4187.692383, 4241.538574, 4210.769043, 4173.846191, 4204.615234, 4196.922852, 0.000000, 8204.000000, 8162.000000, 0.000000, 0.000000, 0.000000, -21709.000000, 794.871765, 4.000000, 4.000000, 4.000000, 4.000000, 4.000000, 4.000000, 4.000000, 4.000000, 4.000000, 4.000000, 4.000000, 4.000000, 4.000000, 4.000000, 4.000000, 4.000000
58.000000, 0.000000, 3897.948730, 3991.281982, 4188.205078, 4229.230469, 4193.333008, 4211.281738, 4217.436035, 4204.102539, 4201.025391, 4245.127930, 4216.410156, 4184.615234, 4213.333008, 4201.538574, 0.000000, 8204.000000, 8162.000000, 0.000000, 0.000000, 0.000000, -21709.000000, 802.564087, 4.000000, 4.000000, 4.000000, 4.000000, 4.000000, 4.000000, 4.000000, 4.000000, 4.000000, 4.000000, 4.000000, 4.000000, 4.000000, 4.000000, 4.000000, 4.000000
59.000000, 0.000000, 3907.692139, 4001.538330, 4186.666504, 4232.820313, 4207.179199, 4217.948730, 4218.461426, 4206.666504, 4208.205078, 4248.717773, 4219.487305, 4186.153809, 4212.820313, 4205.641113, 0.000000, 8199.000000, 8160.000000, 0.000000, 0.000000, 0.000000, -21709.000000, 810.769226, 4.000000, 4.000000, 4.000000, 4.000000, 4.000000, 4.000000, 4.000000, 4.000000, 4.000000, 4.000000, 4.000000, 4.000000, 4.000000, 4.000000, 4.000000, 4.000000
60.000000, 0.000000, 3897.435791, 4002.051270, 4177.436035, 4233.333008, 4192.820313, 4212.820313, 4213.333008, 4201.538574, 4197.948730, 4247.179199, 4214.871582, 4171.794922, 4205.641113, 4203.589844, 0.000000, 8199.000000, 8160.000000, 0.000000, 0.000000, 0.000000, -21709.000000, 818.461548, 4.000000, 4.000000, 4.000000, 4.000000, 4.000000, 4.000000, 4.000000, 4.000000, 4.000000, 4.000000, 4.000000, 4.000000, 4.000000, 4.000000, 4.000000, 4.000000
61.000000, 0.000000, 3900.000000, 4003.589600, 4182.563965, 4233.333008, 4183.589844, 4208.205078, 4209.743652, 4200.000000, 4196.410156, 4245.641113, 4214.871582, 4166.153809, 4208.205078, 4198.974121, 0.000000, 8195.000000, 8159.000000, 0.000000, 0.000000, 0.000000, -21709.000000, 826.666626, 4.000000, 4.000000, 4.000000, 4.000000, 4.000000, 4.000000, 4.000000, 4.000000, 4.000000, 4.000000, 4.000000, 4.000000, 4.000000, 4.000000, 4.000000, 4.000000
62.000000, 0.000000, 3906.153809, 3996.923096, 4183.076660, 4227.179199, 4184.615234, 4207.179199, 4209.230469, 4206.153809, 4204.102539, 4242.051270, 4212.820313, 4167.179199, 4208.205078, 4201.025391, 0.000000, 8195.000000, 8159.000000, 0.000000, 0.000000, 0.000000, -21709.000000, 834.358948, 4.000000, 4.000000, 4.000000, 4.000000, 4.000000, 4.000000, 4.000000, 4.000000, 4.000000, 4.000000, 4.000000, 4.000000, 4.000000, 4.000000, 4.000000, 4.000000
63.000000, 0.000000, 3903.076904, 3988.205078, 4171.794922, 4219.487305, 4184.102539, 4204.102539, 4208.717773, 4202.563965, 4199.487305, 4231.794922, 4201.025391, 4155.384277, 4194.358887, 4202.051270, 0.000000, 8189.000000, 8160.000000, 0.000000, 0.000000, 0.000000, -21709.000000, 842.051270, 4.000000, 4.000000, 4.000000, 4.000000, 4.000000, 4.000000, 4.000000, 4.000000, 4.000000, 4.000000, 4.000000, 4.000000, 4.000000, 4.000000, 4.000000, 4.000000
64.000000, 0.000000, 3898.461426, 3993.845947, 4171.794922, 4215.897461, 4194.358887, 4203.589844, 4207.692383, 4193.333008, 4191.281738, 4227.692383, 4197.948730, 4149.230469, 4185.641113, 4196.922852, 3354.000000, 8189.000000, 8160.000000, 0.000000, 0.000000, 0.000000, -21709.000000, 850.256409, 4.000000, 4.000000, 4.000000, 4.000000, 4.000000, 4.000000, 4.000000, 4.000000, 4.000000, 4.000000, 4.000000, 4.000000, 4.000000, 4.000000, 4.000000, 4.000000
65.000000, 0.000000, 3904.615234, 4000.512695, 4175.897461, 4214.358887, 4195.897461, 4204.102539, 4202.563965, 4186.666504, 4187.692383, 4229.743652, 4202.051270, 4153.333008, 4187.179199, 4198.461426, 3506.000000, 8179.000000, 8163.000000, 0.000000, 0.000000, 0.000000, -21709.000000, 857.948669, 4.000000, 4.000000, 4.000000, 4.000000, 4.000000, 4.000000, 4.000000, 4.000000, 4.000000, 4.000000, 4.000000, 4.000000, 4.000000, 4.000000, 4.000000, 4.000000
66.000000, 0.000000, 3921.025635, 3998.974365, 4177.436035, 4218.974121, 4186.666504, 4203.589844, 4193.333008, 4183.076660, 4183.076660, 4234.358887, 4200.512695, 4154.358887, 4188.205078, 4203.076660, 2694.000000, 8179.000000, 8163.000000, 0.000000, 0.000000, 0.000000, -21709.000000, 865.640991, 4.000000, 4.000000, 4.000000, 4.000000, 4.000000, 4.000000, 4.000000, 4.000000, 4.000000, 4.000000, 4.000000, 4.000000, 4.000000, 4.000000, 4.000000, 4.000000
67.000000, 0.000000, 3917.435791, 3996.410156, 4178.461426, 4222.051270, 4193.333008, 4202.051270, 4191.281738, 4179.487305, 4176.922852, 4232.820313, 4196.922852, 4153.333008, 4183.076660, 4203.076660, 2031.000000, 8177.000000, 8162.000000, 0.000000, 0.000000, 0.000000, -21709.000000, 873.846130, 4.000000, 4.000000, 4.000000, 4.000000, 4.000000, 4.000000, 4.000000, 4.000000, 4.000000, 4.000000, 4.000000, 4.000000, 4.000000, 4.000000, 4.000000, 4.000000
68.000000, 0.000000, 3923.076904, 4003.589600, 4177.436035, 4216.922852, 4193.333008, 4198.974121, 4193.846191, 4169.743652, 4168.717773, 4224.102539, 4197.948730, 4151.794922, 4179.487305, 4200.512695, 3763.000000, 8177.000000, 8162.000000, 0.000000, 0.000000, 0.000000, -21709.000000, 881.538452, 4.000000, 4.000000, 4.000000, 4.000000, 4.000000, 4.000000, 4.000000, 4.000000, 4.000000, 4.000000, 4.000000, 4.000000, 4.000000, 4.000000, 4.000000, 4.000000
69.000000, 0.000000, 3940.000000, 4006.666504, 4180.000000, 4221.538574, 4176.410156, 4197.436035, 4190.256348, 4171.281738, 4167.692383, 4224.615234, 4202.051270, 4153.846191, 4188.205078, 4203.076660, 3543.000000, 8179.000000, 8162.000000, 0.000000, 0.000000, 0.000000, -21709.000000, 889.743591, 4.000000, 4.000000, 4.000000, 4.000000, 4.000000, 4.000000, 4.000000, 4.000000, 4.000000, 4.000000, 4.000000, 4.000000, 4.000000, 4.000000, 4.000000, 4.000000
70.000000, 0.000000, 3936.923096, 4005.128174, 4183.076660, 4230.769043, 4185.641113, 4202.563965, 4192.820313, 4194.871582, 4182.563965, 4232.820313, 4205.127930, 4157.948730, 4196.922852, 4206.153809, 3064.000000, 8179.000000, 8162.000000, 0.000000, 0.000000, 0.000000, -21709.000000, 897.435852, 4.000000, 4.000000, 4.000000, 4.000000, 4.000000, 4.000000, 4.000000, 4.000000, 4.000000, 4.000000, 4.000000, 4.000000, 4.000000, 4.000000, 4.000000, 4.000000
71.000000, 0.000000, 3938.974365, 4008.205078, 4178.974121, 4223.076660, 4206.153809, 4204.615234, 4201.538574, 4202.051270, 4187.692383, 4234.358887, 4203.076660, 4154.871582, 4194.358887, 4204.615234, 3515.000000, 8180.000000, 8159.000000, 0.000000, 0.000000, 0.000000, -21709.000000, 905.128174, 4.000000, 4.000000, 4.000000, 4.000000, 4.000000, 4.000000, 4.000000, 4.000000, 4.000000, 4.000000, 4.000000, 4.000000, 4.000000, 4.000000, 4.000000, 4.000000
72.000000, 0.000000, 3942.051270, 4003.076904, 4173.846191, 4215.897461, 4194.871582, 4200.512695, 4206.666504, 4186.666504, 4174.871582, 4227.692383, 4199.487305, 4151.794922, 4187.179199, 4207.692383, 3513.000000, 8180.000000, 8159.000000, 0.000000, 0.000000, 0.000000, -21709.000000, 913.333313, 4.000000, 4.000000, 4.000000, 4.000000, 4.000000, 4.000000, 4.000000, 4.000000, 4.000000, 4.000000, 4.000000, 4.000000, 4.000000, 4.000000, 4.000000, 4.000000
73.000000, 0.000000, 3948.205078, 3998.974365, 4177.436035, 4223.589844, 4184.615234, 4199.487305, 4208.205078, 4184.102539, 4170.769043, 4222.563965, 4198.974121, 4153.846191, 4183.589844, 4205.641113, 3535.000000, 8177.000000, 8162.000000, 0.000000, 0.000000, 0.000000, -21709.000000, 921.025635, 4.000000, 4.000000, 4.000000, 4.000000, 4.000000, 4.000000, 4.000000, 4.000000, 4.000000, 4.000000, 4.000000, 4.000000, 4.000000, 4.000000, 4.000000, 4.000000
74.000000, 0.000000, 3957.435791, 4008.717773, 4181.025391, 4229.743652, 4186.153809, 4200.000000, 4209.230469, 4187.692383, 4173.846191, 4219.487305, 4195.384277, 4154.871582, 4185.641113, 4201.025391, 3547.000000, 8177.000000, 8162.000000, 0.000000, 0.000000, 0.000000, -21709.000000, 928.717896, 4.000000, 4.000000, 4.000000, 4.000000, 4.000000, 4.000000, 4.000000, 4.000000, 4.000000, 4.000000, 4.000000, 4.000000, 4.000000, 4.000000, 4.000000, 4.000000
75.000000, 0.000000, 3957.435791, 4014.358887, 4174.871582, 4226.153809, 4174.871582, 4190.256348, 4203.589844, 4180.000000, 4169.230469, 4213.846191, 4192.307617, 4152.307617, 4183.589844, 4203.589844, 1156.000000, 8181.000000, 8163.000000, 0.000000, 0.000000, 0.000000, -21709.000000, 936.923035, 4.000000, 4.000000, 4.000000, 4.000000, 4.000000, 4.000000, 4.000000, 4.000000, 4.000000, 4.000000, 4.000000, 4.000000, 4.000000, 4.000000, 4.000000, 4.000000
76.000000, 0.000000, 3969.230713, 4011.281982, 4177.436035, 4229.230469, 4172.820313, 4183.076660, 4197.436035, 4178.974121, 4167.179199, 4217.948730, 4198.461426, 4152.820313, 4184.102539, 4203.589844, 3479.000000, 8181.000000, 8163.000000, 0.000000, 0.000000, 0.000000, -21709.000000, 944.615356, 4.000000, 4.000000, 4.000000, 4.000000, 4.000000, 4.000000, 4.000000, 4.000000, 4.000000, 4.000000, 4.000000, 4.000000, 4.000000, 4.000000, 4.000000, 4.000000
77.000000, 0.000000, 3978.461426, 4015.384521, 4184.102539, 4233.846191, 4196.922852, 4195.384277, 4200.512695, 4185.641113, 4170.769043, 4229.743652, 4206.153809, 4160.512695, 4194.358887, 4204.615234, 3422.000000, 8179.000000, 8167.000000, 0.000000, 0.000000, 0.000000, -21709.000000, 952.820496, 4.000000, 4.000000, 4.000000, 4.000000, 4.000000, 4.000000, 4.000000, 4.000000, 4.000000, 4.000000, 4.000000, 4.000000, 4.000000, 4.000000, 4.000000, 4.000000
78.000000, 0.000000, 3982.563965, 4024.615234, 4181.538574, 4233.333008, 4200.000000, 4199.487305, 4201.538574, 4185.127930, 4170.256348, 4234.871582, 4207.692383, 4168.717773, 4198.461426, 4206.153809, 3547.000000, 8179.000000, 8167.000000, 0.000000, 0.000000, 0.000000, -21709.000000, 960.512817, 4.000000, 4.000000, 4.000000, 4.000000, 4.000000, 4.000000, 4.000000, 4.000000, 4.000000, 4.000000, 4.000000, 4.000000, 4.000000, 4.000000, 4.000000, 4.000000
79.000000, 0.000000, 3996.923096, 4028.717773, 4184.615234, 4241.538574, 4189.743652, 4192.307617, 4195.384277, 4185.127930, 4172.307617, 4230.256348, 4212.307617, 4170.769043, 4203.076660, 4202.563965, 1156.000000, 8178.000000, 8150.000000, 0.000000, 0.000000, 0.000000, -21709.000000, 968.205078, 4.000000, 4.000000, 4.000000, 4.000000, 4.000000, 4.000000, 4.000000, 4.000000, 4.000000, 4.000000, 4.000000, 4.000000, 4.000000, 4.000000, 4.000000, 4.000000
80.000000, 0.000000, 4006.153809, 4030.769043, 4193.846191, 4250.256348, 4195.897461, 4192.820313, 4190.256348, 4185.127930, 4174.358887, 4222.563965, 4212.307617, 4171.281738, 4203.076660, 4197.436035, 3479.000000, 8178.000000, 8150.000000, 0.000000, 0.000000, 0.000000, -21709.000000, 975.897400, 4.000000, 4.000000, 4.000000, 4.000000, 4.000000, 4.000000, 4.000000, 4.000000, 4.000000, 4.000000, 4.000000, 4.000000, 4.000000, 4.000000, 4.000000, 4.000000
81.000000, 0.000000, 4002.563965, 4021.538330, 4192.820313, 4238.461426, 4187.692383, 4190.769043, 4191.281738, 4175.384277, 4168.717773, 4214.871582, 4195.897461, 4169.230469, 4177.436035, 4193.846191, 3422.000000, 8179.000000, 8151.000000, 0.000000, 0.000000, 0.000000, -21709.000000, 984.102539, 4.000000, 4.000000, 4.000000, 4.000000, 4.000000, 4.000000, 4.000000, 4.000000, 4.000000, 4.000000, 4.000000, 4.000000, 4.000000, 4.000000, 4.000000, 4.000000
82.000000, 0.000000, 3993.845947, 4004.102539, 4187.692383, 4226.666504, 4174.358887, 4188.205078, 4196.922852, 4167.179199, 4168.717773, 4214.358887, 4191.281738, 4166.666504, 4169.743652, 4200.000000, 3547.000000, 8179.000000, 8151.000000, 0.000000, 0.000000, 0.000000, -21709.000000, 991.794861, 4.000000, 4.000000, 4.000000, 4.000000, 4.000000, 4.000000, 4.000000, 4.000000, 4.000000, 4.000000, 4.000000, 4.000000, 4.000000, 4.000000, 4.000000, 4.000000
83.000000, 0.000000, 4011.794678, 4012.820313, 4194.871582, 4236.922852, 4191.281738, 4196.922852, 4200.000000, 4177.436035, 4178.461426, 4227.179199, 4210.256348, 4172.307617, 4207.692383, 4206.666504, 1156.000000, 8181.000000, 8150.000000, 0.000000, 0.000000, 0.000000, -21709.000000, 1000.000000, 4.000000, 4.000000, 4.000000, 4.000000, 4.000000, 4.000000, 4.000000, 4.000000, 4.000000, 4.000000, 4.000000, 4.000000, 4.000000, 4.000000, 4.000000, 4.000000
84.000000, 0.000000, 4037.948730, 4035.897217, 4202.051270, 4248.205078, 4208.205078, 4202.563965, 4201.025391, 4197.948730, 4186.153809, 4242.563965, 4227.692383, 4183.076660, 4234.871582, 4206.153809, 3479.000000, 8181.000000, 8150.000000, 0.000000, 0.000000, 0.000000, -21708.000000, 7.692307, 4.000000, 4.000000, 4.000000, 4.000000, 4.000000, 4.000000, 4.000000, 4.000000, 4.000000, 4.000000, 4.000000, 4.000000, 4.000000, 4.000000, 4.000000, 4.000000
85.000000, 0.000000, 4033.333252, 4030.256348, 4201.538574, 4242.051270, 4196.922852, 4198.974121, 4202.563965, 4200.512695, 4185.641113, 4253.333008, 4237.436035, 4190.256348, 4238.974121, 4209.230469, 3422.000000, 8181.000000, 8143.000000, 0.000000, 0.000000, 0.000000, -21708.000000, 15.897435, 4.000000, 4.000000, 4.000000, 4.000000, 4.000000, 4.000000, 4.000000, 4.000000, 4.000000, 4.000000, 4.000000, 4.000000, 4.000000, 4.000000, 4.000000, 4.000000
86.000000, 0.000000, 4040.000000, 4019.487061, 4204.102539, 4234.871582, 4186.666504, 4197.436035, 4202.563965, 4195.897461, 4191.281738, 4252.820313, 4244.615234, 4196.922852, 4256.410156, 4208.717773, 3547.000000, 8181.000000, 8143.000000, 0.000000, 0.000000, 0.000000, -21708.000000, 23.589743, 4.000000, 4.000000, 4.000000, 4.000000, 4.000000, 4.000000, 4.000000, 4.000000, 4.000000, 4.000000, 4.000000, 4.000000, 4.000000, 4.000000, 4.000000, 4.000000
87.000000, 0.000000, 4054.871582, 4018.461426, 4204.102539, 4230.769043, 4178.974121, 4190.256348, 4196.410156, 4197.436035, 4200.512695, 4248.717773, 4247.692383, 4200.000000, 4273.846191, 4209.743652, 1156.000000, 8180.000000, 8137.000000, 0.000000, 0.000000, 0.000000, -21708.000000, 31.282051, 4.000000, 4.000000, 4.000000, 4.000000, 4.000000, 4.000000, 4.000000, 4.000000, 4.000000, 4.000000, 4.000000, 4.000000, 4.000000, 4.000000, 4.000000, 4.000000
88.000000, 0.000000, 4057.948730, 4014.871582, 4204.102539, 4228.717773, 4171.281738, 4185.127930, 4194.871582, 4193.333008, 4196.922852, 4256.922852, 4255.384277, 4202.563965, 4284.615234, 4220.512695, 3479.000000, 8180.000000, 8137.000000, 0.000000, 0.000000, 0.000000, -21708.000000, 38.974358, 4.000000, 4.000000, 4.000000, 4.000000, 4.000000, 4.000000, 4.000000, 4.000000, 4.000000, 4.000000, 4.000000, 4.000000, 4.000000, 4.000000, 4.000000, 4.000000
89.000000, 0.000000, 4067.692139, 4012.820313, 4204.615234, 4232.307617, 4183.589844, 4190.256348, 4198.461426, 4190.256348, 4188.205078, 4268.205078, 4266.153809, 4205.127930, 4300.512695, 4220.512695, 3422.000000, 8172.000000, 8126.000000, 0.000000, 0.000000, 0.000000, -21708.000000, 47.179485, 4.000000, 4.000000, 4.000000, 4.000000, 4.000000, 4.000000, 4.000000, 4.000000, 4.000000, 4.000000, 4.000000, 4.000000, 4.000000, 4.000000, 4.000000, 4.000000
90.000000, 0.000000, 4063.589600, 4005.128174, 4198.461426, 4228.205078, 4190.256348, 4191.794922, 4196.410156, 4189.230469, 4183.076660, 4271.794922, 4265.127930, 4202.051270, 4308.717773, 4212.820313, 3547.000000, 8172.000000, 8126.000000, 0.000000, 0.000000, 0.000000, -21708.000000, 54.871792, 4.000000, 4.000000, 4.000000, 4.000000, 4.000000, 4.000000, 4.000000, 4.000000, 4.000000, 4.000000, 4.000000, 4.000000, 4.000000, 4.000000, 4.000000, 4.000000
91.000000, 0.000000, 4065.128174, 4001.025635, 4200.512695, 4218.461426, 4185.641113, 4197.948730, 4204.615234, 4188.717773, 4190.769043, 4274.871582, 4267.692383, 4203.076660, 4315.384277, 4213.846191, 1156.000000, 8168.000000, 8132.000000, 0.000000, 0.000000, 0.000000, -21708.000000, 62.564102, 4.000000, 4.000000, 4.000000, 4.000000, 4.000000, 4.000000, 4.000000, 4.000000, 4.000000, 4.000000, 4.000000, 4.000000, 4.000000, 4.000000, 4.000000, 4.000000
92.000000, 0.000000, 4076.923096, 4006.666504, 4213.333008, 4224.102539, 4195.384277, 4207.179199, 4214.358887, 4188.717773, 4204.615234, 4287.179199, 4284.102539, 4216.922852, 4332.307617, 4215.384277, 3479.000000, 8168.000000, 8132.000000, 0.000000, 0.000000, 0.000000, -21708.000000, 70.256409, 4.000000, 4.000000, 4.000000, 4.000000, 4.000000, 4.000000, 4.000000, 4.000000, 4.000000, 4.000000, 4.000000, 4.000000, 4.000000, 4.000000, 4.000000, 4.000000
93.000000, 0.000000, 4072.307617, 4005.640869, 4211.794922, 4230.256348, 4200.512695, 4204.102539, 4206.153809, 4188.717773, 4198.974121, 4286.666504, 4286.153809, 4217.948730, 4331.794922, 4209.230469, 3422.000000, 8163.000000, 8135.000000, 0.000000, 0.000000, 0.000000, -21708.000000, 78.461540, 4.000000, 4.000000, 4.000000, 4.000000, 4.000000, 4.000000, 4.000000, 4.000000, 4.000000, 4.000000, 4.000000, 4.000000, 4.000000, 4.000000, 4.000000, 4.000000
94.000000, 0.000000, 4067.692139, 3997.435791, 4204.102539, 4217.948730, 4183.589844, 4197.436035, 4204.102539, 4193.333008, 4189.230469, 4266.153809, 4270.256348, 4201.025391, 4313.333008, 4205.641113, 3547.000000, 8163.000000, 8135.000000, 0.000000, 0.000000, 0.000000, -21708.000000, 86.153847, 4.000000, 4.000000, 4.000000, 4.000000, 4.000000, 4.000000, 4.000000, 4.000000, 4.000000, 4.000000, 4.000000, 4.000000, 4.000000, 4.000000, 4.000000, 4.000000
95.000000, 0.000000, 4067.692139, 3996.923096, 4206.153809, 4213.333008, 4182.563965, 4200.512695, 4218.461426, 4202.563965, 4200.512695, 4267.179199, 4267.692383, 4201.025391, 4305.641113, 4207.179199, 1156.000000, 8162.000000, 8141.000000, 0.000000, 0.000000, 0.000000, -21708.000000, 93.846153, 4.000000, 4.000000, 4.000000, 4.000000, 4.000000, 4.000000, 4.000000, 4.000000, 4.000000, 4.000000, 4.000000, 4.000000, 4.000000, 4.000000, 4.000000, 4.000000
96.000000, 0.000000, 4072.307617, 4003.076904, 4204.615234, 4220.000000, 4192.307617, 4205.127930, 4221.025391, 4205.641113, 4205.641113, 4277.948730, 4265.641113, 4206.666504, 4303.589844, 4204.102539, 3479.000000, 8162.000000, 8141.000000, 0.000000, 0.000000, 0.000000, -21708.000000, 102.051277, 4.000000, 4.000000, 4.000000, 4.000000, 4.000000, 4.000000, 4.000000, 4.000000, 4.000000, 4.000000, 4.000000, 4.000000, 4.000000, 4.000000, 4.000000, 4.000000
97.000000, 0.000000, 4063.076904, 3994.358887, 4191.794922, 4206.666504, 4175.384277, 4202.051270, 4211.281738, 4205.127930, 4195.897461, 4270.256348, 4252.820313, 4193.846191, 4295.897461, 4205.641113, 3422.000000, 8150.000000, 8140.000000, 0.000000, 0.000000, 0.000000, -21708.000000, 109.743584, 4.000000, 4.000000, 4.000000, 4.000000, 4.000000, 4.000000, 4.000000, 4.000000, 4.000000, 4.000000, 4.000000, 4.000000, 4.000000, 4.000000, 4.000000, 4.000000
98.000000, 0.000000, 4057.948730, 3990.769043, 4190.256348, 4196.410156, 4165.641113, 4200.000000, 4212.820313, 4218.461426, 4206.666504, 4271.794922, 4258.974121, 4189.743652, 4300.512695, 4211.281738, 3547.000000, 8150.000000, 8140.000000, 0.000000, 0.000000, 0.000000, -21708.000000, 117.435898, 4.000000, 4.000000, 4.000000, 4.000000, 4.000000, 4.000000, 4.000000, 4.000000, 4.000000, 4.000000, 4.000000, 4.000000, 4.000000, 4.000000, 4.000000, 4.000000
99.000000, 0.000000, 4077.435791, 4003.076904, 4200.512695, 4210.769043, 4184.102539, 4204.102539, 4214.871582, 4221.538574, 4218.461426, 4285.127930, 4270.769043, 4202.051270, 4308.205078, 4207.179199, 1156.000000, 8143.000000, 8134.000000, 0.000000, 0.000000, 0.000000, -21708.000000, 125.128204, 4.000000, 4.000000, 4.000000, 4.000000, 4.000000, 4.000000, 4.000000, 4.000000, 4.000000, 4.000000, 4.000000, 4.000000, 4.000000, 4.000000, 4.000000, 4.000000
100.000000, 0.000000, 4077.948730, 4003.589600, 4200.512695, 4214.871582, 4191.794922, 4201.025391, 4209.743652, 4207.692383, 4202.563965, 4272.820313, 4257.436035, 4205.127930, 4298.974121, 4204.615234, 3479.000000, 8143.000000, 8134.000000, 0.000000, 0.000000, 0.000000, -21708.000000, 133.333328, 4.000000, 4.000000, 4.000000, 4.000000, 4.000000, 4.000000, 4.000000, 4.000000, 4.000000, 4.000000, 4.000000, 4.000000, 4.000000, 4.000000, 4.000000, 4.000000
101.000000, 0.000000, 4075.897217, 4001.538330, 4201.025391, 4210.256348, 4183.076660, 4195.384277, 4208.717773, 4204.102539, 4195.384277, 4255.384277, 4247.692383, 4200.000000, 4286.666504, 4206.153809, 3422.000000, 8147.000000, 8132.000000, 0.000000, 0.000000, 0.000000, -21708.000000, 141.025635, 4.000000, 4.000000, 4.000000, 4.000000, 4.000000, 4.000000, 4.000000, 4.000000, 4.000000, 4.000000, 4.000000, 4.000000, 4.000000, 4.000000, 4.000000, 4.000000
102.000000, 0.000000, 4085.128174, 4008.205078, 4205.127930, 4215.384277, 4184.615234, 4203.076660, 4221.538574, 4209.230469, 4200.512695, 4263.589844, 4261.025391, 4201.025391, 4288.717773, 4207.692383, 3547.000000, 8147.000000, 8132.000000, 0.000000, 0.000000, 0.000000, -21708.000000, 148.717941, 4.000000, 4.000000, 4.000000, 4.000000, 4.000000, 4.000000, 4.000000, 4.000000, 4.000000, 4.000000, 4.000000, 4.000000, 4.000000, 4.000000, 4.000000, 4.000000
103.000000, 0.000000, 4080.512695, 4008.205078, 4198.461426, 4214.871582, 4184.615234, 4214.871582, 4238.974121, 4213.333008, 4199.487305, 4272.307617, 4262.051270, 4201.025391, 4289.743652, 4209.743652, 1156.000000, 8147.000000, 8137.000000, 0.000000, 0.000000, 0.000000, -21708.000000, 156.923080, 4.000000, 4.000000, 4.000000, 4.000000, 4.000000, 4.000000, 4.000000, 4.000000, 4.000000, 4.000000, 4.000000, 4.000000, 4.000000, 4.000000, 4.000000, 4.000000
104.000000, 0.000000, 4088.205078, 4011.281982, 4199.487305, 4208.717773, 4185.127930, 4212.820313, 4233.333008, 4222.051270, 4205.127930, 4276.922852, 4256.922852, 4200.000000, 4286.153809, 4205.641113, 3479.000000, 8147.000000, 8137.000000, 0.000000, 0.000000, 0.000000, -21708.000000, 164.615387, 4.000000, 4.000000, 4.000000, 4.000000, 4.000000, 4.000000, 4.000000, 4.000000, 4.000000, 4.000000, 4.000000, 4.000000, 4.000000, 4.000000, 4.000000, 4.000000
105.000000, 0.000000, 4094.871582, 4016.923096, 4205.641113, 4212.820313, 4189.743652, 4205.641113, 4218.461426, 4233.846191, 4223.076660, 4284.102539, 4265.641113, 4204.615234, 4293.333008, 4205.127930, 3422.000000, 8151.000000, 8135.000000, 0.000000, 0.000000, 0.000000, -21708.000000, 172.820511, 4.000000, 4.000000, 4.000000, 4.000000, 4.000000, 4.000000, 4.000000, 4.000000, 4.000000, 4.000000, 4.000000, 4.000000, 4.000000, 4.000000, 4.000000, 4.000000
106.000000, 0.000000, 4091.794678, 4016.410156, 4203.076660, 4216.410156, 4174.871582, 4207.692383, 4222.563965, 4234.871582, 4225.641113, 4282.051270, 4262.051270, 4202.051270, 4293.846191, 4207.179199, 3547.000000, 8151.000000, 8135.000000, 0.000000, 0.000000, 0.000000, -21708.000000, 180.512817, 4.000000, 4.000000, 4.000000, 4.000000, 4.000000, 4.000000, 4.000000, 4.000000, 4.000000, 4.000000, 4.000000, 4.000000, 4.000000, 4.000000, 4.000000, 4.000000
107.000000, 0.000000, 4091.794678, 4013.333252, 4205.127930, 4213.846191, 4168.717773, 4213.846191, 4236.410156, 4232.307617, 4221.538574, 4277.948730, 4248.717773, 4199.487305, 4284.615234, 4204.615234, 1156.000000, 8152.000000, 8138.000000, 0.000000, 0.000000, 0.000000, -21708.000000, 188.717941, 4.000000, 4.000000, 4.000000, 4.000000, 4.000000, 4.000000, 4.000000, 4.000000, 4.000000, 4.000000, 4.000000, 4.000000, 4.000000, 4.000000, 4.000000, 4.000000
108.000000, 0.000000, 4089.743408, 4015.897217, 4211.794922, 4215.897461, 4191.794922, 4211.794922, 4232.307617, 4234.358887, 4226.666504, 4281.025391, 4254.358887, 4208.717773, 4285.641113, 4205.127930, 3479.000000, 8152.000000, 8138.000000, 0.000000, 0.000000, 0.000000, -21708.000000, 196.410248, 4.000000, 4.000000, 4.000000, 4.000000, 4.000000, 4.000000, 4.000000, 4.000000, 4.000000, 4.000000, 4.000000, 4.000000, 4.000000, 4.000000, 4.000000, 4.000000
109.000000, 0.000000, 4091.281982, 4024.102539, 4210.769043, 4220.000000, 4200.512695, 4210.256348, 4222.563965, 4231.794922, 4229.230469, 4280.000000, 4263.076660, 4215.384277, 4289.743652, 4207.692383, 3422.000000, 8157.000000, 8138.000000, 0.000000, 0.000000, 0.000000, -21708.000000, 204.615387, 4.000000, 4.000000, 4.000000, 4.000000, 4.000000, 4.000000, 4.000000, 4.000000, 4.000000, 4.000000, 4.000000, 4.000000, 4.000000, 4.000000, 4.000000, 4.000000
110.000000, 0.000000, 4087.692139, 4028.205078, 4209.230469, 4220.000000, 4188.717773, 4216.410156, 4228.717773, 4229.743652, 4227.692383, 4279.487305, 4264.102539, 4215.384277, 4289.230469, 4209.743652, 3547.000000, 8157.000000, 8138.000000, 0.000000, 0.000000, 0.000000, -21708.000000, 212.307693, 4.000000, 4.000000, 4.000000, 4.000000, 4.000000, 4.000000, 4.000000, 4.000000, 4.000000, 4.000000, 4.000000, 4.000000, 4.000000, 4.000000, 4.000000, 4.000000
111.000000, 0.000000, 4089.743408, 4031.281982, 4211.794922, 4219.487305, 4184.102539, 4213.846191, 4223.076660, 4224.615234, 4222.563965, 4286.666504, 4267.179199, 4218.461426, 4291.281738, 4210.256348, 1156.000000, 8163.000000, 8136.000000, 0.000000, 0.000000, 0.000000, -21708.000000, 220.000000, 4.000000, 4.000000, 4.000000, 4.000000, 4.000000, 4.000000, 4.000000, 4.000000, 4.000000, 4.000000, 4.000000, 4.000000, 4.000000, 4.000000, 4.000000, 4.000000
112.000000, 0.000000, 4093.333252, 4030.769043, 4211.281738, 4217.436035, 4185.127930, 4200.512695, 4205.641113, 4216.922852, 4217.436035, 4287.179199, 4270.769043, 4214.358887, 4293.333008, 4207.692383, 3479.000000, 8163.000000, 8136.000000, 0.000000, 0.000000, 0.000000, -21708.000000, 228.205124, 4.000000, 4.000000, 4.000000, 4.000000, 4.000000, 4.000000, 4.000000, 4.000000, 4.000000, 4.000000, 4.000000, 4.000000, 4.000000, 4.000000, 4.000000, 4.000000
113.000000, 0.000000, 4083.076904, 4028.717773, 4212.820313, 4215.897461, 4183.076660, 4198.974121, 4210.256348, 4217.436035, 4213.846191, 4280.000000, 4265.127930, 4212.307617, 4288.717773, 4207.692383, 3422.000000, 8178.000000, 8135.000000, 0.000000, 0.000000, 0.000000, -21708.000000, 235.897430, 4.000000, 4.000000, 4.000000, 4.000000, 4.000000, 4.000000, 4.000000, 4.000000, 4.000000, 4.000000, 4.000000, 4.000000, 4.000000, 4.000000, 4.000000, 4.000000
114.000000, 0.000000, 4087.692139, 4035.897217, 4219.487305, 4218.461426, 4175.897461, 4203.589844, 4221.025391, 4218.461426, 4205.127930, 4278.974121, 4258.974121, 4213.333008, 4285.641113, 4205.127930, 3547.000000, 8178.000000, 8135.000000, 0.000000, 0.000000, 0.000000, -21708.000000, 244.102554, 4.000000, 4.000000, 4.000000, 4.000000, 4.000000, 4.000000, 4.000000, 4.000000, 4.000000, 4.000000, 4.000000, 4.000000, 4.000000, 4.000000, 4.000000, 4.000000
115.000000, 0.000000, 4080.512695, 4029.743408, 4217.948730, 4212.820313, 4167.179199, 4203.076660, 4217.436035, 4217.436035, 4203.076660, 4280.000000, 4257.948730, 4209.230469, 4280.512695, 4204.102539, 1156.000000, 8181.000000, 8132.000000, 0.000000, 0.000000, 0.000000, -21708.000000, 251.794861, 4.000000, 4.000000, 4.000000, 4.000000, 4.000000, 4.000000, 4.000000, 4.000000, 4.000000, 4.000000, 4.000000, 4.000000, 4.000000, 4.000000, 4.000000, 4.000000
116.000000, 0.000000, 4064.615234, 4020.000000, 4211.281738, 4203.589844, 4176.410156, 4203.076660, 4215.897461, 4218.461426, 4212.307617, 4277.436035, 4256.922852, 4206.153809, 4272.820313, 4206.153809, 3479.000000, 8181.000000, 8132.000000, 0.000000, 0.000000, 0.000000, -21708.000000, 260.000000, 4.000000, 4.000000, 4.000000, 4.000000, 4.000000, 4.000000, 4.000000, 4.000000, 4.000000, 4.000000, 4.000000, 4.000000, 4.000000, 4.000000, 4.000000, 4.000000
117.000000, 0.000000, 4072.307617, 4036.923096, 4213.333008, 4211.794922, 4194.871582, 4203.589844, 4214.871582, 4218.974121, 4221.025391, 4280.512695, 4257.948730, 4207.692383, 4279.487305, 4205.127930, 3422.000000, 8191.000000, 8125.000000, 0.000000, 0.000000, 0.000000, -21708.000000, 267.692291, 4.000000, 4.000000, 4.000000, 4.000000, 4.000000, 4.000000, 4.000000, 4.000000, 4.000000, 4.000000, 4.000000, 4.000000, 4.000000, 4.000000, 4.000000, 4.000000
118.000000, 0.000000, 4073.845947, 4053.333252, 4211.281738, 4220.512695, 4192.820313, 4201.538574, 4208.205078, 4214.871582, 4216.410156, 4281.538574, 4256.410156, 4204.615234, 4283.589844, 4205.127930, 3547.000000, 8191.000000, 8125.000000, 0.000000, 0.000000, 0.000000, -21708.000000, 275.384613, 4.000000, 4.000000, 4.000000, 4.000000, 4.000000, 4.000000, 4.000000, 4.000000, 4.000000, 4.000000, 4.000000, 4.000000, 4.000000, 4.000000, 4.000000, 4.000000
119.000000, 0.000000, 4072.307617, 4052.820313, 4206.666504, 4217.948730, 4185.641113, 4204.102539, 4212.820313, 4212.820313, 4209.743652, 4273.846191, 4248.205078, 4197.948730, 4276.922852, 4204.102539, 1156.000000, 8194.000000, 8134.000000, 0.000000, 0.000000, 0.000000, -21708.000000, 283.076904, 4.000000, 4.000000, 4.000000, 4.000000, 4.000000, 4.000000, 4.000000, 4.000000, 4.000000, 4.000000, 4.000000, 4.000000, 4.000000, 4.000000, 4.000000, 4.000000
120.000000, 0.000000, 4072.307617, 4051.281982, 4208.205078, 4222.051270, 4188.205078, 4207.692383, 4215.897461, 4212.307617, 4212.307617, 4276.922852, 4248.205078, 4200.000000, 4275.384277, 4200.512695, 3479.000000, 8194.000000, 8134.000000, 0.000000, 0.000000, 0.000000, -21708.000000, 291.282043, 4.000000, 4.000000, 4.000000, 4.000000, 4.000000, 4.000000, 4.000000, 4.000000, 4.000000, 4.000000, 4.000000, 4.000000, 4.000000, 4.000000, 4.000000, 4.000000
121.000000, 0.000000, 4067.179443, 4050.769043, 4209.230469, 4226.153809, 4191.281738, 4204.102539, 4206.153809, 4212.820313, 4215.897461, 4287.692383, 4256.410156, 4205.641113, 4277.436035, 4201.025391, 3422.000000, 8199.000000, 8137.000000, 0.000000, 0.000000, 0.000000, -21708.000000, 298.974365, 4.000000, 4.000000, 4.000000, 4.000000, 4.000000, 4.000000, 4.000000, 4.000000, 4.000000, 4.000000, 4.000000, 4.000000, 4.000000, 4.000000, 4.000000, 4.000000
122.000000, 0.000000, 4064.615234, 4048.717773, 4206.666504, 4216.410156, 4190.769043, 4204.615234, 4209.743652, 4217.948730, 4217.948730, 4285.641113, 4262.563965, 4208.205078, 4278.461426, 4201.025391, 3547.000000, 8199.000000, 8137.000000, 0.000000, 0.000000, 0.000000, -21708.000000, 306.666656, 4.000000, 4.000000, 4.000000, 4.000000, 4.000000, 4.000000, 4.000000, 4.000000, 4.000000, 4.000000, 4.000000, 4.000000, 4.000000, 4.000000, 4.000000, 4.000000
123.000000, 0.000000, 4062.563965, 4049.743408, 4209.743652, 4214.871582, 4183.076660, 4207.692383, 4217.948730, 4218.974121, 4217.436035, 4276.922852, 4261.538574, 4210.256348, 4278.461426, 4204.615234, 1156.000000, 8193.000000, 8137.000000, 0.000000, 0.000000, 0.000000, -21708.000000, 314.871796, 4.000000, 4.000000, 4.000000, 4.000000, 4.000000, 4.000000, 4.000000, 4.000000, 4.000000, 4.000000, 4.000000, 4.000000, 4.000000, 4.000000, 4.000000, 4.000000
124.000000, 0.000000, 4070.769043, 4054.871582, 4219.487305, 4222.563965, 4176.410156, 4202.051270, 4211.794922, 4213.333008, 4216.922852, 4276.922852, 4259.487305, 4213.333008, 4280.512695, 4203.589844, 3479.000000, 8193.000000, 8137.000000, 0.000000, 0.000000, 0.000000, -21708.000000, 322.564087, 4.000000, 4.000000, 4.000000, 4.000000, 4.000000, 4.000000, 4.000000, 4.000000, 4.000000, 4.000000, 4.000000, 4.000000, 4.000000, 4.000000, 4.000000, 4.000000
125.000000, 0.000000, 4067.692139, 4053.845947, 4217.948730, 4217.948730, 4184.102539, 4201.538574, 4216.410156, 4213.846191, 4217.948730, 4282.563965, 4262.051270, 4217.948730, 4280.000000, 4200.000000, 3422.000000, 8192.000000, 8139.000000, 0.000000, 0.000000, 0.000000, -21708.000000, 330.256409, 4.000000, 4.000000, 4.000000, 4.000000, 4.000000, 4.000000, 4.000000, 4.000000, 4.000000, 4.000000, 4.000000, 4.000000, 4.000000, 4.000000, 4.000000, 4.000000
126.000000, 0.000000, 4061.538330, 4053.333252, 4211.281738, 4215.384277, 4193.333008, 4205.127930, 4220.000000, 4214.358887, 4215.384277, 4282.563965, 4263.589844, 4217.436035, 4278.974121, 4202.563965, 3547.000000, 8192.000000, 8139.000000, 0.000000, 0.000000, 0.000000, -21708.000000, 337.948700, 4.000000, 4.000000, 4.000000, 4.000000, 4.000000, 4.000000, 4.000000, 4.000000, 4.000000, 4.000000, 4.000000, 4.000000, 4.000000, 4.000000, 4.000000, 4.000000
127.000000, 0.000000, 4069.230713, 4060.512695, 4216.410156, 4224.615234, 4193.333008, 4201.538574, 4203.076660, 4210.769043, 4212.820313, 4284.102539, 4265.641113, 4216.410156, 4286.666504, 4203.076660, 54.000000, 8192.000000, 8137.000000, 0.000000, 0.000000, 0.000000, -21708.000000, 346.153839, 4.000000, 4.000000, 4.000000, 4.000000, 4.000000, 4.000000, 4.000000, 4.000000, 4.000000, 4.000000, 4.000000, 4.000000, 4.000000, 4.000000, 4.000000, 4.000000
0.000000, 0.000000, 4066.153809, 4065.128174, 4222.051270, 4231.281738, 4198.461426, 4203.589844, 4206.153809, 4217.948730, 4222.563965, 4295.897461, 4274.358887, 4222.051270, 4300.000000, 4205.127930, 3359.000000, 8192.000000, 8137.000000, 0.000000, 0.000000, 0.000000, -21708.000000, 353.846130, 4.000000, 4.000000, 4.000000, 4.000000, 4.000000, 4.000000, 4.000000, 4.000000, 4.000000, 4.000000, 4.000000, 4.000000, 4.000000, 4.000000, 4.000000, 4.000000
1.000000, 0.000000, 4064.102539, 4068.717773, 4222.051270, 4231.281738, 4202.563965, 4211.281738, 4227.692383, 4230.256348, 4235.384277, 4293.333008, 4268.205078, 4218.974121, 4294.871582, 4204.615234, 3505.000000, 8192.000000, 8134.000000, 0.000000, 0.000000, 0.000000, -21708.000000, 362.051270, 4.000000, 4.000000, 4.000000, 4.000000, 4.000000, 4.000000, 4.000000, 4.000000, 4.000000, 4.000000, 4.000000, 4.000000, 4.000000, 4.000000, 4.000000, 4.000000
2.000000, 0.000000, 4062.563965, 4072.307617, 4223.589844, 4232.307617, 4197.436035, 4209.743652, 4226.666504, 4228.205078, 4228.205078, 4276.410156, 4249.230469, 4209.230469, 4276.410156, 4199.487305, 2688.000000, 8192.000000, 8134.000000, 0.000000, 0.000000, 0.000000, -21708.000000, 369.743591, 4.000000, 4.000000, 4.000000, 4.000000, 4.000000, 4.000000, 4.000000, 4.000000, 4.000000, 4.000000, 4.000000, 4.000000, 4.000000, 4.000000, 4.000000, 4.000000
3.000000, 0.000000, 4056.410156, 4072.307617, 4225.641113, 4231.281738, 4201.025391, 4211.281738, 4217.948730, 4223.076660, 4216.410156, 4280.512695, 4248.205078, 4209.743652, 4276.922852, 4200.512695, 2033.000000, 8192.000000, 8136.000000, 0.000000, 0.000000, 0.000000, -21708.000000, 377.435883, 4.000000, 4.000000, 4.000000, 4.000000, 4.000000, 4.000000, 4.000000, 4.000000, 4.000000, 4.000000, 4.000000, 4.000000, 4.000000, 4.000000, 4.000000, 4.000000
4.000000, 0.000000, 4058.461426, 4069.743408, 4223.589844, 4225.127930, 4199.487305, 4213.333008, 4221.025391, 4230.256348, 4221.025391, 4292.307617, 4255.384277, 4211.281738, 4281.538574, 4202.563965, 3588.000000, 8192.000000, 8136.000000, 0.000000, 0.000000, 0.000000, -21708.000000, 385.128204, 4.000000, 4.000000, 4.000000, 4.000000, 4.000000, 4.000000, 4.000000, 4.000000, 4.000000, 4.000000, 4.000000, 4.000000, 4.000000, 4.000000, 4.000000, 4.000000
5.000000, 0.000000, 4048.205078, 4063.589600, 4212.307617, 4218.461426, 4182.563965, 4203.589844, 4214.871582, 4232.820313, 4224.102539, 4284.615234, 4247.692383, 4203.076660, 4268.717773, 4203.076660, 3539.000000, 8190.000000, 8138.000000, 0.000000, 0.000000, 0.000000, -21708.000000, 393.333313, 4.000000, 4.000000, 4.000000, 4.000000, 4.000000, 4.000000, 4.000000, 4.000000, 4.000000, 4.000000, 4.000000, 4.000000, 4.000000, 4.000000, 4.000000, 4.000000
6.000000, 0.000000, 4042.563965, 4062.051270, 4202.563965, 4215.897461, 4181.538574, 4197.948730, 4206.666504, 4225.641113, 4217.948730, 4272.307617, 4234.358887, 4192.307617, 4256.922852, 4200.512695, 3067.000000, 8190.000000, 8138.000000, 0.000000, 0.000000, 0.000000, -21708.000000, 401.025635, 4.000000, 4.000000, 4.000000, 4.000000, 4.000000, 4.000000, 4.000000, 4.000000, 4.000000, 4.000000, 4.000000, 4.000000, 4.000000, 4.000000, 4.000000, 4.000000
7.000000, 0.000000, 4047.179443, 4064.615234, 4206.666504, 4215.897461, 4197.436035, 4199.487305, 4214.358887, 4220.000000, 4214.871582, 4270.769043, 4233.846191, 4191.281738, 4262.051270, 4200.512695, 3512.000000, 8192.000000, 8139.000000, 0.000000, 0.000000, 0.000000, -21708.000000, 409.230774, 4.000000, 4.000000, 4.000000, 4.000000, 4.000000, 4.000000, 4.000000, 4.000000, 4.000000, 4.000000, 4.000000, 4.000000, 4.000000, 4.000000, 4.000000, 4.000000
8.000000, 0.000000, 4042.051270, 4065.128174, 4209.230469, 4213.846191, 4198.461426, 4201.538574, 4222.563965, 4225.127930, 4215.384277, 4269.743652, 4238.461426, 4195.897461, 4263.076660, 4202.051270, 3516.000000, 8192.000000, 8139.000000, 0.000000, 0.000000, 0.000000, -21708.000000, 416.923065, 4.000000, 4.000000, 4.000000, 4.000000, 4.000000, 4.000000, 4.000000, 4.000000, 4.000000, 4.000000, 4.000000, 4.000000, 4.000000, 4.000000, 4.000000, 4.000000
9.000000, 0.000000, 4045.640869, 4069.230713, 4206.153809, 4213.333008, 4192.307617, 4208.205078, 4219.487305, 4233.333008, 4215.897461, 4272.820313, 4239.487305, 4194.871582, 4260.512695, 4200.000000, 3546.000000, 8196.000000, 8144.000000, 0.000000, 0.000000, 0.000000, -21708.000000, 424.615387, 4.000000, 4.000000, 4.000000, 4.000000, 4.000000, 4.000000, 4.000000, 4.000000, 4.000000, 4.000000, 4.000000, 4.000000, 4.000000, 4.000000, 4.000000, 4.000000
10.000000, 0.000000, 4046.666504, 4070.769043, 4203.589844, 4216.922852, 4198.461426, 4214.358887, 4220.000000, 4232.820313, 4221.538574, 4281.538574, 4244.615234, 4195.897461, 4271.794922, 4203.589844, 3545.000000, 8196.000000, 8144.000000, 0.000000, 0.000000, 0.000000, -21708.000000, 432.820496, 4.000000, 4.000000, 4.000000, 4.000000, 4.000000, 4.000000, 4.000000, 4.000000, 4.000000, 4.000000, 4.000000, 4.000000, 4.000000, 4.000000, 4.000000, 4.000000
11.000000, 0.000000, 4042.563965, 4064.102539, 4207.692383, 4211.281738, 4198.974121, 4215.897461, 4225.641113, 4232.307617, 4231.794922, 4282.051270, 4246.153809, 4203.589844, 4267.179199, 4205.641113, 999.000000, 8190.000000, 8148.000000, 0.000000, 0.000000, 0.000000, -21708.000000, 440.512817, 4.000000, 4.000000, 4.000000, 4.000000, 4.000000, 4.000000, 4.000000, 4.000000, 4.000000, 4.000000, 4.000000, 4.000000, 4.000000, 4.000000, 4.000000, 4.000000
12.000000, 0.000000, 4042.051270, 4058.974365, 4213.333008, 4206.666504, 4190.256348, 4212.820313, 4222.563965, 4233.846191, 4231.794922, 4280.000000, 4242.563965, 4209.230469, 4254.358887, 4200.000000, 3479.000000, 8190.000000, 8148.000000, 0.000000, 0.000000, 0.000000, -21708.000000, 448.205109, 4.000000, 4.000000, 4.000000, 4.000000, 4.000000, 4.000000, 4.000000, 4.000000, 4.000000, 4.000000, 4.000000, 4.000000, 4.000000, 4.000000, 4.000000, 4.000000
13.000000, 0.000000, 4042.051270, 4064.102539, 4209.743652, 4216.410156, 4190.256348, 4204.102539, 4215.384277, 4224.102539, 4220.000000, 4276.410156, 4240.512695, 4203.589844, 4263.076660, 4199.487305, 3428.000000, 8193.000000, 8147.000000, 0.000000, 0.000000, 0.000000, -21708.000000, 456.410248, 4.000000, 4.000000, 4.000000, 4.000000, 4.000000, 4.000000, 4.000000, 4.000000, 4.000000, 4.000000, 4.000000, 4.000000, 4.000000, 4.000000, 4.000000, 4.000000
14.000000, 0.000000, 4047.692139, 4075.384521, 4205.641113, 4221.538574, 4196.410156, 4201.538574, 4215.384277, 4212.307617, 4210.256348, 4268.717773, 4237.436035, 4198.461426, 4268.205078, 4202.051270, 3545.000000, 8193.000000, 8147.000000, 0.000000, 0.000000, 0.000000, -21708.000000, 464.102539, 4.000000, 4.000000, 4.000000, 4.000000, 4.000000, 4.000000, 4.000000, 4.000000, 4.000000, 4.000000, 4.000000, 4.000000, 4.000000, 4.000000, 4.000000, 4.000000
15.000000, 0.000000, 4046.153809, 4078.974365, 4206.153809, 4216.410156, 4202.051270, 4209.743652, 4218.461426, 4215.897461, 4212.307617, 4270.256348, 4235.384277, 4201.538574, 4261.538574, 4204.102539, 999.000000, 8187.000000, 8150.000000, 0.000000, 0.000000, 0.000000, -21708.000000, 471.794861, 4.000000, 4.000000, 4.000000, 4.000000, 4.000000, 4.000000, 4.000000, 4.000000, 4.000000, 4.000000, 4.000000, 4.000000, 4.000000, 4.000000, 4.000000, 4.000000
16.000000, 0.000000, 4050.769043, 4081.538330, 4207.692383, 4217.436035, 4200.000000, 4216.410156, 4215.384277, 4224.102539, 4225.641113, 4278.974121, 4239.487305, 4203.076660, 4268.717773, 4204.102539, 0.000000, 8187.000000, 8150.000000, 0.000000, 0.000000, 0.000000, -21708.000000, 479.487183, 4.000000, 4.000000, 4.000000, 4.000000, 4.000000, 4.000000, 4.000000, 4.000000, 4.000000, 4.000000, 4.000000, 4.000000, 4.000000, 4.000000, 4.000000, 4.000000
17.000000, 0.000000, 4055.897217, 4082.563965, 4203.589844, 4219.487305, 4186.666504, 4213.846191, 4210.769043, 4222.051270, 4231.281738, 4280.512695, 4240.000000, 4200.000000, 4273.846191, 4200.512695, 0.000000, 8185.000000, 8164.000000, 0.000000, 0.000000, 0.000000, -21708.000000, 487.692291, 4.000000, 4.000000, 4.000000, 4.000000, 4.000000, 4.000000, 4.000000, 4.000000, 4.000000, 4.000000, 4.000000, 4.000000, 4.000000, 4.000000, 4.000000, 4.000000
18.000000, 0.000000, 4044.102539, 4077.435791, 4198.461426, 4216.922852, 4186.153809, 4208.205078, 4215.897461, 4217.948730, 4224.615234, 4281.025391, 4233.333008, 4196.410156, 4264.102539, 4202.051270, 0.000000, 8185.000000, 8164.000000, 0.000000, 0.000000, 0.000000, -21708.000000, 495.384613, 4.000000, 4.000000, 4.000000, 4.000000, 4.000000, 4.000000, 4.000000, 4.000000, 4.000000, 4.000000, 4.000000, 4.000000, 4.000000, 4.000000, 4.000000, 4.000000
19.000000, 0.000000, 4049.230713, 4081.538330, 4207.692383, 4218.461426, 4200.512695, 4201.538574, 4212.820313, 4209.230469, 4214.358887, 4278.974121, 4231.794922, 4193.333008, 4265.127930, 4200.512695, 0.000000, 8188.000000, 8185.000000, 0.000000, 0.000000, 0.000000, -21708.000000, 503.076904, 4.000000, 4.000000, 4.000000, 4.000000, 4.000000, 4.000000, 4.000000, 4.000000, 4.000000, 4.000000, 4.000000, 4.000000, 4.000000, 4.000000, 4.000000, 4.000000
20.000000, 0.000000, 4052.307617, 4086.153809, 4216.922852, 4220.512695, 4201.538574, 4197.436035, 4202.563965, 4190.256348, 4198.461426, 4262.563965, 4226.153809, 4190.256348, 4269.743652, 4198.461426, 0.000000, 8188.000000, 8185.000000, 0.000000, 0.000000, 0.000000, -21708.000000, 511.282043, 4.000000, 4.000000, 4.000000, 4.000000, 4.000000, 4.000000, 4.000000, 4.000000, 4.000000, 4.000000, 4.000000, 4.000000, 4.000000, 4.000000, 4.000000, 4.000000
21.000000, 0.000000, 4043.076904, 4084.615234, 4207.179199, 4213.333008, 4192.820313, 4204.615234, 4210.256348, 4181.538574, 4188.205078, 4240.000000, 4214.358887, 4184.615234, 4257.436035, 4200.512695, 0.000000, 8194.000000, 8186.000000, 0.000000, 0.000000, 0.000000, -21708.000000, 518.974365, 4.000000, 4.000000, 4.000000, 4.000000, 4.000000, 4.000000, 4.000000, 4.000000, 4.000000, 4.000000, 4.000000, 4.000000, 4.000000, 4.000000, 4.000000, 4.000000
22.000000, 0.000000, 4042.051270, 4080.000000, 4191.794922, 4203.076660, 4201.538574, 4214.871582, 4216.922852, 4195.384277, 4195.897461, 4231.281738, 4212.307617, 4177.948730, 4245.641113, 4198.461426, 0.000000, 8194.000000, 8186.000000, 0.000000, 0.000000, 0.000000, -21708.000000, 527.179504, 4.000000, 4.000000, 4.000000, 4.000000, 4.000000, 4.000000, 4.000000, 4.000000, 4.000000, 4.000000, 4.000000, 4.000000, 4.000000, 4.000000, 4.000000, 4.000000
23.000000, 0.000000, 4042.051270, 4076.923096, 4192.307617, 4198.974121, 4207.179199, 4210.256348, 4205.127930, 4204.615234, 4204.615234, 4243.076660, 4216.410156, 4180.000000, 4258.461426, 4197.948730, 0.000000, 8187.000000, 8178.000000, 0.000000, 0.000000, 0.000000, -21708.000000, 535.384583, 4.000000, 4.000000, 4.000000, 4.000000, 4.000000, 4.000000, 4.000000, 4.000000, 4.000000, 4.000000, 4.000000, 4.000000, 4.000000, 4.000000, 4.000000, 4.000000
24.000000, 0.000000, 4047.692139, 4086.666504, 4198.974121, 4204.102539, 4181.538574, 4197.436035, 4203.589844, 4194.871582, 4199.487305, 4255.384277, 4217.436035, 4181.538574, 4276.922852, 4198.461426, 0.000000, 8187.000000, 8178.000000, 0.000000, 0.000000, 0.000000, -21708.000000, 543.076904, 4.000000, 4.000000, 4.000000, 4.000000, 4.000000, 4.000000, 4.000000, 4.000000, 4.000000, 4.000000, 4.000000, 4.000000, 4.000000, 4.000000, 4.000000, 4.000000
25.000000, 0.000000, 4043.589600, 4093.845947, 4194.358887, 4206.666504, 4165.641113, 4195.897461, 4208.717773, 4194.871582, 4198.974121, 4249.230469, 4214.358887, 4177.948730, 4277.436035, 4201.025391, 0.000000, 8187.000000, 8170.000000, 0.000000, 0.000000, 0.000000, -21708.000000, 550.769226, 4.000000, 4.000000, 4.000000, 4.000000, 4.000000, 4.000000, 4.000000, 4.000000, 4.000000, 4.000000, 4.000000, 4.000000, 4.000000, 4.000000, 4.000000, 4.000000
26.000000, 0.000000, 4043.589600, 4098.461426, 4197.436035, 4209.230469, 4185.641113, 4198.461426, 4201.538574, 4200.512695, 4201.025391, 4245.641113, 4220.512695, 4185.127930, 4285.127930, 4202.051270, 0.000000, 8187.000000, 8170.000000, 0.000000, 0.000000, 0.000000, -21708.000000, 558.974365, 4.000000, 4.000000, 4.000000, 4.000000, 4.000000, 4.000000, 4.000000, 4.000000, 4.000000, 4.000000, 4.000000, 4.000000, 4.000000, 4.000000, 4.000000, 4.000000
27.000000, 0.000000, 4064.102539, 4115.897461, 4219.487305, 4222.563965, 4206.153809, 4198.974121, 4204.615234, 4196.410156, 4199.487305, 4259.487305, 4240.000000, 4200.512695, 4310.256348, 4203.076660, 0.000000, 8189.000000, 8180.000000, 0.000000, 0.000000, 0.000000, -21708.000000, 566.666626, 4.000000, 4.000000, 4.000000, 4.000000, 4.000000, 4.000000, 4.000000, 4.000000, 4.000000, 4.000000, 4.000000, 4.000000, 4.000000, 4.000000, 4.000000, 4.000000
28.000000, 0.000000, 4066.666504, 4125.127930, 4230.769043, 4231.794922, 4200.512695, 4200.512695, 4216.922852, 4202.563965, 4209.743652, 4267.179199, 4252.307617, 4206.666504, 4321.538574, 4208.205078, 0.000000, 8189.000000, 8180.000000, 0.000000, 0.000000, 0.000000, -21708.000000, 574.871765, 4.000000, 4.000000, 4.000000, 4.000000, 4.000000, 4.000000, 4.000000, 4.000000, 4.000000, 4.000000, 4.000000, 4.000000, 4.000000, 4.000000, 4.000000, 4.000000
29.000000, 0.000000, 4059.487061, 4122.051270, 4224.102539, 4231.794922, 4192.307617, 4200.000000, 4213.846191, 4213.846191, 4214.358887, 4260.000000, 4245.127930, 4201.025391, 4316.410156, 4204.102539, 0.000000, 8188.000000, 8176.000000, 0.000000, 0.000000, 0.000000, -21708.000000, 583.076904, 4.000000, 4.000000, 4.000000, 4.000000, 4.000000, 4.000000, 4.000000, 4.000000, 4.000000, 4.000000, 4.000000, 4.000000, 4.000000, 4.000000, 4.000000, 4.000000
30.000000, 0.000000, 4053.845947, 4123.589844, 4217.436035, 4228.205078, 4201.025391, 4202.051270, 4215.384277, 4214.871582, 4209.743652, 4259.487305, 4237.436035, 4198.974121, 4320.000000, 4199.487305, 0.000000, 8188.000000, 8176.000000, 0.000000, 0.000000, 0.000000, -21708.000000, 590.769226, 4.000000, 4.000000, 4.000000, 4.000000, 4.000000, 4.000000, 4.000000, 4.000000, 4.000000, 4.000000, 4.000000, 4.000000, 4.000000, 4.000000, 4.000000, 4.000000
31.000000, 0.000000, 4048.205078, 4130.256348, 4212.820313, 4215.897461, 4202.051270, 4207.692383, 4227.692383, 4221.025391, 4215.897461, 4265.641113, 4237.948730, 4196.410156, 4337.436035, 4202.563965, 0.000000, 8198.000000, 8173.000000, 0.000000, 0.000000, 0.000000, -21708.000000, 598.974365, 4.000000, 4.000000, 4.000000, 4.000000, 4.000000, 4.000000, 4.000000, 4.000000, 4.000000, 4.000000, 4.000000, 4.000000, 4.000000, 4.000000, 4.000000, 4.000000
32.000000, 0.000000, 4048.205078, 4134.358887, 4205.127930, 4207.179199, 4181.538574, 4204.102539, 4225.641113, 4225.641113, 4216.922852, 4263.076660, 4236.410156, 4188.717773, 4353.333008, 4201.025391, 0.000000, 8198.000000, 8173.000000, 0.000000, 0.000000, 0.000000, -21708.000000, 606.666626, 4.000000, 4.000000, 4.000000, 4.000000, 4.000000, 4.000000, 4.000000, 4.000000, 4.000000, 4.000000, 4.000000, 4.000000, 4.000000, 4.000000, 4.000000, 4.000000
33.000000, 0.000000, 4041.025635, 4136.410156, 4205.127930, 4211.281738, 4171.281738, 4196.410156, 4213.333008, 4212.307617, 4204.615234, 4249.743652, 4232.307617, 4187.179199, 4358.461426, 4201.538574, 0.000000, 8202.000000, 8150.000000, 0.000000, 0.000000, 0.000000, -21708.000000, 614.358948, 4.000000, 4.000000, 4.000000, 4.000000, 4.000000, 4.000000, 4.000000, 4.000000, 4.000000, 4.000000, 4.000000, 4.000000, 4.000000, 4.000000, 4.000000, 4.000000
34.000000, 0.000000, 4045.128174, 4148.717773, 4217.436035, 4214.358887, 4194.358887, 4205.641113, 4213.333008, 4208.717773, 4208.205078, 4244.102539, 4228.717773, 4190.769043, 4358.974121, 4202.563965, 0.000000, 8202.000000, 8150.000000, 0.000000, 0.000000, 0.000000, -21708.000000, 622.564087, 4.000000, 4.000000, 4.000000, 4.000000, 4.000000, 4.000000, 4.000000, 4.000000, 4.000000, 4.000000, 4.000000, 4.000000, 4.000000, 4.000000, 4.000000, 4.000000
35.000000, 0.000000, 4045.128174, 4154.358887, 4216.922852, 4217.436035, 4209.230469, 4218.461426, 4222.563965, 4225.127930, 4225.641113, 4255.897461, 4227.692383, 4188.717773, 4361.538574, 4200.000000, 0.000000, 8204.000000, 8141.000000, 0.000000, 0.000000, 0.000000, -21708.000000, 630.256409, 4.000000, 4.000000, 4.000000, 4.000000, 4.000000, 4.000000, 4.000000, 4.000000, 4.000000, 4.000000, 4.000000, 4.000000, 4.000000, 4.000000, 4.000000, 4.000000
36.000000, 0.000000, 4023.076904, 4143.076660, 4193.846191, 4213.846191, 4186.666504, 4206.666504, 4214.871582, 4216.410156, 4210.256348, 4251.281738, 4214.358887, 4170.769043, 4349.230469, 4197.436035, 0.000000, 8204.000000, 8141.000000, 0.000000, 0.000000, 0.000000, -21708.000000, 637.948730, 4.000000, 4.000000, 4.000000, 4.000000, 4.000000, 4.000000, 4.000000, 4.000000, 4.000000, 4.000000, 4.000000, 4.000000, 4.000000, 4.000000, 4.000000, 4.000000
37.000000, 0.000000, 4015.384521, 4145.641113, 4185.127930, 4191.281738, 4173.333008, 4193.333008, 4203.076660, 4194.871582, 4192.307617, 4235.897461, 4202.563965, 4160.512695, 4336.410156, 4197.948730, 0.000000, 8199.000000, 8155.000000, 0.000000, 0.000000, 0.000000, -21708.000000, 646.153809, 4.000000, 4.000000, 4.000000, 4.000000, 4.000000, 4.000000, 4.000000, 4.000000, 4.000000, 4.000000, 4.000000, 4.000000, 4.000000, 4.000000, 4.000000, 4.000000
38.000000, 0.000000, 4023.076904, 4167.179199, 4202.563965, 4188.717773, 4198.974121, 4209.743652, 4215.897461, 4207.179199, 4215.897461, 4255.897461, 4222.051270, 4183.076660, 4354.871582, 4206.153809, 0.000000, 8199.000000, 8155.000000, 0.000000, 0.000000, 0.000000, -21708.000000, 653.846130, 4.000000, 4.000000, 4.000000, 4.000000, 4.000000, 4.000000, 4.000000, 4.000000, 4.000000, 4.000000, 4.000000, 4.000000, 4.000000, 4.000000, 4.000000, 4.000000
39.000000, 0.000000, 4032.820313, 4182.563965, 4212.307617, 4215.897461, 4206.666504, 4220.000000, 4224.102539, 4223.076660, 4230.256348, 4271.794922, 4238.461426, 4195.897461, 4369.230469, 4206.153809, 0.000000, 8197.000000, 8161.000000, 0.000000, 0.000000, 0.000000, -21708.000000, 662.051270, 4.000000, 4.000000, 4.000000, 4.000000, 4.000000, 4.000000, 4.000000, 4.000000, 4.000000, 4.000000, 4.000000, 4.000000, 4.000000, 4.000000, 4.000000, 4.000000
40.000000, 0.000000, 4026.666504, 4182.563965, 4202.051270, 4223.076660, 4181.025391, 4208.717773, 4213.333008, 4217.436035, 4214.358887, 4245.641113, 4220.512695, 4178.461426, 4357.948730, 4198.461426, 0.000000, 8197.000000, 8161.000000, 0.000000, 0.000000, 0.000000, -21708.000000, 669.743591, 4.000000, 4.000000, 4.000000, 4.000000, 4.000000, 4.000000, 4.000000, 4.000000, 4.000000, 4.000000, 4.000000, 4.000000, 4.000000, 4.000000, 4.000000, 4.000000
41.000000, 0.000000, 4011.794678, 4179.487305, 4191.281738, 4202.051270, 4184.102539, 4211.281738, 4219.487305, 4210.769043, 4209.230469, 4229.743652, 4206.666504, 4170.256348, 4348.717773, 4197.948730, 0.000000, 8192.000000, 8168.000000, 0.000000, 0.000000, 0.000000, -21708.000000, 677.948730, 4.000000, 4.000000, 4.000000, 4.000000, 4.000000, 4.000000, 4.000000, 4.000000, 4.000000, 4.000000, 4.000000, 4.000000, 4.000000, 4.000000, 4.000000, 4.000000
42.000000, 0.000000, 4017.435791, 4186.153809, 4193.846191, 4188.205078, 4212.820313, 4223.589844, 4233.333008, 4217.436035, 4218.461426, 4250.256348, 4218.974121, 4180.000000, 4353.333008, 4201.025391, 0.000000, 8192.000000, 8168.000000, 0.000000, 0.000000, 0.000000, -21708.000000, 685.640991, 4.000000, 4.000000, 4.000000, 4.000000, 4.000000, 4.000000, 4.000000, 4.000000, 4.000000, 4.000000, 4.000000, 4.000000, 4.000000, 4.000000, 4.000000, 4.000000
43.000000, 0.000000, 4015.897217, 4198.461426, 4196.410156, 4190.256348, 4212.307617, 4220.512695, 4227.179199, 4221.025391, 4217.436035, 4256.922852, 4223.076660, 4178.974121, 4347.179199, 4201.538574, 0.000000, 8187.000000, 8165.000000, 0.000000, 0.000000, 0.000000, -21708.000000, 693.333313, 4.000000, 4.000000, 4.000000, 4.000000, 4.000000, 4.000000, 4.000000, 4.000000, 4.000000, 4.000000, 4.000000, 4.000000, 4.000000, 4.000000, 4.000000, 4.000000
44.000000, 0.000000, 4009.743408, 4213.846191, 4193.846191, 4195.897461, 4194.358887, 4212.820313, 4217.436035, 4217.948730, 4215.384277, 4246.153809, 4212.307617, 4168.717773, 4335.897461, 4197.948730, 0.000000, 8187.000000, 8165.000000, 0.000000, 0.000000, 0.000000, -21708.000000, 701.025635, 4.000000, 4.000000, 4.000000, 4.000000, 4.000000, 4.000000, 4.000000, 4.000000, 4.000000, 4.000000, 4.000000, 4.000000, 4.000000, 4.000000, 4.000000, 4.000000
45.000000, 0.000000, 4007.179443, 4220.512695, 4192.307617, 4193.333008, 4190.769043, 4211.794922, 4213.333008, 4215.897461, 4218.974121, 4249.230469, 4212.820313, 4170.256348, 4347.692383, 4196.922852, 0.000000, 8184.000000, 8169.000000, 0.000000, 0.000000, 0.000000, -21708.000000, 709.230774, 4.000000, 4.000000, 4.000000, 4.000000, 4.000000, 4.000000, 4.000000, 4.000000, 4.000000, 4.000000, 4.000000, 4.000000, 4.000000, 4.000000, 4.000000, 4.000000
46.000000, 0.000000, 4001.025635, 4221.025391, 4191.281738, 4181.538574, 4191.281738, 4212.307617, 4210.769043, 4214.871582, 4215.384277, 4252.307617, 4217.436035, 4173.846191, 4352.307617, 4202.051270, 0.000000, 8184.000000, 8169.000000, 0.000000, 0.000000, 0.000000, -21708.000000, 716.923035, 4.000000, 4.000000, 4.000000, 4.000000, 4.000000, 4.000000, 4.000000, 4.000000, 4.000000, 4.000000, 4.000000, 4.000000, 4.000000, 4.000000, 4.000000, 4.000000
47.000000, 0.000000, 4010.256348, 4236.410156, 4200.000000, 4182.051270, 4187.692383, 4212.820313, 4210.256348, 4220.512695, 4218.974121, 4251.281738, 4215.384277, 4175.384277, 4341.538574, 4201.025391, 0.000000, 8192.000000, 8174.000000, 0.000000, 0.000000, 0.000000, -21708.000000, 725.128174, 4.000000, 4.000000, 4.000000, 4.000000, 4.000000, 4.000000, 4.000000, 4.000000, 4.000000, 4.000000, 4.000000, 4.000000, 4.000000, 4.000000, 4.000000, 4.000000
48.000000, 0.000000, 4004.615234, 4243.076660, 4201.538574, 4188.205078, 4180.512695, 4211.281738, 4213.846191, 4217.436035, 4217.948730, 4252.820313, 4206.666504, 4173.333008, 4339.487305, 4198.974121, 0.000000, 8192.000000, 8174.000000, 0.000000, 0.000000, 0.000000, -21708.000000, 732.820496, 4.000000, 4.000000, 4.000000, 4.000000, 4.000000, 4.000000, 4.000000, 4.000000, 4.000000, 4.000000, 4.000000, 4.000000, 4.000000, 4.000000, 4.000000, 4.000000
49.000000, 0.000000, 3990.769043, 4238.461426, 4193.333008, 4186.153809, 4181.538574, 4214.358887, 4218.461426, 4203.589844, 4204.102539, 4245.641113, 4196.410156, 4165.127930, 4336.410156, 4198.461426, 0.000000, 8194.000000, 8169.000000, 0.000000, 0.000000, 0.000000, -21708.000000, 741.025635, 4.000000, 4.000000, 4.000000, 4.000000, 4.000000, 4.000000, 4.000000, 4.000000, 4.000000, 4.000000, 4.000000, 4.000000, 4.000000, 4.000000, 4.000000, 4.000000
50.000000, 0.000000, 3994.358887, 4244.615234, 4194.871582, 4184.102539, 4197.948730, 4216.922852, 4218.461426, 4202.051270, 4199.487305, 4244.102539, 4197.436035, 4164.102539, 4333.333008, 4198.461426, 0.000000, 8194.000000, 8169.000000, 0.000000, 0.000000, 0.000000, -21708.000000, 748.717957, 4.000000, 4.000000, 4.000000, 4.000000, 4.000000, 4.000000, 4.000000, 4.000000, 4.000000, 4.000000, 4.000000, 4.000000, 4.000000, 4.000000, 4.000000, 4.000000
51.000000, 0.000000, 3995.384521, 4251.794922, 4198.974121, 4188.205078, 4205.641113, 4209.743652, 4214.358887, 4212.820313, 4209.230469, 4256.410156, 4204.102539, 4169.743652, 4345.127930, 4202.051270, 0.000000, 8186.000000, 8169.000000, 0.000000, 0.000000, 0.000000, -21708.000000, 756.410217, 4.000000, 4.000000, 4.000000, 4.000000, 4.000000, 4.000000, 4.000000, 4.000000, 4.000000, 4.000000, 4.000000, 4.000000, 4.000000, 4.000000, 4.000000, 4.000000
52.000000, 0.000000, 3994.871582, 4250.769043, 4194.871582, 4190.256348, 4196.922852, 4209.743652, 4215.897461, 4215.897461, 4212.820313, 4257.436035, 4202.051270, 4170.256348, 4347.179199, 4202.563965, 0.000000, 8186.000000, 8169.000000, 0.000000, 0.000000, 0.000000, -21708.000000, 764.102539, 4.000000, 4.000000, 4.000000, 4.000000, 4.000000, 4.000000, 4.000000, 4.000000, 4.000000, 4.000000, 4.000000, 4.000000, 4.000000, 4.000000, 4.000000, 4.000000
53.000000, 0.000000, 3986.153809, 4240.000000, 4188.717773, 4184.615234, 4191.281738, 4214.358887, 4215.897461, 4213.333008, 4211.794922, 4247.179199, 4200.000000, 4168.717773, 4330.769043, 4202.563965, 0.000000, 8193.000000, 8172.000000, 0.000000, 0.000000, 0.000000, -21708.000000, 772.307678, 4.000000, 4.000000, 4.000000, 4.000000, 4.000000, 4.000000, 4.000000, 4.000000, 4.000000, 4.000000, 4.000000, 4.000000, 4.000000, 4.000000, 4.000000, 4.000000
54.000000, 0.000000, 3980.000000, 4231.281738, 4185.127930, 4181.538574, 4189.230469, 4207.692383, 4212.307617, 4216.922852, 4215.384277, 4246.666504, 4206.666504, 4169.743652, 4330.256348, 4199.487305, 0.000000, 8193.000000, 8172.000000, 0.000000, 0.000000, 0.000000, -21708.000000, 780.000000, 4.000000, 4.000000, 4.000000, 4.000000, 4.000000, 4.000000, 4.000000, 4.000000, 4.000000, 4.000000, 4.000000, 4.000000, 4.000000, 4.000000, 4.000000, 4.000000
55.000000, 0.000000, 3976.923096, 4226.666504, 4176.922852, 4182.051270, 4175.897461, 4202.051270, 4214.358887, 4218.461426, 4215.897461, 4249.230469, 4205.127930, 4162.563965, 4335.897461, 4195.897461, 0.000000, 8196.000000, 8166.000000, 0.000000, 0.000000, 0.000000, -21708.000000, 787.692261, 4.000000, 4.000000, 4.000000, 4.000000, 4.000000, 4.000000, 4.000000, 4.000000, 4.000000, 4.000000, 4.000000, 4.000000, 4.000000, 4.000000, 4.000000, 4.000000
56.000000, 0.000000, 3970.256348, 4221.538574, 4173.333008, 4181.025391, 4167.179199, 4203.589844, 4210.769043, 4215.897461, 4216.922852, 4250.256348, 4198.974121, 4155.897461, 4326.666504, 4201.538574, 0.000000, 8196.000000, 8166.000000, 0.000000, 0.000000, 0.000000, -21708.000000, 795.384583, 4.000000, 4.000000, 4.000000, 4.000000, 4.000000, 4.000000, 4.000000, 4.000000, 4.000000, 4.000000, 4.000000, 4.000000, 4.000000, 4.000000, 4.000000, 4.000000
57.000000, 0.000000, 3978.461426, 4214.358887, 4183.589844, 4181.538574, 4181.025391, 4202.563965, 4204.102539, 4216.922852, 4217.436035, 4254.358887, 4201.025391, 4161.538574, 4323.076660, 4202.051270, 0.000000, 8198.000000, 8152.000000, 0.000000, 0.000000, 0.000000, -21708.000000, 803.589722, 4.000000, 4.000000, 4.000000, 4.000000, 4.000000, 4.000000, 4.000000, 4.000000, 4.000000, 4.000000, 4.000000, 4.000000, 4.000000, 4.000000, 4.000000, 4.000000
58.000000, 0.000000, 3980.512695, 4209.230469, 4187.179199, 4185.641113, 4196.922852, 4205.127930, 4206.666504, 4218.974121, 4219.487305, 4255.897461, 4205.127930, 4166.666504, 4331.794922, 4200.000000, 0.000000, 8198.000000, 8152.000000, 0.000000, 0.000000, 0.000000, -21708.000000, 811.282043, 4.000000, 4.000000, 4.000000, 4.000000, 4.000000, 4.000000, 4.000000, 4.000000, 4.000000, 4.000000, 4.000000, 4.000000, 4.000000, 4.000000, 4.000000, 4.000000
59.000000, 0.000000, 3975.897217, 4208.205078, 4183.076660, 4189.743652, 4192.820313, 4212.820313, 4209.743652, 4218.974121, 4224.615234, 4253.333008, 4203.076660, 4164.615234, 4329.230469, 4200.000000, 0.000000, 8196.000000, 8155.000000, 0.000000, 0.000000, 0.000000, -21708.000000, 818.974365, 4.000000, 4.000000, 4.000000, 4.000000, 4.000000, 4.000000, 4.000000, 4.000000, 4.000000, 4.000000, 4.000000, 4.000000, 4.000000, 4.000000, 4.000000, 4.000000
60.000000, 0.000000, 3978.461426, 4198.461426, 4189.230469, 4192.307617, 4193.846191, 4215.897461, 4209.743652, 4222.563965, 4224.615234, 4258.974121, 4200.512695, 4163.589844, 4313.846191, 4199.487305, 0.000000, 8196.000000, 8155.000000, 0.000000, 0.000000, 0.000000, -21708.000000, 826.666626, 4.000000, 4.000000, 4.000000, 4.000000, 4.000000, 4.000000, 4.000000, 4.000000, 4.000000, 4.000000, 4.000000, 4.000000, 4.000000, 4.000000, 4.000000, 4.000000
61.000000, 0.000000, 3974.358887, 4192.307617, 4192.820313, 4196.922852, 4198.974121, 4216.922852, 4217.436035, 4229.743652, 4224.102539, 4267.179199, 4207.179199, 4169.230469, 4317.948730, 4205.127930, 0.000000, 8200.000000, 8157.000000, 0.000000, 0.000000, 0.000000, -21708.000000, 834.871765, 4.000000, 4.000000, 4.000000, 4.000000, 4.000000, 4.000000, 4.000000, 4.000000, 4.000000, 4.000000, 4.000000, 4.000000, 4.000000, 4.000000, 4.000000, 4.000000
62.000000, 0.000000, 3982.051270, 4197.948730, 4190.769043, 4203.076660, 4188.717773, 4218.461426, 4223.076660, 4229.743652, 4228.717773, 4264.102539, 4216.922852, 4174.871582, 4334.358887, 4205.641113, 0.000000, 8200.000000, 8157.000000, 0.000000, 0.000000, 0.000000, -21708.000000, 842.564087, 4.000000, 4.000000, 4.000000, 4.000000, 4.000000, 4.000000, 4.000000, 4.000000, 4.000000, 4.000000, 4.000000, 4.000000, 4.000000, 4.000000, 4.000000, 4.000000
63.000000, 0.000000, 3985.128174, 4188.205078, 4193.333008, 4199.487305, 4185.641113, 4217.948730, 4221.538574, 4230.769043, 4233.333008, 4264.102539, 4222.051270, 4177.436035, 4331.794922, 4200.000000, 0.000000, 8202.000000, 8155.000000, 0.000000, 0.000000, 0.000000, -21708.000000, 850.769226, 4.000000, 4.000000, 4.000000, 4.000000, 4.000000, 4.000000, 4.000000, 4.000000, 4.000000, 4.000000, 4.000000, 4.000000, 4.000000, 4.000000, 4.000000, 4.000000
64.000000, 0.000000, 3972.820313, 4168.717773, 4187.179199, 4188.717773, 4197.436035, 4216.410156, 4217.436035, 4235.384277, 4234.358887, 4271.794922, 4215.384277, 4173.333008, 4315.897461, 4198.461426, 3355.000000, 8202.000000, 8155.000000, 0.000000, 0.000000, 0.000000, -21708.000000, 858.461548, 4.000000, 4.000000, 4.000000, 4.000000, 4.000000, 4.000000, 4.000000, 4.000000, 4.000000, 4.000000, 4.000000, 4.000000, 4.000000, 4.000000, 4.000000, 4.000000
65.000000, 0.000000, 3974.358887, 4164.102539, 4177.948730, 4186.153809, 4201.025391, 4212.307617, 4213.846191, 4232.820313, 4231.794922, 4270.256348, 4205.127930, 4164.615234, 4307.692383, 4198.974121, 3506.000000, 8202.000000, 8154.000000, 0.000000, 0.000000, 0.000000, -21708.000000, 866.666626, 4.000000, 4.000000, 4.000000, 4.000000, 4.000000, 4.000000, 4.000000, 4.000000, 4.000000, 4.000000, 4.000000, 4.000000, 4.000000, 4.000000, 4.000000, 4.000000
66.000000, 0.000000, 3975.384521, 4158.974121, 4184.615234, 4189.230469, 4197.948730, 4211.794922, 4214.871582, 4231.281738, 4228.717773, 4265.127930, 4204.102539, 4162.563965, 4302.051270, 4198.461426, 2682.000000, 8202.000000, 8154.000000, 0.000000, 0.000000, 0.000000, -21708.000000, 874.358948, 4.000000, 4.000000, 4.000000, 4.000000, 4.000000, 4.000000, 4.000000, 4.000000, 4.000000, 4.000000, 4.000000, 4.000000, 4.000000, 4.000000, 4.000000, 4.000000
67.000000, 0.000000, 3972.820313, 4148.205078, 4187.179199, 4185.127930, 4194.358887, 4211.794922, 4213.846191, 4235.384277, 4232.820313, 4262.051270, 4198.461426, 4152.820313, 4288.717773, 4193.846191, 2018.000000, 8213.000000, 8150.000000, 0.000000, 0.000000, 0.000000, -21708.000000, 882.051270, 4.000000, 4.000000, 4.000000, 4.000000, 4.000000, 4.000000, 4.000000, 4.000000, 4.000000, 4.000000, 4.000000, 4.000000, 4.000000, 4.000000, 4.000000, 4.000000
68.000000, 0.000000, 3965.128174, 4134.871582, 4170.769043, 4179.487305, 4174.871582, 4205.641113, 4213.846191, 4233.333008, 4235.384277, 4255.384277, 4188.205078, 4137.948730, 4280.512695, 4194.358887, 3543.000000, 8213.000000, 8150.000000, 0.000000, 0.000000, 0.000000, -21708.000000, 889.743591, 4.000000, 4.000000, 4.000000, 4.000000, 4.000000, 4.000000, 4.000000, 4.000000, 4.000000, 4.000000, 4.000000, 4.000000, 4.000000, 4.000000, 4.000000, 4.000000
69.000000, 0.000000, 3963.589600, 4128.205078, 4168.205078, 4180.512695, 4162.051270, 4204.102539, 4214.358887, 4228.205078, 4231.281738, 4254.871582, 4196.410156, 4145.641113, 4280.000000, 4202.051270, 3540.000000, 8212.000000, 8149.000000, 0.000000, 0.000000, 0.000000, -21708.000000, 897.948669, 4.000000, 4.000000, 4.000000, 4.000000, 4.000000, 4.000000, 4.000000, 4.000000, 4.000000, 4.000000, 4.000000, 4.000000, 4.000000, 4.000000, 4.000000, 4.000000
70.000000, 0.000000, 3980.512695, 4134.871582, 4182.563965, 4187.179199, 4182.563965, 4211.794922, 4214.871582, 4233.846191, 4240.000000, 4265.127930, 4216.410156, 4167.179199, 4288.205078, 4204.615234, 3065.000000, 8212.000000, 8149.000000, 0.000000, 0.000000, 0.000000, -21708.000000, 905.640991, 4.000000, 4.000000, 4.000000, 4.000000, 4.000000, 4.000000, 4.000000, 4.000000, 4.000000, 4.000000, 4.000000, 4.000000, 4.000000, 4.000000, 4.000000, 4.000000
71.000000, 0.000000, 3983.589600, 4132.307617, 4184.102539, 4190.769043, 4200.000000, 4217.436035, 4218.461426, 4240.000000, 4245.641113, 4271.281738, 4220.000000, 4171.794922, 4296.922852, 4202.051270, 3513.000000, 8213.000000, 8141.000000, 0.000000, 0.000000, 0.000000, -21708.000000, 913.333313, 4.000000, 4.000000, 4.000000, 4.000000, 4.000000, 4.000000, 4.000000, 4.000000, 4.000000, 4.000000, 4.000000, 4.000000, 4.000000, 4.000000, 4.000000, 4.000000
72.000000, 0.000000, 3982.051270, 4121.538574, 4181.538574, 4190.256348, 4183.076660, 4210.769043, 4217.436035, 4230.256348, 4230.256348, 4261.025391, 4207.692383, 4158.974121, 4284.615234, 4197.948730, 3520.000000, 8213.000000, 8141.000000, 0.000000, 0.000000, 0.000000, -21708.000000, 921.025635, 4.000000, 4.000000, 4.000000, 4.000000, 4.000000, 4.000000, 4.000000, 4.000000, 4.000000, 4.000000, 4.000000, 4.000000, 4.000000, 4.000000, 4.000000, 4.000000
73.000000, 0.000000, 3987.692139, 4119.487305, 4187.179199, 4192.820313, 4171.281738, 4203.076660, 4213.846191, 4224.102539, 4227.692383, 4248.717773, 4201.025391, 4158.461426, 4266.153809, 4199.487305, 3531.000000, 8211.000000, 8137.000000, 0.000000, 0.000000, 0.000000, -21708.000000, 929.230774, 4.000000, 4.000000, 4.000000, 4.000000, 4.000000, 4.000000, 4.000000, 4.000000, 4.000000, 4.000000, 4.000000, 4.000000, 4.000000, 4.000000, 4.000000, 4.000000
74.000000, 0.000000, 3982.051270, 4116.410156, 4195.897461, 4198.461426, 4182.563965, 4203.076660, 4216.410156, 4230.769043, 4243.076660, 4250.769043, 4206.666504, 4173.846191, 4267.692383, 4203.589844, 3544.000000, 8211.000000, 8137.000000, 0.000000, 0.000000, 0.000000, -21708.000000, 936.923035, 4.000000, 4.000000, 4.000000, 4.000000, 4.000000, 4.000000, 4.000000, 4.000000, 4.000000, 4.000000, 4.000000, 4.000000, 4.000000, 4.000000, 4.000000, 4.000000
75.000000, 0.000000, 3981.538330, 4110.256348, 4206.153809, 4198.461426, 4184.102539, 4204.615234, 4217.436035, 4234.871582, 4240.000000, 4263.076660, 4216.410156, 4185.127930, 4282.563965, 4201.538574, 951.000000, 8207.000000, 8132.000000, 0.000000, 0.000000, 0.000000, -21708.000000, 944.615356, 4.000000, 4.000000, 4.000000, 4.000000, 4.000000, 4.000000, 4.000000, 4.000000, 4.000000, 4.000000, 4.000000, 4.000000, 4.000000, 4.000000, 4.000000, 4.000000
76.000000, 0.000000, 3986.153809, 4108.717773, 4205.641113, 4197.436035, 4189.230469, 4207.692383, 4219.487305, 4242.051270, 4229.743652, 4265.641113, 4223.076660, 4189.230469, 4285.127930, 4204.102539, 3467.000000, 8207.000000, 8132.000000, 0.000000, 0.000000, 0.000000, -21708.000000, 952.307678, 4.000000, 4.000000, 4.000000, 4.000000, 4.000000, 4.000000, 4.000000, 4.000000, 4.000000, 4.000000, 4.000000, 4.000000, 4.000000, 4.000000, 4.000000, 4.000000
77.000000, 0.000000, 4000.512695, 4115.384277, 4196.922852, 4200.000000, 4200.512695, 4215.384277, 4227.179199, 4246.153809, 4233.846191, 4260.000000, 4224.102539, 4189.230469, 4278.461426, 4204.102539, 3422.000000, 8205.000000, 8119.000000, 0.000000, 0.000000, 0.000000, -21708.000000, 960.512817, 4.000000, 4.000000, 4.000000, 4.000000, 4.000000, 4.000000, 4.000000, 4.000000, 4.000000, 4.000000, 4.000000, 4.000000, 4.000000, 4.000000, 4.000000, 4.000000
78.000000, 0.000000, 4009.230713, 4114.871582, 4195.384277, 4205.127930, 4188.717773, 4218.461426, 4225.127930, 4237.436035, 4238.974121, 4263.076660, 4221.025391, 4188.205078, 4280.000000, 4200.512695, 3544.000000, 8205.000000, 8119.000000, 0.000000, 0.000000, 0.000000, -21708.000000, 968.205078, 4.000000, 4.000000, 4.000000, 4.000000, 4.000000, 4.000000, 4.000000, 4.000000, 4.000000, 4.000000, 4.000000, 4.000000, 4.000000, 4.000000, 4.000000, 4.000000
79.000000, 0.000000, 4002.051270, 4105.641113, 4200.000000, 4203.589844, 4182.563965, 4217.436035, 4217.948730, 4234.358887, 4241.025391, 4266.666504, 4221.025391, 4185.641113, 4286.666504, 4203.076660, 951.000000, 8197.000000, 8117.000000, 0.000000, 0.000000, 0.000000, -21708.000000, 976.410217, 4.000000, 4.000000, 4.000000, 4.000000, 4.000000, 4.000000, 4.000000, 4.000000, 4.000000, 4.000000, 4.000000, 4.000000, 4.000000, 4.000000, 4.000000, 4.000000
80.000000, 0.000000, 4005.128174, 4103.589844, 4206.153809, 4201.538574, 4195.384277, 4216.410156, 4218.974121, 4231.794922, 4234.871582, 4261.025391, 4225.127930, 4183.076660, 4288.717773, 4202.563965, 3467.000000, 8197.000000, 8117.000000, 0.000000, 0.000000, 0.000000, -21708.000000, 984.102539, 4.000000, 4.000000, 4.000000, 4.000000, 4.000000, 4.000000, 4.000000, 4.000000, 4.000000, 4.000000, 4.000000, 4.000000, 4.000000, 4.000000, 4.000000, 4.000000
81.000000, 0.000000, 4002.051270, 4103.589844, 4212.307617, 4206.666504, 4190.769043, 4208.205078, 4217.948730, 4218.461426, 4223.076660, 4257.436035, 4224.102539, 4185.641113, 4282.563965, 4202.563965, 3422.000000, 8193.000000, 8108.000000, 0.000000, 0.000000, 0.000000, -21708.000000, 992.307678, 4.000000, 4.000000, 4.000000, 4.000000, 4.000000, 4.000000, 4.000000, 4.000000, 4.000000, 4.000000, 4.000000, 4.000000, 4.000000, 4.000000, 4.000000, 4.000000
82.000000, 0.000000, 3997.948730, 4100.000000, 4215.897461, 4209.230469, 4186.666504, 4200.000000, 4205.641113, 4209.230469, 4219.487305, 4256.410156, 4214.871582, 4184.615234, 4275.897461, 4204.102539, 3544.000000, 8193.000000, 8108.000000, 0.000000, 0.000000, 0.000000, -21708.000000, 1000.000000, 4.000000, 4.000000, 4.000000, 4.000000, 4.000000, 4.000000, 4.000000, 4.000000, 4.000000, 4.000000, 4.000000, 4.000000, 4.000000, 4.000000, 4.000000, 4.000000
83.000000, 0.000000, 4007.179443, 4097.436035, 4209.230469, 4201.538574, 4203.589844, 4199.487305, 4195.384277, 4208.205078, 4219.487305, 4250.769043, 4215.384277, 4177.436035, 4277.436035, 4202.563965, 951.000000, 8188.000000, 8107.000000, 0.000000, 0.000000, 0.000000, -21707.000000, 7.692307, 4.000000, 4.000000, 4.000000, 4.000000, 4.000000, 4.000000, 4.000000, 4.000000, 4.000000, 4.000000, 4.000000, 4.000000, 4.000000, 4.000000, 4.000000, 4.000000
84.000000, 0.000000, 4013.333252, 4100.000000, 4190.769043, 4201.538574, 4207.179199, 4202.051270, 4205.127930, 4212.820313, 4217.948730, 4245.641113, 4223.589844, 4173.333008, 4284.102539, 4202.563965, 3467.000000, 8188.000000, 8107.000000, 0.000000, 0.000000, 0.000000, -21707.000000, 15.897435, 4.000000, 4.000000, 4.000000, 4.000000, 4.000000, 4.000000, 4.000000, 4.000000, 4.000000, 4.000000, 4.000000, 4.000000, 4.000000, 4.000000, 4.000000, 4.000000
85.000000, 0.000000, 4026.153809, 4107.179199, 4188.717773, 4210.256348, 4197.436035, 4205.641113, 4214.358887, 4227.179199, 4231.794922, 4254.358887, 4229.743652, 4177.948730, 4290.256348, 4202.563965, 3422.000000, 8185.000000, 8096.000000, 0.000000, 0.000000, 0.000000, -21707.000000, 23.589743, 4.000000, 4.000000, 4.000000, 4.000000, 4.000000, 4.000000, 4.000000, 4.000000, 4.000000, 4.000000, 4.000000, 4.000000, 4.000000, 4.000000, 4.000000, 4.000000
86.000000, 0.000000, 4023.076904, 4103.589844, 4205.127930, 4216.410156, 4187.179199, 4207.179199, 4208.205078, 4241.538574, 4254.871582, 4272.820313, 4235.384277, 4186.666504, 4297.948730, 4204.615234, 3544.000000, 8185.000000, 8096.000000, 0.000000, 0.000000, 0.000000, -21707.000000, 31.794870, 4.000000, 4.000000, 4.000000, 4.000000, 4.000000, 4.000000, 4.000000, 4.000000, 4.000000, 4.000000, 4.000000, 4.000000, 4.000000, 4.000000, 4.000000, 4.000000
87.000000, 0.000000, 4012.820313, 4095.384521, 4206.153809, 4214.871582, 4185.127930, 4203.076660, 4207.692383, 4233.846191, 4250.256348, 4272.820313, 4234.871582, 4185.127930, 4297.948730, 4202.563965, 951.000000, 8184.000000, 8094.000000, 0.000000, 0.000000, 0.000000, -21707.000000, 39.487179, 4.000000, 4.000000, 4.000000, 4.000000, 4.000000, 4.000000, 4.000000, 4.000000, 4.000000, 4.000000, 4.000000, 4.000000, 4.000000, 4.000000, 4.000000, 4.000000
88.000000, 0.000000, 4015.897217, 4098.461426, 4193.333008, 4204.102539, 4196.922852, 4204.102539, 4214.871582, 4218.974121, 4230.256348, 4251.794922, 4222.051270, 4171.794922, 4280.512695, 4198.461426, 3467.000000, 8184.000000, 8094.000000, 0.000000, 0.000000, 0.000000, -21707.000000, 47.692307, 4.000000, 4.000000, 4.000000, 4.000000, 4.000000, 4.000000, 4.000000, 4.000000, 4.000000, 4.000000, 4.000000, 4.000000, 4.000000, 4.000000, 4.000000, 4.000000
89.000000, 0.000000, 4021.025635, 4105.641113, 4190.256348, 4205.127930, 4202.051270, 4206.153809, 4208.717773, 4221.025391, 4231.794922, 4248.205078, 4218.461426, 4170.256348, 4278.461426, 4202.051270, 3422.000000, 8179.000000, 8088.000000, 0.000000, 0.000000, 0.000000, -21707.000000, 55.384613, 4.000000, 4.000000, 4.000000, 4.000000, 4.000000, 4.000000, 4.000000, 4.000000, 4.000000, 4.000000, 4.000000, 4.000000, 4.000000, 4.000000, 4.000000, 4.000000
90.000000, 0.000000, 4033.333252, 4108.205078, 4194.871582, 4215.897461, 4197.948730, 4204.615234, 4199.487305, 4224.615234, 4238.974121, 4263.076660, 4230.769043, 4178.974121, 4297.948730, 4202.563965, 3544.000000, 8179.000000, 8088.000000, 0.000000, 0.000000, 0.000000, -21707.000000, 63.076923, 4.000000, 4.000000, 4.000000, 4.000000, 4.000000, 4.000000, 4.000000, 4.000000, 4.000000, 4.000000, 4.000000, 4.000000, 4.000000, 4.000000, 4.000000, 4.000000
91.000000, 0.000000, 4028.717773, 4098.461426, 4189.230469, 4209.230469, 4192.307617, 4204.102539, 4204.102539, 4217.436035, 4225.641113, 4258.974121, 4221.025391, 4175.384277, 4285.127930, 4198.461426, 951.000000, 8178.000000, 8092.000000, 0.000000, 0.000000, 0.000000, -21707.000000, 70.769226, 4.000000, 4.000000, 4.000000, 4.000000, 4.000000, 4.000000, 4.000000, 4.000000, 4.000000, 4.000000, 4.000000, 4.000000, 4.000000, 4.000000, 4.000000, 4.000000
92.000000, 0.000000, 4018.461426, 4091.281982, 4180.000000, 4196.410156, 4169.743652, 4200.512695, 4203.076660, 4210.256348, 4210.256348, 4243.076660, 4203.589844, 4166.666504, 4267.179199, 4200.000000, 3467.000000, 8178.000000, 8092.000000, 0.000000, 0.000000, 0.000000, -21707.000000, 78.974358, 4.000000, 4.000000, 4.000000, 4.000000, 4.000000, 4.000000, 4.000000, 4.000000, 4.000000, 4.000000, 4.000000, 4.000000, 4.000000, 4.000000, 4.000000, 4.000000
93.000000, 0.000000, 4027.692139, 4095.384521, 4182.051270, 4214.871582, 4166.153809, 4194.871582, 4196.410156, 4207.692383, 4211.794922, 4237.436035, 4211.281738, 4167.692383, 4281.025391, 4201.538574, 3422.000000, 8184.000000, 8095.000000, 0.000000, 0.000000, 0.000000, -21707.000000, 86.666664, 4.000000, 4.000000, 4.000000, 4.000000, 4.000000, 4.000000, 4.000000, 4.000000, 4.000000, 4.000000, 4.000000, 4.000000, 4.000000, 4.000000, 4.000000, 4.000000
94.000000, 0.000000, 4029.230713, 4088.717773, 4183.076660, 4232.820313, 4200.512695, 4201.025391, 4200.000000, 4204.615234, 4217.436035, 4229.230469, 4217.436035, 4168.717773, 4285.641113, 4201.538574, 3544.000000, 8184.000000, 8095.000000, 0.000000, 0.000000, 0.000000, -21707.000000, 94.358971, 4.000000, 4.000000, 4.000000, 4.000000, 4.000000, 4.000000, 4.000000, 4.000000, 4.000000, 4.000000, 4.000000, 4.000000, 4.000000, 4.000000, 4.000000, 4.000000
95.000000, 0.000000, 4038.974365, 4083.589600, 4189.230469, 4220.512695, 4204.102539, 4205.641113, 4205.641113, 4217.948730, 4231.281738, 4243.589844, 4222.563965, 4177.948730, 4296.410156, 4207.692383, 951.000000, 8186.000000, 8095.000000, 0.000000, 0.000000, 0.000000, -21707.000000, 102.051277, 4.000000, 4.000000, 4.000000, 4.000000, 4.000000, 4.000000, 4.000000, 4.000000, 4.000000, 4.000000, 4.000000, 4.000000, 4.000000, 4.000000, 4.000000, 4.000000
96.000000, 0.000000, 4050.256348, 4096.410156, 4197.948730, 4213.333008, 4180.512695, 4196.410156, 4200.512695, 4232.307617, 4240.000000, 4271.794922, 4241.025391, 4192.307617, 4325.641113, 4212.820313, 3467.000000, 8186.000000, 8095.000000, 0.000000, 0.000000, 0.000000, -21707.000000, 110.256409, 4.000000, 4.000000, 4.000000, 4.000000, 4.000000, 4.000000, 4.000000, 4.000000, 4.000000, 4.000000, 4.000000, 4.000000, 4.000000, 4.000000, 4.000000, 4.000000
97.000000, 0.000000, 4045.640869, 4111.281738, 4196.922852, 4217.436035, 4189.743652, 4190.256348, 4194.871582, 4217.948730, 4221.538574, 4262.051270, 4235.384277, 4188.717773, 4315.897461, 4205.641113, 3422.000000, 8189.000000, 8087.000000, 0.000000, 0.000000, 0.000000, -21707.000000, 117.948715, 4.000000, 4.000000, 4.000000, 4.000000, 4.000000, 4.000000, 4.000000, 4.000000, 4.000000, 4.000000, 4.000000, 4.000000, 4.000000, 4.000000, 4.000000, 4.000000
98.000000, 0.000000, 4044.615234, 4118.974121, 4196.410156, 4217.436035, 4204.102539, 4198.974121, 4207.692383, 4213.846191, 4221.538574, 4243.076660, 4217.436035, 4180.000000, 4297.948730, 4199.487305, 3544.000000, 8189.000000, 8087.000000, 0.000000, 0.000000, 0.000000, -21707.000000, 126.153847, 4.000000, 4.000000, 4.000000, 4.000000, 4.000000, 4.000000, 4.000000, 4.000000, 4.000000, 4.000000, 4.000000, 4.000000, 4.000000, 4.000000, 4.000000, 4.000000
99.000000, 0.000000, 4039.487061, 4126.153809, 4193.846191, 4220.000000, 4187.692383, 4203.076660, 4215.384277, 4223.589844, 4238.974121, 4250.256348, 4220.512695, 4178.974121, 4313.333008, 4204.615234, 951.000000, 8192.000000, 8089.000000, 0.000000, 0.000000, 0.000000, -21707.000000, 133.846146, 4.000000, 4.000000, 4.000000, 4.000000, 4.000000, 4.000000, 4.000000, 4.000000, 4.000000, 4.000000, 4.000000, 4.000000, 4.000000, 4.000000, 4.000000, 4.000000
100.000000, 0.000000, 4036.410156, 4143.589844, 4188.205078, 4217.948730, 4178.974121, 4195.897461, 4201.025391, 4210.256348, 4220.512695, 4247.692383, 4213.846191, 4169.743652, 4303.076660, 4201.538574, 3467.000000, 8192.000000, 8089.000000, 0.000000, 0.000000, 0.000000, -21707.000000, 142.051285, 4.000000, 4.000000, 4.000000, 4.000000, 4.000000, 4.000000, 4.000000, 4.000000, 4.000000, 4.000000, 4.000000, 4.000000, 4.000000, 4.000000, 4.000000, 4.000000
101.000000, 0.000000, 4037.435791, 4157.436035, 4185.641113, 4200.512695, 4195.384277, 4196.922852, 4197.948730, 4203.589844, 4205.641113, 4243.076660, 4204.615234, 4163.076660, 4284.615234, 4197.948730, 3422.000000, 8194.000000, 8087.000000, 0.000000, 0.000000, 0.000000, -21707.000000, 149.743591, 4.000000, 4.000000, 4.000000, 4.000000, 4.000000, 4.000000, 4.000000, 4.000000, 4.000000, 4.000000, 4.000000, 4.000000, 4.000000, 4.000000, 4.000000, 4.000000
102.000000, 0.000000, 4043.076904, 4168.205078, 4188.717773, 4196.410156, 4202.563965, 4209.230469, 4212.820313, 4225.641113, 4229.230469, 4262.563965, 4216.410156, 4168.717773, 4310.769043, 4204.615234, 3544.000000, 8194.000000, 8087.000000, 0.000000, 0.000000, 0.000000, -21707.000000, 157.948715, 4.000000, 4.000000, 4.000000, 4.000000, 4.000000, 4.000000, 4.000000, 4.000000, 4.000000, 4.000000, 4.000000, 4.000000, 4.000000, 4.000000, 4.000000, 4.000000
103.000000, 0.000000, 4054.871582, 4194.871582, 4191.281738, 4210.256348, 4200.512695, 4217.948730, 4219.487305, 4237.948730, 4241.538574, 4271.794922, 4221.538574, 4169.230469, 4331.281738, 4202.563965, 951.000000, 8195.000000, 8085.000000, 0.000000, 0.000000, 0.000000, -21707.000000, 165.641022, 4.000000, 4.000000, 4.000000, 4.000000, 4.000000, 4.000000, 4.000000, 4.000000, 4.000000, 4.000000, 4.000000, 4.000000, 4.000000, 4.000000, 4.000000, 4.000000
104.000000, 0.000000, 4051.281982, 4217.948730, 4186.666504, 4203.076660, 4206.153809, 4220.000000, 4219.487305, 4231.794922, 4230.256348, 4263.589844, 4215.384277, 4167.179199, 4329.230469, 4201.538574, 3467.000000, 8195.000000, 8085.000000, 0.000000, 0.000000, 0.000000, -21707.000000, 173.333328, 4.000000, 4.000000, 4.000000, 4.000000, 4.000000, 4.000000, 4.000000, 4.000000, 4.000000, 4.000000, 4.000000, 4.000000, 4.000000, 4.000000, 4.000000, 4.000000
105.000000, 0.000000, 4054.358887, 4232.307617, 4187.179199, 4197.436035, 4212.820313, 4217.948730, 4220.512695, 4233.333008, 4231.794922, 4263.589844, 4215.384277, 4170.769043, 4332.307617, 4202.051270, 3422.000000, 8198.000000, 8082.000000, 0.000000, 0.000000, 0.000000, -21707.000000, 181.538452, 4.000000, 4.000000, 4.000000, 4.000000, 4.000000, 4.000000, 4.000000, 4.000000, 4.000000, 4.000000, 4.000000, 4.000000, 4.000000, 4.000000, 4.000000, 4.000000
106.000000, 0.000000, 4065.640869, 4246.666504, 4194.358887, 4212.820313, 4206.666504, 4213.846191, 4216.410156, 4235.897461, 4236.922852, 4268.205078, 4216.410156, 4173.333008, 4337.948730, 4200.512695, 3544.000000, 8198.000000, 8082.000000, 0.000000, 0.000000, 0.000000, -21707.000000, 189.743591, 4.000000, 4.000000, 4.000000, 4.000000, 4.000000, 4.000000, 4.000000, 4.000000, 4.000000, 4.000000, 4.000000, 4.000000, 4.000000, 4.000000, 4.000000, 4.000000
107.000000, 0.000000, 4067.692139, 4256.410156, 4198.461426, 4216.410156, 4187.179199, 4206.666504, 4209.230469, 4229.230469, 4231.281738, 4263.589844, 4209.743652, 4171.281738, 4337.948730, 4203.589844, 951.000000, 8197.000000, 8082.000000, 0.000000, 0.000000, 0.000000, -21707.000000, 197.435898, 4.000000, 4.000000, 4.000000, 4.000000, 4.000000, 4.000000, 4.000000, 4.000000, 4.000000, 4.000000, 4.000000, 4.000000, 4.000000, 4.000000, 4.000000, 4.000000
108.000000, 0.000000, 4073.845947, 4264.102539, 4199.487305, 4209.743652, 4187.179199, 4203.076660, 4206.666504, 4226.153809, 4227.179199, 4256.410156, 4201.538574, 4168.205078, 4335.384277, 4201.538574, 3467.000000, 8197.000000, 8082.000000, 0.000000, 0.000000, 0.000000, -21707.000000, 205.128204, 4.000000, 4.000000, 4.000000, 4.000000, 4.000000, 4.000000, 4.000000, 4.000000, 4.000000, 4.000000, 4.000000, 4.000000, 4.000000, 4.000000, 4.000000, 4.000000
109.000000, 0.000000, 4076.410156, 4275.897461, 4201.025391, 4210.769043, 4211.794922, 4212.820313, 4216.410156, 4237.436035, 4236.410156, 4263.589844, 4207.179199, 4174.871582, 4340.512695, 4203.076660, 3422.000000, 8193.000000, 8081.000000, 0.000000, 0.000000, 0.000000, -21707.000000, 213.333328, 4.000000, 4.000000, 4.000000, 4.000000, 4.000000, 4.000000, 4.000000, 4.000000, 4.000000, 4.000000, 4.000000, 4.000000, 4.000000, 4.000000, 4.000000, 4.000000
110.000000, 0.000000, 4085.128174, 4292.307617, 4201.538574, 4223.076660, 4223.589844, 4216.410156, 4217.436035, 4238.974121, 4235.384277, 4268.205078, 4213.846191, 4174.358887, 4342.051270, 4202.563965, 3544.000000, 8193.000000, 8081.000000, 0.000000, 0.000000, 0.000000, -21707.000000, 221.025635, 4.000000, 4.000000, 4.000000, 4.000000, 4.000000, 4.000000, 4.000000, 4.000000, 4.000000, 4.000000, 4.000000, 4.000000, 4.000000, 4.000000, 4.000000, 4.000000
111.000000, 0.000000, 4085.128174, 4293.333008, 4194.871582, 4216.410156, 4201.025391, 4200.000000, 4198.461426, 4215.384277, 4213.846191, 4253.333008, 4201.025391, 4157.436035, 4331.281738, 4196.922852, 951.000000, 8195.000000, 8076.000000, 0.000000, 0.000000, 0.000000, -21707.000000, 229.230759, 4.000000, 4.000000, 4.000000, 4.000000, 4.000000, 4.000000, 4.000000, 4.000000, 4.000000, 4.000000, 4.000000, 4.000000, 4.000000, 4.000000, 4.000000, 4.000000
112.000000, 0.000000, 4070.256348, 4281.025391, 4190.769043, 4195.897461, 4184.102539, 4198.461426, 4200.000000, 4214.871582, 4216.410156, 4244.615234, 4191.794922, 4155.384277, 4325.641113, 4198.461426, 3467.000000, 8195.000000, 8076.000000, 0.000000, 0.000000, 0.000000, -21707.000000, 236.923065, 4.000000, 4.000000, 4.000000, 4.000000, 4.000000, 4.000000, 4.000000, 4.000000, 4.000000, 4.000000, 4.000000, 4.000000, 4.000000, 4.000000, 4.000000, 4.000000
113.000000, 0.000000, 4084.615234, 4288.717773, 4196.410156, 4201.025391, 4208.205078, 4217.436035, 4220.512695, 4236.922852, 4235.897461, 4253.846191, 4201.025391, 4167.692383, 4336.922852, 4202.563965, 3422.000000, 8197.000000, 8080.000000, 0.000000, 0.000000, 0.000000, -21707.000000, 244.615372, 4.000000, 4.000000, 4.000000, 4.000000, 4.000000, 4.000000, 4.000000, 4.000000, 4.000000, 4.000000, 4.000000, 4.000000, 4.000000, 4.000000, 4.000000, 4.000000
114.000000, 0.000000, 4100.512695, 4311.794922, 4195.384277, 4213.846191, 4227.179199, 4213.846191, 4210.256348, 4224.102539, 4224.615234, 4253.846191, 4203.589844, 4167.179199, 4342.051270, 4204.102539, 3544.000000, 8197.000000, 8080.000000, 0.000000, 0.000000, 0.000000, -21707.000000, 252.307693, 4.000000, 4.000000, 4.000000, 4.000000, 4.000000, 4.000000, 4.000000, 4.000000, 4.000000, 4.000000, 4.000000, 4.000000, 4.000000, 4.000000, 4.000000, 4.000000
115.000000, 0.000000, 4105.127930, 4336.410156, 4195.897461, 4238.974121, 4202.051270, 4190.769043, 4184.615234, 4193.333008, 4203.589844, 4241.025391, 4197.436035, 4158.461426, 4333.846191, 4203.076660, 951.000000, 8196.000000, 8094.000000, 0.000000, 0.000000, 0.000000, -21707.000000, 260.512817, 4.000000, 4.000000, 4.000000, 4.000000, 4.000000, 4.000000, 4.000000, 4.000000, 4.000000, 4.000000, 4.000000, 4.000000, 4.000000, 4.000000, 4.000000, 4.000000
116.000000, 0.000000, 4120.512695, 4351.281738, 4210.256348, 4265.641113, 4192.307617, 4192.820313, 4186.666504, 4200.512695, 4217.436035, 4248.205078, 4212.307617, 4170.256348, 4346.153809, 4206.666504, 3467.000000, 8196.000000, 8094.000000, 0.000000, 0.000000, 0.000000, -21707.000000, 268.205109, 4.000000, 4.000000, 4.000000, 4.000000, 4.000000, 4.000000, 4.000000, 4.000000, 4.000000, 4.000000, 4.000000, 4.000000, 4.000000, 4.000000, 4.000000, 4.000000
117.000000, 0.000000, 4125.127930, 4349.230469, 4205.641113, 4247.692383, 4223.589844, 4202.051270, 4193.846191, 4214.871582, 4229.230469, 4257.436035, 4216.410156, 4176.922852, 4343.076660, 4206.153809, 3422.000000, 8202.000000, 8114.000000, 0.000000, 0.000000, 0.000000, -21707.000000, 275.897430, 4.000000, 4.000000, 4.000000, 4.000000, 4.000000, 4.000000, 4.000000, 4.000000, 4.000000, 4.000000, 4.000000, 4.000000, 4.000000, 4.000000, 4.000000, 4.000000
118.000000, 0.000000, 4113.333008, 4349.230469, 4184.615234, 4202.563965, 4218.974121, 4185.127930, 4180.512695, 4186.666504, 4201.538574, 4234.358887, 4181.538574, 4149.743652, 4298.974121, 4194.871582, 3544.000000, 8202.000000, 8114.000000, 0.000000, 0.000000, 0.000000, -21707.000000, 284.102570, 4.000000, 4.000000, 4.000000, 4.000000, 4.000000, 4.000000, 4.000000, 4.000000, 4.000000, 4.000000, 4.000000, 4.000000, 4.000000, 4.000000, 4.000000, 4.000000
119.000000, 0.000000, 4108.205078, 4364.102539, 4190.769043, 4213.846191, 4194.871582, 4186.666504, 4177.948730, 4168.205078, 4190.769043, 4227.179199, 4173.846191, 4144.615234, 4289.743652, 4196.922852, 951.000000, 8200.000000, 8128.000000, 0.000000, 0.000000, 0.000000, -21707.000000, 291.794861, 4.000000, 4.000000, 4.000000, 4.000000, 4.000000, 4.000000, 4.000000, 4.000000, 4.000000, 4.000000, 4.000000, 4.000000, 4.000000, 4.000000, 4.000000, 4.000000
120.000000, 0.000000, 4122.563965, 4378.461426, 4207.692383, 4262.563965, 4217.948730, 4213.333008, 4195.384277, 4194.871582, 4212.820313, 4250.256348, 4202.051270, 4170.256348, 4321.538574, 4206.153809, 3467.000000, 8200.000000, 8128.000000, 0.000000, 0.000000, 0.000000, -21707.000000, 299.487183, 4.000000, 4.000000, 4.000000, 4.000000, 4.000000, 4.000000, 4.000000, 4.000000, 4.000000, 4.000000, 4.000000, 4.000000, 4.000000, 4.000000, 4.000000, 4.000000
121.000000, 0.000000, 4123.589844, 4388.205078, 4197.436035, 4250.769043, 4225.127930, 4210.769043, 4194.871582, 4202.051270, 4212.820313, 4246.666504, 4204.615234, 4169.230469, 4322.051270, 4201.025391, 3422.000000, 8206.000000, 8126.000000, 0.000000, 0.000000, 0.000000, -21707.000000, 307.692291, 4.000000, 4.000000, 4.000000, 4.000000, 4.000000, 4.000000, 4.000000, 4.000000, 4.000000, 4.000000, 4.000000, 4.000000, 4.000000, 4.000000, 4.000000, 4.000000
122.000000, 0.000000, 4115.384277, 4408.717773, 4189.230469, 4225.641113, 4201.025391, 4193.333008, 4182.563965, 4169.743652, 4187.179199, 4228.205078, 4193.846191, 4158.974121, 4316.410156, 4198.461426, 3544.000000, 8206.000000, 8126.000000, 0.000000, 0.000000, 0.000000, -21707.000000, 315.897430, 4.000000, 4.000000, 4.000000, 4.000000, 4.000000, 4.000000, 4.000000, 4.000000, 4.000000, 4.000000, 4.000000, 4.000000, 4.000000, 4.000000, 4.000000, 4.000000
123.000000, 0.000000, 4125.127930, 4428.205078, 4200.512695, 4237.948730, 4203.076660, 4197.948730, 4187.692383, 4163.076660, 4178.974121, 4233.846191, 4191.794922, 4163.076660, 4322.051270, 4200.000000, 951.000000, 8213.000000, 8134.000000, 0.000000, 0.000000, 0.000000, -21707.000000, 323.589722, 4.000000, 4.000000, 4.000000, 4.000000, 4.000000, 4.000000, 4.000000, 4.000000, 4.000000, 4.000000, 4.000000, 4.000000, 4.000000, 4.000000, 4.000000, 4.000000
124.000000, 0.000000, 4115.897461, 4435.384277, 4198.974121, 4248.205078, 4209.230469, 4198.974121, 4189.230469, 4183.589844, 4190.769043, 4238.974121, 4188.717773, 4161.025391, 4311.281738, 4198.461426, 3467.000000, 8213.000000, 8134.000000, 0.000000, 0.000000, 0.000000, -21707.000000, 331.282043, 4.000000, 4.000000, 4.000000, 4.000000, 4.000000, 4.000000, 4.000000, 4.000000, 4.000000, 4.000000, 4.000000, 4.000000, 4.000000, 4.000000, 4.000000, 4.000000
125.000000, 0.000000, 4109.230469, 4454.358887, 4195.897461, 4234.871582, 4204.102539, 4192.307617, 4184.102539, 4187.179199, 4196.410156, 4241.025391, 4203.076660, 4164.615234, 4326.666504, 4197.948730, 3422.000000, 8210.000000, 8146.000000, 0.000000, 0.000000, 0.000000, -21707.000000, 339.487183, 4.000000, 4.000000, 4.000000, 4.000000, 4.000000, 4.000000, 4.000000, 4.000000, 4.000000, 4.000000, 4.000000, 4.000000, 4.000000, 4.000000, 4.000000, 4.000000
126.000000, 0.000000, 4130.769043, 4497.948730, 4211.794922, 4255.384277, 4215.384277, 4200.000000, 4193.333008, 4180.000000, 4194.358887, 4246.153809, 4215.897461, 4178.974121, 4360.000000, 4198.974121, 3544.000000, 8210.000000, 8146.000000, 0.000000, 0.000000, 0.000000, -21707.000000, 347.179474, 4.000000, 4.000000, 4.000000, 4.000000, 4.000000, 4.000000, 4.000000, 4.000000, 4.000000, 4.000000, 4.000000, 4.000000, 4.000000, 4.000000, 4.000000, 4.000000
127.000000, 0.000000, 4126.666504, 4523.076660, 4215.384277, 4297.948730, 4220.000000, 4202.563965, 4194.871582, 4171.281738, 4186.153809, 4226.666504, 4186.153809, 4170.256348, 4335.897461, 4196.922852, 54.000000, 8215.000000, 8157.000000, 0.000000, 0.000000, 0.000000, -21707.000000, 354.871796, 4.000000, 4.000000, 4.000000, 4.000000, 4.000000, 4.000000, 4.000000, 4.000000, 4.000000, 4.000000, 4.000000, 4.000000, 4.000000, 4.000000, 4.000000, 4.000000
0.000000, 0.000000, 4108.205078, 4518.974121, 4196.410156, 4266.666504, 4211.794922, 4197.436035, 4182.563965, 4167.179199, 4176.410156, 4208.717773, 4155.897461, 4147.179199, 4301.025391, 4190.256348, 3354.000000, 8215.000000, 8157.000000, 0.000000, 0.000000, 0.000000, -21707.000000, 362.564087, 4.000000, 4.000000, 4.000000, 4.000000, 4.000000, 4.000000, 4.000000, 4.000000, 4.000000, 4.000000, 4.000000, 4.000000, 4.000000, 4.000000, 4.000000, 4.000000
1.000000, 0.000000, 4108.717773, 4538.461426, 4184.102539, 4228.717773, 4227.692383, 4215.384277, 4195.897461, 4184.102539, 4180.512695, 4217.436035, 4170.769043, 4143.076660, 4325.127930, 4194.871582, 3495.000000, 8209.000000, 8172.000000, 0.000000, 0.000000, 0.000000, -21707.000000, 370.769226, 4.000000, 4.000000, 4.000000, 4.000000, 4.000000, 4.000000, 4.000000, 4.000000, 4.000000, 4.000000, 4.000000, 4.000000, 4.000000, 4.000000, 4.000000, 4.000000
2.000000, 0.000000, 4112.307617, 4575.897461, 4185.641113, 4250.769043, 4232.820313, 4225.641113, 4212.307617, 4200.000000, 4190.256348, 4219.487305, 4179.487305, 4146.153809, 4340.000000, 4199.487305, 2674.000000, 8209.000000, 8172.000000, 0.000000, 0.000000, 0.000000, -21707.000000, 378.461517, 4.000000, 4.000000, 4.000000, 4.000000, 4.000000, 4.000000, 4.000000, 4.000000, 4.000000, 4.000000, 4.000000, 4.000000, 4.000000, 4.000000, 4.000000, 4.000000
3.000000, 0.000000, 4107.179199, 4590.769043, 4186.666504, 4256.922852, 4200.512695, 4208.205078, 4200.512695, 4197.948730, 4196.922852, 4214.871582, 4163.589844, 4145.127930, 4335.897461, 4192.820313, 1973.000000, 8210.000000, 8178.000000, 0.000000, 0.000000, 0.000000, -21707.000000, 386.153839, 4.000000, 4.000000, 4.000000, 4.000000, 4.000000, 4.000000, 4.000000, 4.000000, 4.000000, 4.000000, 4.000000, 4.000000, 4.000000, 4.000000, 4.000000, 4.000000
4.000000, 0.000000, 4110.769043, 4614.871582, 4196.922852, 4248.717773, 4202.563965, 4208.205078, 4198.461426, 4211.281738, 4220.000000, 4237.436035, 4179.487305, 4161.538574, 4375.897461, 4201.025391, 3544.000000, 8210.000000, 8178.000000, 0.000000, 0.000000, 0.000000, -21707.000000, 393.846130, 4.000000, 4.000000, 4.000000, 4.000000, 4.000000, 4.000000, 4.000000, 4.000000, 4.000000, 4.000000, 4.000000, 4.000000, 4.000000, 4.000000, 4.000000, 4.000000
5.000000, 0.000000, 4139.487305, 4663.589844, 4211.281738, 4280.000000, 4235.897461, 4221.538574, 4208.717773, 4225.641113, 4239.487305, 4262.563965, 4208.205078, 4181.538574, 4418.461426, 4212.307617, 3553.000000, 8208.000000, 8183.000000, 0.000000, 0.000000, 0.000000, -21707.000000, 402.051270, 4.000000, 4.000000, 4.000000, 4.000000, 4.000000, 4.000000, 4.000000, 4.000000, 4.000000, 4.000000, 4.000000, 4.000000, 4.000000, 4.000000, 4.000000, 4.000000
6.000000, 0.000000, 4135.384277, 4675.897461, 4203.589844, 4292.307617, 4223.589844, 4207.692383, 4201.025391, 4208.205078, 4218.461426, 4250.769043, 4189.743652, 4171.281738, 4407.692383, 4202.051270, 3067.000000, 8208.000000, 8183.000000, 0.000000, 0.000000, 0.000000, -21707.000000, 409.743591, 4.000000, 4.000000, 4.000000, 4.000000, 4.000000, 4.000000, 4.000000, 4.000000, 4.000000, 4.000000, 4.000000, 4.000000, 4.000000, 4.000000, 4.000000, 4.000000
7.000000, 0.000000, 4110.769043, 4674.358887, 4193.846191, 4261.538574, 4193.333008, 4194.358887, 4192.820313, 4187.692383, 4193.846191, 4227.692383, 4158.974121, 4155.897461, 4394.358887, 4194.871582, 3521.000000, 8208.000000, 8207.000000, 0.000000, 0.000000, 0.000000, -21707.000000, 417.435883, 4.000000, 4.000000, 4.000000, 4.000000, 4.000000, 4.000000, 4.000000, 4.000000, 4.000000, 4.000000, 4.000000, 4.000000, 4.000000, 4.000000, 4.000000, 4.000000
8.000000, 0.000000, 4122.051270, 4709.743652, 4200.000000, 4263.589844, 4208.717773, 4202.051270, 4197.436035, 4190.769043, 4206.666504, 4232.307617, 4167.179199, 4167.179199, 4416.922852, 4200.512695, 3527.000000, 8208.000000, 8207.000000, 0.000000, 0.000000, 0.000000, -21707.000000, 425.641022, 4.000000, 4.000000, 4.000000, 4.000000, 4.000000, 4.000000, 4.000000, 4.000000, 4.000000, 4.000000, 4.000000, 4.000000, 4.000000, 4.000000, 4.000000, 4.000000
9.000000, 0.000000, 4122.563965, 4737.948730, 4193.333008, 4280.512695, 4210.256348, 4194.871582, 4192.307617, 4186.153809, 4203.076660, 4235.897461, 4175.897461, 4168.205078, 4433.333008, 4202.563965, 3530.000000, 8205.000000, 8205.000000, 0.000000, 0.000000, 0.000000, -21707.000000, 433.333313, 4.000000, 4.000000, 4.000000, 4.000000, 4.000000, 4.000000, 4.000000, 4.000000, 4.000000, 4.000000, 4.000000, 4.000000, 4.000000, 4.000000, 4.000000, 4.000000
10.000000, 0.000000, 4123.076660, 4757.435547, 4197.948730, 4308.205078, 4192.820313, 4188.205078, 4186.153809, 4175.897461, 4187.179199, 4226.666504, 4171.794922, 4163.076660, 4451.281738, 4199.487305, 3549.000000, 8205.000000, 8205.000000, 0.000000, 0.000000, 0.000000, -21707.000000, 441.025635, 4.000000, 4.000000, 4.000000, 4.000000, 4.000000, 4.000000, 4.000000, 4.000000, 4.000000, 4.000000, 4.000000, 4.000000, 4.000000, 4.000000, 4.000000, 4.000000
11.000000, 0.000000, 4138.974121, 4782.563965, 4222.563965, 4344.102539, 4213.846191, 4198.461426, 4187.692383, 4184.615234, 4198.974121, 4235.897461, 4180.000000, 4177.948730, 4482.051270, 4201.025391, 952.000000, 8207.000000, 8190.000000, 0.000000, 0.000000, 0.000000, -21707.000000, 448.717926, 4.000000, 4.000000, 4.000000, 4.000000, 4.000000, 4.000000, 4.000000, 4.000000, 4.000000, 4.000000, 4.000000, 4.000000, 4.000000, 4.000000, 4.000000, 4.000000
12.000000, 0.000000, 4123.076660, 4784.102539, 4206.666504, 4317.948730, 4211.794922, 4183.589844, 4175.384277, 4174.871582, 4188.205078, 4234.871582, 4170.256348, 4167.692383, 4473.333008, 4198.974121, 3484.000000, 8207.000000, 8190.000000, 0.000000, 0.000000, 0.000000, -21707.000000, 456.923065, 4.000000, 4.000000, 4.000000, 4.000000, 4.000000, 4.000000, 4.000000, 4.000000, 4.000000, 4.000000, 4.000000, 4.000000, 4.000000, 4.000000, 4.000000, 4.000000
