title:neutral28, recorded:21.05.18 11.41.51, timestamp started:2018-05-12T20:28:52.032863+02:00            , sampling:128, subject:Noé, labels:COUNTER INTERPOLATED AF3 F7 F3 FC5 T7 P7 O1 O2 P8 T8 FC6 F4 F8 AF4 RAW_CQ GYROX GYROY MARKER MARKER_HARDWARE SYNC TIME_STAMP_s TIME_STAMP_ms CQ_AF3 CQ_F7 CQ_F3 CQ_FC5 CQ_T7 CQ_P7 CQ_O1 CQ_O2 CQ_P8 CQ_T8 CQ_FC6 CQ_F4 CQ_F8 CQ_AF4 CQ_CMS CQ_DRL, chan:40, samples:2634, units:emotiv
50.000000, 0.000000, 4169.230469, 4356.922852, 4158.974121, 4157.436035, 4156.410156, 4157.436035, 4164.615234, 4171.794922, 4198.461426, 4163.589844, 4159.487305, 4203.076660, 4154.871582, 4157.436035, 0.000000, 8306.000000, 8069.000000, 0.000000, 0.000000, 0.000000, 25083.000000, 644.102539, 4.000000, 4.000000, 4.000000, 4.000000, 4.000000, 4.000000, 4.000000, 4.000000, 4.000000, 4.000000, 4.000000, 4.000000, 4.000000, 4.000000, 4.000000, 4.000000
51.000000, 0.000000, 4165.641113, 4349.230469, 4154.871582, 4153.846191, 4158.461426, 4158.974121, 4169.743652, 4171.281738, 4196.410156, 4169.230469, 4158.974121, 4203.589844, 4157.948730, 4155.384277, 0.000000, 8300.000000, 8051.000000, 0.000000, 0.000000, 0.000000, 25083.000000, 652.307678, 4.000000, 4.000000, 4.000000, 4.000000, 4.000000, 4.000000, 4.000000, 4.000000, 4.000000, 4.000000, 4.000000, 4.000000, 4.000000, 4.000000, 4.000000, 4.000000
52.000000, 0.000000, 4156.922852, 4344.102539, 4150.769043, 4153.333008, 4164.102539, 4161.025391, 4168.717773, 4171.281738, 4193.846191, 4167.692383, 4157.948730, 4197.948730, 4158.461426, 4161.538574, 0.000000, 8300.000000, 8051.000000, 0.000000, 0.000000, 0.000000, 25083.000000, 660.000000, 4.000000, 4.000000, 4.000000, 4.000000, 4.000000, 4.000000, 4.000000, 4.000000, 4.000000, 4.000000, 4.000000, 4.000000, 4.000000, 4.000000, 4.000000, 4.000000
53.000000, 0.000000, 4156.922852, 4341.025391, 4153.333008, 4155.384277, 4163.589844, 4167.179199, 4173.846191, 4174.358887, 4196.922852, 4166.153809, 4153.846191, 4189.743652, 4146.153809, 4152.307617, 0.000000, 8297.000000, 8047.000000, 0.000000, 0.000000, 0.000000, 25083.000000, 668.205139, 4.000000, 4.000000, 4.000000, 4.000000, 4.000000, 4.000000, 4.000000, 4.000000, 4.000000, 4.000000, 4.000000, 4.000000, 4.000000, 4.000000, 4.000000, 4.000000
54.000000, 0.000000, 4153.333008, 4331.281738, 4148.717773, 4153.333008, 4157.948730, 4170.256348, 4185.641113, 4185.127930, 4199.487305, 4167.692383, 4150.769043, 4189.743652, 4134.358887, 4136.922852, 0.000000, 8297.000000, 8047.000000, 0.000000, 0.000000, 0.000000, 25083.000000, 675.897400, 4.000000, 4.000000, 4.000000, 4.000000, 4.000000, 4.000000, 4.000000, 4.000000, 4.000000, 4.000000, 4.000000, 4.000000, 4.000000, 4.000000, 4.000000, 4.000000
55.000000, 0.000000, 4148.717773, 4327.692383, 4142.563965, 4152.820313, 4154.871582, 4169.743652, 4189.230469, 4187.692383, 4198.461426, 4173.333008, 4160.512695, 4197.436035, 4153.333008, 4143.589844, 0.000000, 8284.000000, 8051.000000, 0.000000, 0.000000, 0.000000, 25083.000000, 683.589722, 4.000000, 4.000000, 4.000000, 4.000000, 4.000000, 4.000000, 4.000000, 4.000000, 4.000000, 4.000000, 4.000000, 4.000000, 4.000000, 4.000000, 4.000000, 4.000000
56.000000, 0.000000, 4158.461426, 4330.769043, 4147.692383, 4158.461426, 4158.974121, 4173.333008, 4185.641113, 4183.589844, 4198.974121, 4182.051270, 4176.410156, 4205.641113, 4183.076660, 4162.563965, 0.000000, 8284.000000, 8051.000000, 0.000000, 0.000000, 0.000000, 25083.000000, 691.282043, 4.000000, 4.000000, 4.000000, 4.000000, 4.000000, 4.000000, 4.000000, 4.000000, 4.000000, 4.000000, 4.000000, 4.000000, 4.000000, 4.000000, 4.000000, 4.000000
57.000000, 0.000000, 4169.743652, 4325.127930, 4154.358887, 4159.487305, 4166.153809, 4175.897461, 4186.153809, 4191.794922, 4200.512695, 4187.179199, 4185.641113, 4217.436035, 4191.794922, 4175.384277, 0.000000, 8283.000000, 8049.000000, 0.000000, 0.000000, 0.000000, 25083.000000, 699.487183, 4.000000, 4.000000, 4.000000, 4.000000, 4.000000, 4.000000, 4.000000, 4.000000, 4.000000, 4.000000, 4.000000, 4.000000, 4.000000, 4.000000, 4.000000, 4.000000
58.000000, 0.000000, 4168.717773, 4313.333008, 4155.897461, 4155.384277, 4165.127930, 4173.333008, 4188.205078, 4193.846191, 4200.512695, 4188.205078, 4189.230469, 4225.641113, 4196.410156, 4185.127930, 0.000000, 8283.000000, 8049.000000, 0.000000, 0.000000, 0.000000, 25083.000000, 707.179443, 4.000000, 4.000000, 4.000000, 4.000000, 4.000000, 4.000000, 4.000000, 4.000000, 4.000000, 4.000000, 4.000000, 4.000000, 4.000000, 4.000000, 4.000000, 4.000000
59.000000, 0.000000, 4168.205078, 4304.615234, 4155.897461, 4151.794922, 4157.436035, 4171.794922, 4182.563965, 4176.922852, 4196.410156, 4190.256348, 4192.307617, 4222.563965, 4205.641113, 4197.436035, 0.000000, 8273.000000, 8060.000000, 0.000000, 0.000000, 0.000000, 25083.000000, 715.384583, 4.000000, 4.000000, 4.000000, 4.000000, 4.000000, 4.000000, 4.000000, 4.000000, 4.000000, 4.000000, 4.000000, 4.000000, 4.000000, 4.000000, 4.000000, 4.000000
60.000000, 0.000000, 4169.743652, 4300.512695, 4153.333008, 4143.589844, 4152.820313, 4165.127930, 4173.333008, 4171.281738, 4197.436035, 4188.205078, 4190.769043, 4220.000000, 4207.692383, 4204.615234, 0.000000, 8273.000000, 8060.000000, 0.000000, 0.000000, 0.000000, 25083.000000, 723.076904, 4.000000, 4.000000, 4.000000, 4.000000, 4.000000, 4.000000, 4.000000, 4.000000, 4.000000, 4.000000, 4.000000, 4.000000, 4.000000, 4.000000, 4.000000, 4.000000
61.000000, 0.000000, 4166.666504, 4294.358887, 4148.717773, 4135.384277, 4152.820313, 4156.922852, 4173.333008, 4177.948730, 4198.461426, 4186.666504, 4189.743652, 4220.512695, 4204.615234, 4207.692383, 0.000000, 8275.000000, 8071.000000, 0.000000, 0.000000, 0.000000, 25083.000000, 731.282043, 4.000000, 4.000000, 4.000000, 4.000000, 4.000000, 4.000000, 4.000000, 4.000000, 4.000000, 4.000000, 4.000000, 4.000000, 4.000000, 4.000000, 4.000000, 4.000000
62.000000, 0.000000, 4164.102539, 4286.153809, 4149.230469, 4136.922852, 4151.281738, 4161.025391, 4171.281738, 4171.794922, 4190.769043, 4187.179199, 4192.307617, 4219.487305, 4202.051270, 4211.281738, 0.000000, 8275.000000, 8071.000000, 0.000000, 0.000000, 0.000000, 25083.000000, 738.974365, 4.000000, 4.000000, 4.000000, 4.000000, 4.000000, 4.000000, 4.000000, 4.000000, 4.000000, 4.000000, 4.000000, 4.000000, 4.000000, 4.000000, 4.000000, 4.000000
63.000000, 0.000000, 4168.717773, 4288.717773, 4157.436035, 4141.025391, 4158.974121, 4169.230469, 4168.205078, 4165.127930, 4191.794922, 4187.692383, 4197.436035, 4224.615234, 4206.153809, 4215.897461, 0.000000, 8275.000000, 8078.000000, 0.000000, 0.000000, 0.000000, 25083.000000, 746.666626, 4.000000, 4.000000, 4.000000, 4.000000, 4.000000, 4.000000, 4.000000, 4.000000, 4.000000, 4.000000, 4.000000, 4.000000, 4.000000, 4.000000, 4.000000, 4.000000
64.000000, 0.000000, 4172.820313, 4293.846191, 4163.589844, 4142.563965, 4166.153809, 4168.717773, 4179.487305, 4170.256348, 4197.948730, 4188.205078, 4204.102539, 4232.307617, 4215.384277, 4220.512695, 3035.000000, 8275.000000, 8078.000000, 0.000000, 0.000000, 0.000000, 25083.000000, 754.358948, 4.000000, 4.000000, 4.000000, 4.000000, 4.000000, 4.000000, 4.000000, 4.000000, 4.000000, 4.000000, 4.000000, 4.000000, 4.000000, 4.000000, 4.000000, 4.000000
65.000000, 0.000000, 4171.281738, 4291.794922, 4166.666504, 4145.641113, 4160.512695, 4169.230469, 4185.127930, 4170.769043, 4192.307617, 4186.666504, 4201.025391, 4233.333008, 4211.281738, 4218.461426, 3515.000000, 8276.000000, 8094.000000, 0.000000, 0.000000, 0.000000, 25083.000000, 762.564087, 4.000000, 4.000000, 4.000000, 4.000000, 4.000000, 4.000000, 4.000000, 4.000000, 4.000000, 4.000000, 4.000000, 4.000000, 4.000000, 4.000000, 4.000000, 4.000000
66.000000, 0.000000, 4171.794922, 4286.666504, 4168.717773, 4150.256348, 4160.000000, 4174.358887, 4172.307617, 4170.256348, 4191.281738, 4185.127930, 4190.256348, 4232.307617, 4203.076660, 4212.820313, 3514.000000, 8276.000000, 8094.000000, 0.000000, 0.000000, 0.000000, 25083.000000, 770.256409, 4.000000, 4.000000, 4.000000, 4.000000, 4.000000, 4.000000, 4.000000, 4.000000, 4.000000, 4.000000, 4.000000, 4.000000, 4.000000, 4.000000, 4.000000, 4.000000
67.000000, 0.000000, 4176.922852, 4286.666504, 4168.717773, 4150.769043, 4167.692383, 4171.794922, 4165.127930, 4170.769043, 4197.948730, 4184.102539, 4190.256348, 4231.281738, 4206.153809, 4209.230469, 2180.000000, 8276.000000, 8092.000000, 0.000000, 0.000000, 0.000000, 25083.000000, 777.948669, 4.000000, 4.000000, 4.000000, 4.000000, 4.000000, 4.000000, 4.000000, 4.000000, 4.000000, 4.000000, 4.000000, 4.000000, 4.000000, 4.000000, 4.000000, 4.000000
68.000000, 0.000000, 4182.563965, 4288.717773, 4174.358887, 4154.358887, 4170.256348, 4170.769043, 4168.717773, 4169.230469, 4197.436035, 4185.127930, 4199.487305, 4230.769043, 4214.358887, 4214.871582, 3373.000000, 8276.000000, 8092.000000, 0.000000, 0.000000, 0.000000, 25083.000000, 786.153809, 4.000000, 4.000000, 4.000000, 4.000000, 4.000000, 4.000000, 4.000000, 4.000000, 4.000000, 4.000000, 4.000000, 4.000000, 4.000000, 4.000000, 4.000000, 4.000000
69.000000, 0.000000, 4184.615234, 4291.281738, 4176.922852, 4161.538574, 4169.230469, 4179.487305, 4168.717773, 4175.384277, 4196.410156, 4191.281738, 4204.615234, 4237.948730, 4216.410156, 4220.512695, 3557.000000, 8275.000000, 8103.000000, 0.000000, 0.000000, 0.000000, 25083.000000, 793.846130, 4.000000, 4.000000, 4.000000, 4.000000, 4.000000, 4.000000, 4.000000, 4.000000, 4.000000, 4.000000, 4.000000, 4.000000, 4.000000, 4.000000, 4.000000, 4.000000
70.000000, 0.000000, 4185.641113, 4296.410156, 4176.410156, 4161.538574, 4170.769043, 4186.666504, 4169.743652, 4183.589844, 4201.538574, 4200.000000, 4205.127930, 4246.666504, 4217.436035, 4217.948730, 3417.000000, 8275.000000, 8103.000000, 0.000000, 0.000000, 0.000000, 25083.000000, 801.538452, 4.000000, 4.000000, 4.000000, 4.000000, 4.000000, 4.000000, 4.000000, 4.000000, 4.000000, 4.000000, 4.000000, 4.000000, 4.000000, 4.000000, 4.000000, 4.000000
71.000000, 0.000000, 4183.076660, 4297.436035, 4180.512695, 4157.948730, 4172.307617, 4186.666504, 4172.820313, 4184.615234, 4200.512695, 4200.512695, 4209.743652, 4244.102539, 4221.538574, 4218.974121, 3487.000000, 8274.000000, 8109.000000, 0.000000, 0.000000, 0.000000, 25083.000000, 809.743591, 4.000000, 4.000000, 4.000000, 4.000000, 4.000000, 4.000000, 4.000000, 4.000000, 4.000000, 4.000000, 4.000000, 4.000000, 4.000000, 4.000000, 4.000000, 4.000000
72.000000, 0.000000, 4173.846191, 4291.794922, 4178.461426, 4156.410156, 4171.281738, 4185.127930, 4171.794922, 4179.487305, 4196.410156, 4193.333008, 4202.563965, 4237.436035, 4213.846191, 4216.410156, 824.000000, 8274.000000, 8109.000000, 0.000000, 0.000000, 0.000000, 25083.000000, 817.435852, 4.000000, 4.000000, 4.000000, 4.000000, 4.000000, 4.000000, 4.000000, 4.000000, 4.000000, 4.000000, 4.000000, 4.000000, 4.000000, 4.000000, 4.000000, 4.000000
73.000000, 0.000000, 4167.692383, 4285.641113, 4174.358887, 4152.820313, 4168.205078, 4185.127930, 4170.769043, 4170.256348, 4193.846191, 4183.589844, 4185.127930, 4233.333008, 4192.307617, 4197.948730, 2948.000000, 8289.000000, 8112.000000, 0.000000, 0.000000, 0.000000, 25083.000000, 825.640991, 4.000000, 4.000000, 4.000000, 4.000000, 4.000000, 4.000000, 4.000000, 4.000000, 4.000000, 4.000000, 4.000000, 4.000000, 4.000000, 4.000000, 4.000000, 4.000000
74.000000, 0.000000, 4168.717773, 4284.615234, 4173.333008, 4152.307617, 4172.307617, 4184.102539, 4171.794922, 4172.820313, 4193.846191, 4181.025391, 4186.153809, 4226.666504, 4190.769043, 4189.230469, 3563.000000, 8289.000000, 8112.000000, 0.000000, 0.000000, 0.000000, 25083.000000, 833.333313, 4.000000, 4.000000, 4.000000, 4.000000, 4.000000, 4.000000, 4.000000, 4.000000, 4.000000, 4.000000, 4.000000, 4.000000, 4.000000, 4.000000, 4.000000, 4.000000
75.000000, 0.000000, 4174.871582, 4297.948730, 4174.871582, 4159.487305, 4183.589844, 4186.153809, 4177.436035, 4187.179199, 4198.461426, 4193.846191, 4200.000000, 4226.153809, 4211.794922, 4203.589844, 3568.000000, 8290.000000, 8120.000000, 0.000000, 0.000000, 0.000000, 25083.000000, 841.538452, 4.000000, 4.000000, 4.000000, 4.000000, 4.000000, 4.000000, 4.000000, 4.000000, 4.000000, 4.000000, 4.000000, 4.000000, 4.000000, 4.000000, 4.000000, 4.000000
76.000000, 0.000000, 4185.641113, 4312.307617, 4178.974121, 4167.179199, 4188.205078, 4192.307617, 4185.127930, 4191.281738, 4201.025391, 4207.179199, 4206.153809, 4239.487305, 4226.153809, 4216.922852, 3517.000000, 8290.000000, 8120.000000, 0.000000, 0.000000, 0.000000, 25083.000000, 849.230774, 4.000000, 4.000000, 4.000000, 4.000000, 4.000000, 4.000000, 4.000000, 4.000000, 4.000000, 4.000000, 4.000000, 4.000000, 4.000000, 4.000000, 4.000000, 4.000000
77.000000, 0.000000, 4187.179199, 4309.230469, 4182.051270, 4167.179199, 4184.102539, 4194.358887, 4186.666504, 4190.769043, 4200.512695, 4206.153809, 4208.717773, 4247.179199, 4229.230469, 4216.410156, 3460.000000, 8297.000000, 8124.000000, 0.000000, 0.000000, 0.000000, 25083.000000, 856.923035, 4.000000, 4.000000, 4.000000, 4.000000, 4.000000, 4.000000, 4.000000, 4.000000, 4.000000, 4.000000, 4.000000, 4.000000, 4.000000, 4.000000, 4.000000, 4.000000
78.000000, 0.000000, 4185.641113, 4306.153809, 4187.692383, 4170.256348, 4184.102539, 4195.897461, 4186.666504, 4198.461426, 4201.025391, 4207.179199, 4217.436035, 4247.692383, 4238.974121, 4216.922852, 3563.000000, 8297.000000, 8124.000000, 0.000000, 0.000000, 0.000000, 25083.000000, 865.128174, 4.000000, 4.000000, 4.000000, 4.000000, 4.000000, 4.000000, 4.000000, 4.000000, 4.000000, 4.000000, 4.000000, 4.000000, 4.000000, 4.000000, 4.000000, 4.000000
79.000000, 0.000000, 4196.410156, 4321.538574, 4193.333008, 4181.538574, 4190.769043, 4197.948730, 4186.153809, 4198.974121, 4201.538574, 4215.384277, 4226.153809, 4256.410156, 4247.692383, 4226.666504, 3568.000000, 8304.000000, 8138.000000, 0.000000, 0.000000, 0.000000, 25083.000000, 872.820496, 4.000000, 4.000000, 4.000000, 4.000000, 4.000000, 4.000000, 4.000000, 4.000000, 4.000000, 4.000000, 4.000000, 4.000000, 4.000000, 4.000000, 4.000000, 4.000000
80.000000, 0.000000, 4199.487305, 4338.461426, 4194.358887, 4182.051270, 4189.230469, 4195.384277, 4184.615234, 4202.051270, 4203.076660, 4216.922852, 4227.179199, 4265.127930, 4246.153809, 4232.820313, 3517.000000, 8304.000000, 8138.000000, 0.000000, 0.000000, 0.000000, 25083.000000, 880.512817, 4.000000, 4.000000, 4.000000, 4.000000, 4.000000, 4.000000, 4.000000, 4.000000, 4.000000, 4.000000, 4.000000, 4.000000, 4.000000, 4.000000, 4.000000, 4.000000
81.000000, 0.000000, 4195.384277, 4346.666504, 4195.384277, 4175.897461, 4186.153809, 4191.281738, 4190.769043, 4219.487305, 4203.076660, 4218.461426, 4232.307617, 4265.641113, 4246.666504, 4233.333008, 3460.000000, 8315.000000, 8145.000000, 0.000000, 0.000000, 0.000000, 25083.000000, 888.205078, 4.000000, 4.000000, 4.000000, 4.000000, 4.000000, 4.000000, 4.000000, 4.000000, 4.000000, 4.000000, 4.000000, 4.000000, 4.000000, 4.000000, 4.000000, 4.000000
82.000000, 0.000000, 4203.589844, 4352.820313, 4200.512695, 4182.051270, 4191.794922, 4192.307617, 4193.846191, 4215.897461, 4200.000000, 4223.076660, 4233.846191, 4265.127930, 4251.794922, 4235.897461, 3563.000000, 8315.000000, 8145.000000, 0.000000, 0.000000, 0.000000, 25083.000000, 895.897400, 4.000000, 4.000000, 4.000000, 4.000000, 4.000000, 4.000000, 4.000000, 4.000000, 4.000000, 4.000000, 4.000000, 4.000000, 4.000000, 4.000000, 4.000000, 4.000000
83.000000, 0.000000, 4205.127930, 4356.410156, 4200.512695, 4183.589844, 4192.820313, 4193.846191, 4191.794922, 4205.127930, 4197.948730, 4217.436035, 4224.102539, 4255.384277, 4247.179199, 4230.769043, 3568.000000, 8327.000000, 8155.000000, 0.000000, 0.000000, 0.000000, 25083.000000, 904.102539, 4.000000, 4.000000, 4.000000, 4.000000, 4.000000, 4.000000, 4.000000, 4.000000, 4.000000, 4.000000, 4.000000, 4.000000, 4.000000, 4.000000, 4.000000, 4.000000
84.000000, 0.000000, 4192.307617, 4355.384277, 4192.307617, 4176.410156, 4186.666504, 4196.922852, 4196.922852, 4216.922852, 4198.461426, 4210.769043, 4213.333008, 4245.127930, 4233.333008, 4217.436035, 3517.000000, 8327.000000, 8155.000000, 0.000000, 0.000000, 0.000000, 25083.000000, 911.794861, 4.000000, 4.000000, 4.000000, 4.000000, 4.000000, 4.000000, 4.000000, 4.000000, 4.000000, 4.000000, 4.000000, 4.000000, 4.000000, 4.000000, 4.000000, 4.000000
85.000000, 0.000000, 4188.717773, 4363.076660, 4191.281738, 4180.512695, 4192.820313, 4201.538574, 4201.025391, 4213.846191, 4197.948730, 4212.307617, 4216.410156, 4252.307617, 4235.384277, 4217.948730, 3460.000000, 8329.000000, 8160.000000, 0.000000, 0.000000, 0.000000, 25083.000000, 920.000000, 4.000000, 4.000000, 4.000000, 4.000000, 4.000000, 4.000000, 4.000000, 4.000000, 4.000000, 4.000000, 4.000000, 4.000000, 4.000000, 4.000000, 4.000000, 4.000000
86.000000, 0.000000, 4196.410156, 4376.410156, 4195.384277, 4186.666504, 4203.076660, 4204.102539, 4200.000000, 4195.384277, 4196.922852, 4214.871582, 4227.692383, 4267.692383, 4248.717773, 4231.281738, 3563.000000, 8329.000000, 8160.000000, 0.000000, 0.000000, 0.000000, 25083.000000, 927.692261, 4.000000, 4.000000, 4.000000, 4.000000, 4.000000, 4.000000, 4.000000, 4.000000, 4.000000, 4.000000, 4.000000, 4.000000, 4.000000, 4.000000, 4.000000, 4.000000
87.000000, 0.000000, 4198.974121, 4380.000000, 4195.897461, 4182.051270, 4197.436035, 4203.589844, 4204.102539, 4208.717773, 4200.512695, 4214.871582, 4232.820313, 4274.871582, 4250.769043, 4234.358887, 3568.000000, 8333.000000, 8162.000000, 0.000000, 0.000000, 0.000000, 25083.000000, 935.897400, 4.000000, 4.000000, 4.000000, 4.000000, 4.000000, 4.000000, 4.000000, 4.000000, 4.000000, 4.000000, 4.000000, 4.000000, 4.000000, 4.000000, 4.000000, 4.000000
88.000000, 0.000000, 4201.025391, 4381.025391, 4197.948730, 4183.076660, 4189.230469, 4201.025391, 4205.641113, 4224.615234, 4200.512695, 4211.794922, 4234.358887, 4273.846191, 4248.205078, 4231.794922, 3517.000000, 8333.000000, 8162.000000, 0.000000, 0.000000, 0.000000, 25083.000000, 943.589722, 4.000000, 4.000000, 4.000000, 4.000000, 4.000000, 4.000000, 4.000000, 4.000000, 4.000000, 4.000000, 4.000000, 4.000000, 4.000000, 4.000000, 4.000000, 4.000000
89.000000, 0.000000, 4200.512695, 4385.127930, 4199.487305, 4185.127930, 4192.307617, 4199.487305, 4196.922852, 4207.179199, 4197.948730, 4210.769043, 4231.281738, 4265.127930, 4250.769043, 4234.358887, 3460.000000, 8337.000000, 8155.000000, 0.000000, 0.000000, 0.000000, 25083.000000, 951.282043, 4.000000, 4.000000, 4.000000, 4.000000, 4.000000, 4.000000, 4.000000, 4.000000, 4.000000, 4.000000, 4.000000, 4.000000, 4.000000, 4.000000, 4.000000, 4.000000
90.000000, 0.000000, 4198.974121, 4395.384277, 4200.512695, 4184.615234, 4197.948730, 4200.512695, 4195.897461, 4196.922852, 4199.487305, 4212.307617, 4223.589844, 4260.512695, 4250.256348, 4232.307617, 3563.000000, 8337.000000, 8155.000000, 0.000000, 0.000000, 0.000000, 25083.000000, 958.974365, 4.000000, 4.000000, 4.000000, 4.000000, 4.000000, 4.000000, 4.000000, 4.000000, 4.000000, 4.000000, 4.000000, 4.000000, 4.000000, 4.000000, 4.000000, 4.000000
91.000000, 0.000000, 4198.974121, 4406.153809, 4201.538574, 4184.615234, 4198.974121, 4203.076660, 4203.589844, 4207.692383, 4200.512695, 4206.666504, 4215.897461, 4262.563965, 4246.153809, 4222.563965, 3568.000000, 8334.000000, 8149.000000, 0.000000, 0.000000, 0.000000, 25083.000000, 967.179443, 4.000000, 4.000000, 4.000000, 4.000000, 4.000000, 4.000000, 4.000000, 4.000000, 4.000000, 4.000000, 4.000000, 4.000000, 4.000000, 4.000000, 4.000000, 4.000000
92.000000, 0.000000, 4197.948730, 4405.641113, 4198.461426, 4183.076660, 4198.974121, 4209.230469, 4206.666504, 4212.820313, 4198.461426, 4204.615234, 4216.410156, 4261.025391, 4245.641113, 4216.410156, 3517.000000, 8334.000000, 8149.000000, 0.000000, 0.000000, 0.000000, 25083.000000, 974.871765, 4.000000, 4.000000, 4.000000, 4.000000, 4.000000, 4.000000, 4.000000, 4.000000, 4.000000, 4.000000, 4.000000, 4.000000, 4.000000, 4.000000, 4.000000, 4.000000
93.000000, 0.000000, 4198.974121, 4405.641113, 4197.436035, 4184.102539, 4201.538574, 4214.871582, 4203.589844, 4213.333008, 4199.487305, 4215.384277, 4227.179199, 4262.051270, 4249.230469, 4219.487305, 3460.000000, 8326.000000, 8145.000000, 0.000000, 0.000000, 0.000000, 25083.000000, 982.564087, 4.000000, 4.000000, 4.000000, 4.000000, 4.000000, 4.000000, 4.000000, 4.000000, 4.000000, 4.000000, 4.000000, 4.000000, 4.000000, 4.000000, 4.000000, 4.000000
94.000000, 0.000000, 4200.000000, 4411.794922, 4198.461426, 4188.205078, 4203.076660, 4215.384277, 4201.025391, 4214.358887, 4200.000000, 4222.051270, 4232.820313, 4264.615234, 4252.820313, 4221.025391, 3563.000000, 8326.000000, 8145.000000, 0.000000, 0.000000, 0.000000, 25083.000000, 990.256409, 4.000000, 4.000000, 4.000000, 4.000000, 4.000000, 4.000000, 4.000000, 4.000000, 4.000000, 4.000000, 4.000000, 4.000000, 4.000000, 4.000000, 4.000000, 4.000000
95.000000, 0.000000, 4201.025391, 4415.384277, 4199.487305, 4187.179199, 4203.589844, 4213.333008, 4197.436035, 4211.281738, 4199.487305, 4218.461426, 4232.820313, 4265.641113, 4251.281738, 4218.461426, 3568.000000, 8319.000000, 8145.000000, 0.000000, 0.000000, 0.000000, 25083.000000, 998.461487, 4.000000, 4.000000, 4.000000, 4.000000, 4.000000, 4.000000, 4.000000, 4.000000, 4.000000, 4.000000, 4.000000, 4.000000, 4.000000, 4.000000, 4.000000, 4.000000
96.000000, 0.000000, 4198.974121, 4411.281738, 4201.025391, 4183.589844, 4201.538574, 4212.307617, 4192.307617, 4205.127930, 4197.948730, 4215.384277, 4229.230469, 4265.641113, 4248.717773, 4219.487305, 3517.000000, 8319.000000, 8145.000000, 0.000000, 0.000000, 0.000000, 25084.000000, 6.666667, 4.000000, 4.000000, 4.000000, 4.000000, 4.000000, 4.000000, 4.000000, 4.000000, 4.000000, 4.000000, 4.000000, 4.000000, 4.000000, 4.000000, 4.000000, 4.000000
97.000000, 0.000000, 4191.794922, 4407.692383, 4196.410156, 4187.692383, 4199.487305, 4211.281738, 4193.333008, 4203.076660, 4190.769043, 4214.358887, 4221.538574, 4256.922852, 4247.179199, 4214.871582, 3460.000000, 8314.000000, 8142.000000, 0.000000, 0.000000, 0.000000, 25084.000000, 14.358974, 4.000000, 4.000000, 4.000000, 4.000000, 4.000000, 4.000000, 4.000000, 4.000000, 4.000000, 4.000000, 4.000000, 4.000000, 4.000000, 4.000000, 4.000000, 4.000000
98.000000, 0.000000, 4187.179199, 4406.666504, 4192.820313, 4189.743652, 4200.512695, 4212.307617, 4197.948730, 4203.076660, 4187.692383, 4211.794922, 4217.436035, 4246.153809, 4241.538574, 4205.641113, 3563.000000, 8314.000000, 8142.000000, 0.000000, 0.000000, 0.000000, 25084.000000, 22.051281, 4.000000, 4.000000, 4.000000, 4.000000, 4.000000, 4.000000, 4.000000, 4.000000, 4.000000, 4.000000, 4.000000, 4.000000, 4.000000, 4.000000, 4.000000, 4.000000
99.000000, 0.000000, 4183.076660, 4391.281738, 4194.871582, 4177.436035, 4195.897461, 4212.820313, 4203.076660, 4205.127930, 4197.436035, 4208.717773, 4214.871582, 4245.641113, 4229.230469, 4196.410156, 3568.000000, 8315.000000, 8141.000000, 0.000000, 0.000000, 0.000000, 25084.000000, 30.256409, 4.000000, 4.000000, 4.000000, 4.000000, 4.000000, 4.000000, 4.000000, 4.000000, 4.000000, 4.000000, 4.000000, 4.000000, 4.000000, 4.000000, 4.000000, 4.000000
100.000000, 0.000000, 4177.436035, 4377.948730, 4192.307617, 4171.794922, 4186.666504, 4206.153809, 4202.563965, 4206.153809, 4202.563965, 4203.589844, 4206.153809, 4245.127930, 4216.410156, 4186.153809, 3517.000000, 8315.000000, 8141.000000, 0.000000, 0.000000, 0.000000, 25084.000000, 37.948715, 4.000000, 4.000000, 4.000000, 4.000000, 4.000000, 4.000000, 4.000000, 4.000000, 4.000000, 4.000000, 4.000000, 4.000000, 4.000000, 4.000000, 4.000000, 4.000000
101.000000, 0.000000, 4178.974121, 4385.127930, 4190.769043, 4182.051270, 4185.641113, 4197.436035, 4192.307617, 4197.948730, 4197.436035, 4196.410156, 4194.871582, 4234.871582, 4208.717773, 4179.487305, 3460.000000, 8319.000000, 8140.000000, 0.000000, 0.000000, 0.000000, 25084.000000, 46.153847, 4.000000, 4.000000, 4.000000, 4.000000, 4.000000, 4.000000, 4.000000, 4.000000, 4.000000, 4.000000, 4.000000, 4.000000, 4.000000, 4.000000, 4.000000, 4.000000
102.000000, 0.000000, 4190.256348, 4397.435547, 4193.846191, 4188.717773, 4187.692383, 4195.384277, 4184.615234, 4182.051270, 4194.871582, 4189.230469, 4189.230469, 4229.230469, 4205.641113, 4184.615234, 3563.000000, 8319.000000, 8140.000000, 0.000000, 0.000000, 0.000000, 25084.000000, 53.846153, 4.000000, 4.000000, 4.000000, 4.000000, 4.000000, 4.000000, 4.000000, 4.000000, 4.000000, 4.000000, 4.000000, 4.000000, 4.000000, 4.000000, 4.000000, 4.000000
103.000000, 0.000000, 4197.436035, 4401.025391, 4195.384277, 4191.281738, 4189.230469, 4198.461426, 4189.230469, 4180.512695, 4197.436035, 4187.692383, 4188.205078, 4233.333008, 4206.666504, 4192.820313, 3568.000000, 8330.000000, 8149.000000, 0.000000, 0.000000, 0.000000, 25084.000000, 62.051281, 4.000000, 4.000000, 4.000000, 4.000000, 4.000000, 4.000000, 4.000000, 4.000000, 4.000000, 4.000000, 4.000000, 4.000000, 4.000000, 4.000000, 4.000000, 4.000000
104.000000, 0.000000, 4194.358887, 4398.461426, 4195.897461, 4195.897461, 4194.871582, 4197.436035, 4191.794922, 4192.820313, 4197.436035, 4186.666504, 4186.153809, 4232.820313, 4200.000000, 4186.153809, 3517.000000, 8330.000000, 8149.000000, 0.000000, 0.000000, 0.000000, 25084.000000, 69.743591, 4.000000, 4.000000, 4.000000, 4.000000, 4.000000, 4.000000, 4.000000, 4.000000, 4.000000, 4.000000, 4.000000, 4.000000, 4.000000, 4.000000, 4.000000, 4.000000
105.000000, 0.000000, 4192.820313, 4397.435547, 4194.871582, 4198.974121, 4200.512695, 4191.281738, 4185.641113, 4188.717773, 4193.333008, 4183.589844, 4178.974121, 4224.615234, 4189.230469, 4176.922852, 3460.000000, 8332.000000, 8153.000000, 0.000000, 0.000000, 0.000000, 25084.000000, 77.435898, 4.000000, 4.000000, 4.000000, 4.000000, 4.000000, 4.000000, 4.000000, 4.000000, 4.000000, 4.000000, 4.000000, 4.000000, 4.000000, 4.000000, 4.000000, 4.000000
106.000000, 0.000000, 4199.487305, 4405.641113, 4194.358887, 4199.487305, 4202.563965, 4192.307617, 4182.051270, 4173.333008, 4187.692383, 4184.102539, 4172.820313, 4218.974121, 4184.102539, 4177.436035, 3563.000000, 8332.000000, 8153.000000, 0.000000, 0.000000, 0.000000, 25084.000000, 85.641022, 4.000000, 4.000000, 4.000000, 4.000000, 4.000000, 4.000000, 4.000000, 4.000000, 4.000000, 4.000000, 4.000000, 4.000000, 4.000000, 4.000000, 4.000000, 4.000000
107.000000, 0.000000, 4198.461426, 4409.230469, 4192.820313, 4204.615234, 4205.641113, 4198.974121, 4181.538574, 4173.846191, 4186.153809, 4184.615234, 4172.307617, 4217.436035, 4177.436035, 4175.384277, 3568.000000, 8337.000000, 8150.000000, 0.000000, 0.000000, 0.000000, 25084.000000, 93.333328, 4.000000, 4.000000, 4.000000, 4.000000, 4.000000, 4.000000, 4.000000, 4.000000, 4.000000, 4.000000, 4.000000, 4.000000, 4.000000, 4.000000, 4.000000, 4.000000
108.000000, 0.000000, 4192.820313, 4403.589844, 4192.307617, 4208.205078, 4209.230469, 4201.025391, 4181.538574, 4179.487305, 4192.820313, 4183.076660, 4169.743652, 4215.384277, 4169.230469, 4168.717773, 3517.000000, 8337.000000, 8150.000000, 0.000000, 0.000000, 0.000000, 25084.000000, 101.025635, 4.000000, 4.000000, 4.000000, 4.000000, 4.000000, 4.000000, 4.000000, 4.000000, 4.000000, 4.000000, 4.000000, 4.000000, 4.000000, 4.000000, 4.000000, 4.000000
109.000000, 0.000000, 4195.897461, 4402.563965, 4193.333008, 4209.743652, 4211.281738, 4197.436035, 4183.076660, 4177.948730, 4198.461426, 4183.076660, 4166.153809, 4214.871582, 4167.692383, 4167.692383, 3460.000000, 8340.000000, 8152.000000, 0.000000, 0.000000, 0.000000, 25084.000000, 109.230766, 4.000000, 4.000000, 4.000000, 4.000000, 4.000000, 4.000000, 4.000000, 4.000000, 4.000000, 4.000000, 4.000000, 4.000000, 4.000000, 4.000000, 4.000000, 4.000000
110.000000, 0.000000, 4193.846191, 4396.410156, 4192.820313, 4207.692383, 4208.205078, 4194.358887, 4184.102539, 4180.512695, 4195.897461, 4178.974121, 4161.538574, 4218.974121, 4161.538574, 4164.615234, 3563.000000, 8340.000000, 8152.000000, 0.000000, 0.000000, 0.000000, 25084.000000, 116.923073, 4.000000, 4.000000, 4.000000, 4.000000, 4.000000, 4.000000, 4.000000, 4.000000, 4.000000, 4.000000, 4.000000, 4.000000, 4.000000, 4.000000, 4.000000, 4.000000
111.000000, 0.000000, 4182.051270, 4380.000000, 4188.205078, 4200.512695, 4203.076660, 4188.717773, 4180.000000, 4182.563965, 4189.230469, 4170.256348, 4154.358887, 4218.974121, 4150.769043, 4153.846191, 3568.000000, 8332.000000, 8157.000000, 0.000000, 0.000000, 0.000000, 25084.000000, 124.615379, 4.000000, 4.000000, 4.000000, 4.000000, 4.000000, 4.000000, 4.000000, 4.000000, 4.000000, 4.000000, 4.000000, 4.000000, 4.000000, 4.000000, 4.000000, 4.000000
112.000000, 0.000000, 4181.025391, 4369.230469, 4182.051270, 4200.512695, 4203.076660, 4187.692383, 4174.871582, 4174.871582, 4187.179199, 4168.717773, 4150.769043, 4214.871582, 4150.769043, 4152.307617, 3517.000000, 8332.000000, 8157.000000, 0.000000, 0.000000, 0.000000, 25084.000000, 132.820511, 4.000000, 4.000000, 4.000000, 4.000000, 4.000000, 4.000000, 4.000000, 4.000000, 4.000000, 4.000000, 4.000000, 4.000000, 4.000000, 4.000000, 4.000000, 4.000000
113.000000, 0.000000, 4186.666504, 4367.179199, 4184.615234, 4200.000000, 4202.563965, 4186.666504, 4173.333008, 4169.743652, 4189.743652, 4171.281738, 4153.846191, 4214.358887, 4152.307617, 4156.410156, 3460.000000, 8316.000000, 8162.000000, 0.000000, 0.000000, 0.000000, 25084.000000, 140.512817, 4.000000, 4.000000, 4.000000, 4.000000, 4.000000, 4.000000, 4.000000, 4.000000, 4.000000, 4.000000, 4.000000, 4.000000, 4.000000, 4.000000, 4.000000, 4.000000
114.000000, 0.000000, 4182.051270, 4362.051270, 4184.615234, 4193.333008, 4194.358887, 4175.384277, 4166.666504, 4172.307617, 4189.743652, 4165.127930, 4154.871582, 4216.410156, 4145.127930, 4151.281738, 3563.000000, 8316.000000, 8162.000000, 0.000000, 0.000000, 0.000000, 25084.000000, 148.717941, 4.000000, 4.000000, 4.000000, 4.000000, 4.000000, 4.000000, 4.000000, 4.000000, 4.000000, 4.000000, 4.000000, 4.000000, 4.000000, 4.000000, 4.000000, 4.000000
115.000000, 0.000000, 4173.333008, 4345.641113, 4177.436035, 4185.641113, 4182.563965, 4164.615234, 4157.436035, 4170.256348, 4189.743652, 4156.410156, 4146.666504, 4215.384277, 4141.025391, 4142.563965, 3568.000000, 8315.000000, 8158.000000, 0.000000, 0.000000, 0.000000, 25084.000000, 156.410248, 4.000000, 4.000000, 4.000000, 4.000000, 4.000000, 4.000000, 4.000000, 4.000000, 4.000000, 4.000000, 4.000000, 4.000000, 4.000000, 4.000000, 4.000000, 4.000000
116.000000, 0.000000, 4165.127930, 4331.281738, 4172.820313, 4174.871582, 4171.281738, 4153.846191, 4150.256348, 4160.000000, 4189.743652, 4155.897461, 4138.461426, 4209.230469, 4141.025391, 4140.512695, 3517.000000, 8315.000000, 8158.000000, 0.000000, 0.000000, 0.000000, 25084.000000, 164.615387, 4.000000, 4.000000, 4.000000, 4.000000, 4.000000, 4.000000, 4.000000, 4.000000, 4.000000, 4.000000, 4.000000, 4.000000, 4.000000, 4.000000, 4.000000, 4.000000
117.000000, 0.000000, 4156.922852, 4324.102539, 4168.717773, 4165.127930, 4160.512695, 4139.487305, 4141.025391, 4148.205078, 4189.230469, 4152.307617, 4137.436035, 4199.487305, 4135.897461, 4135.384277, 3460.000000, 8292.000000, 8151.000000, 0.000000, 0.000000, 0.000000, 25084.000000, 172.307693, 4.000000, 4.000000, 4.000000, 4.000000, 4.000000, 4.000000, 4.000000, 4.000000, 4.000000, 4.000000, 4.000000, 4.000000, 4.000000, 4.000000, 4.000000, 4.000000
118.000000, 0.000000, 4155.897461, 4320.000000, 4168.205078, 4166.153809, 4160.512695, 4134.358887, 4134.871582, 4146.153809, 4188.205078, 4143.589844, 4136.410156, 4196.410156, 4127.179199, 4125.641113, 3563.000000, 8292.000000, 8151.000000, 0.000000, 0.000000, 0.000000, 25084.000000, 180.000000, 4.000000, 4.000000, 4.000000, 4.000000, 4.000000, 4.000000, 4.000000, 4.000000, 4.000000, 4.000000, 4.000000, 4.000000, 4.000000, 4.000000, 4.000000, 4.000000
119.000000, 0.000000, 4161.538574, 4315.897461, 4171.794922, 4172.307617, 4168.717773, 4142.051270, 4139.487305, 4148.205078, 4189.230469, 4143.076660, 4135.897461, 4201.025391, 4125.127930, 4128.717773, 3568.000000, 8276.000000, 8151.000000, 0.000000, 0.000000, 0.000000, 25084.000000, 188.205124, 4.000000, 4.000000, 4.000000, 4.000000, 4.000000, 4.000000, 4.000000, 4.000000, 4.000000, 4.000000, 4.000000, 4.000000, 4.000000, 4.000000, 4.000000, 4.000000
120.000000, 0.000000, 4162.051270, 4307.179199, 4170.256348, 4167.179199, 4166.666504, 4144.102539, 4147.692383, 4151.794922, 4189.743652, 4145.641113, 4136.922852, 4196.922852, 4129.230469, 4136.410156, 3517.000000, 8276.000000, 8151.000000, 0.000000, 0.000000, 0.000000, 25084.000000, 195.897430, 4.000000, 4.000000, 4.000000, 4.000000, 4.000000, 4.000000, 4.000000, 4.000000, 4.000000, 4.000000, 4.000000, 4.000000, 4.000000, 4.000000, 4.000000, 4.000000
121.000000, 0.000000, 4151.794922, 4295.897461, 4163.076660, 4154.871582, 4154.358887, 4138.974121, 4152.307617, 4152.307617, 4188.205078, 4140.512695, 4127.179199, 4185.127930, 4126.666504, 4125.127930, 3460.000000, 8260.000000, 8151.000000, 0.000000, 0.000000, 0.000000, 25084.000000, 204.102554, 4.000000, 4.000000, 4.000000, 4.000000, 4.000000, 4.000000, 4.000000, 4.000000, 4.000000, 4.000000, 4.000000, 4.000000, 4.000000, 4.000000, 4.000000, 4.000000
122.000000, 0.000000, 4141.538574, 4285.641113, 4155.897461, 4148.717773, 4148.205078, 4135.384277, 4154.358887, 4143.076660, 4191.794922, 4135.384277, 4113.846191, 4177.436035, 4114.871582, 4109.743652, 3563.000000, 8260.000000, 8151.000000, 0.000000, 0.000000, 0.000000, 25084.000000, 211.794861, 4.000000, 4.000000, 4.000000, 4.000000, 4.000000, 4.000000, 4.000000, 4.000000, 4.000000, 4.000000, 4.000000, 4.000000, 4.000000, 4.000000, 4.000000, 4.000000
123.000000, 0.000000, 4136.410156, 4281.025391, 4155.384277, 4149.230469, 4154.358887, 4137.948730, 4154.358887, 4142.051270, 4196.410156, 4136.922852, 4114.871582, 4178.461426, 4112.820313, 4113.846191, 3568.000000, 8223.000000, 8146.000000, 0.000000, 0.000000, 0.000000, 25084.000000, 220.000000, 4.000000, 4.000000, 4.000000, 4.000000, 4.000000, 4.000000, 4.000000, 4.000000, 4.000000, 4.000000, 4.000000, 4.000000, 4.000000, 4.000000, 4.000000, 4.000000
124.000000, 0.000000, 4142.051270, 4278.461426, 4162.051270, 4152.307617, 4157.436035, 4149.743652, 4158.461426, 4158.461426, 4196.922852, 4145.641113, 4126.153809, 4190.256348, 4127.179199, 4124.615234, 3517.000000, 8223.000000, 8146.000000, 0.000000, 0.000000, 0.000000, 25084.000000, 227.692307, 4.000000, 4.000000, 4.000000, 4.000000, 4.000000, 4.000000, 4.000000, 4.000000, 4.000000, 4.000000, 4.000000, 4.000000, 4.000000, 4.000000, 4.000000, 4.000000
125.000000, 0.000000, 4151.281738, 4271.281738, 4164.615234, 4158.461426, 4157.436035, 4153.333008, 4157.948730, 4169.230469, 4198.461426, 4154.871582, 4136.410156, 4200.512695, 4137.948730, 4127.692383, 3460.000000, 8212.000000, 8142.000000, 0.000000, 0.000000, 0.000000, 25084.000000, 235.384613, 4.000000, 4.000000, 4.000000, 4.000000, 4.000000, 4.000000, 4.000000, 4.000000, 4.000000, 4.000000, 4.000000, 4.000000, 4.000000, 4.000000, 4.000000, 4.000000
126.000000, 0.000000, 4151.794922, 4268.717773, 4160.512695, 4165.641113, 4161.025391, 4148.717773, 4154.871582, 4166.666504, 4198.974121, 4158.461426, 4140.000000, 4199.487305, 4137.436035, 4129.230469, 3563.000000, 8212.000000, 8142.000000, 0.000000, 0.000000, 0.000000, 25084.000000, 243.589737, 4.000000, 4.000000, 4.000000, 4.000000, 4.000000, 4.000000, 4.000000, 4.000000, 4.000000, 4.000000, 4.000000, 4.000000, 4.000000, 4.000000, 4.000000, 4.000000
127.000000, 0.000000, 4150.769043, 4273.333008, 4162.563965, 4169.230469, 4169.230469, 4157.948730, 4165.641113, 4166.666504, 4197.436035, 4159.487305, 4139.487305, 4195.384277, 4138.461426, 4135.897461, 57.000000, 8187.000000, 8143.000000, 0.000000, 0.000000, 0.000000, 25084.000000, 251.282043, 4.000000, 4.000000, 4.000000, 4.000000, 4.000000, 4.000000, 4.000000, 4.000000, 4.000000, 4.000000, 4.000000, 4.000000, 4.000000, 4.000000, 4.000000, 4.000000
0.000000, 0.000000, 4157.436035, 4276.410156, 4170.769043, 4171.281738, 4180.512695, 4171.794922, 4176.410156, 4167.692383, 4197.436035, 4160.512695, 4143.076660, 4197.948730, 4145.127930, 4142.563965, 3035.000000, 8187.000000, 8143.000000, 0.000000, 0.000000, 0.000000, 25084.000000, 258.974365, 4.000000, 4.000000, 4.000000, 4.000000, 4.000000, 4.000000, 4.000000, 4.000000, 4.000000, 4.000000, 4.000000, 4.000000, 4.000000, 4.000000, 4.000000, 4.000000
1.000000, 0.000000, 4160.512695, 4268.717773, 4173.333008, 4177.436035, 4186.153809, 4170.256348, 4166.666504, 4167.179199, 4200.512695, 4160.000000, 4143.076660, 4197.948730, 4145.127930, 4141.025391, 3515.000000, 8177.000000, 8147.000000, 0.000000, 0.000000, 0.000000, 25084.000000, 267.179474, 4.000000, 4.000000, 4.000000, 4.000000, 4.000000, 4.000000, 4.000000, 4.000000, 4.000000, 4.000000, 4.000000, 4.000000, 4.000000, 4.000000, 4.000000, 4.000000
2.000000, 0.000000, 4159.487305, 4259.487305, 4169.743652, 4183.076660, 4185.127930, 4166.153809, 4156.410156, 4170.769043, 4200.000000, 4159.487305, 4140.000000, 4195.897461, 4138.461426, 4136.922852, 3514.000000, 8177.000000, 8147.000000, 0.000000, 0.000000, 0.000000, 25084.000000, 274.871796, 4.000000, 4.000000, 4.000000, 4.000000, 4.000000, 4.000000, 4.000000, 4.000000, 4.000000, 4.000000, 4.000000, 4.000000, 4.000000, 4.000000, 4.000000, 4.000000
3.000000, 0.000000, 4167.692383, 4261.025391, 4174.358887, 4185.127930, 4184.615234, 4169.743652, 4166.153809, 4170.769043, 4197.436035, 4163.589844, 4146.153809, 4205.127930, 4142.563965, 4142.563965, 2187.000000, 8165.000000, 8152.000000, 0.000000, 0.000000, 0.000000, 25084.000000, 282.564087, 4.000000, 4.000000, 4.000000, 4.000000, 4.000000, 4.000000, 4.000000, 4.000000, 4.000000, 4.000000, 4.000000, 4.000000, 4.000000, 4.000000, 4.000000, 4.000000
4.000000, 0.000000, 4173.333008, 4259.487305, 4180.512695, 4184.615234, 4188.205078, 4170.256348, 4169.743652, 4165.641113, 4196.922852, 4169.743652, 4158.974121, 4216.922852, 4153.846191, 4153.333008, 3497.000000, 8165.000000, 8152.000000, 0.000000, 0.000000, 0.000000, 25084.000000, 290.769226, 4.000000, 4.000000, 4.000000, 4.000000, 4.000000, 4.000000, 4.000000, 4.000000, 4.000000, 4.000000, 4.000000, 4.000000, 4.000000, 4.000000, 4.000000, 4.000000
5.000000, 0.000000, 4168.717773, 4248.205078, 4180.000000, 4181.025391, 4187.692383, 4170.769043, 4158.974121, 4171.794922, 4199.487305, 4177.948730, 4165.641113, 4220.512695, 4155.897461, 4153.333008, 3557.000000, 8159.000000, 8154.000000, 0.000000, 0.000000, 0.000000, 25084.000000, 298.461517, 4.000000, 4.000000, 4.000000, 4.000000, 4.000000, 4.000000, 4.000000, 4.000000, 4.000000, 4.000000, 4.000000, 4.000000, 4.000000, 4.000000, 4.000000, 4.000000
6.000000, 0.000000, 4173.846191, 4246.153809, 4181.025391, 4186.153809, 4186.153809, 4171.281738, 4157.948730, 4182.563965, 4201.025391, 4181.538574, 4169.230469, 4215.897461, 4154.358887, 4150.769043, 3528.000000, 8159.000000, 8154.000000, 0.000000, 0.000000, 0.000000, 25084.000000, 306.153839, 4.000000, 4.000000, 4.000000, 4.000000, 4.000000, 4.000000, 4.000000, 4.000000, 4.000000, 4.000000, 4.000000, 4.000000, 4.000000, 4.000000, 4.000000, 4.000000
7.000000, 0.000000, 4185.641113, 4249.230469, 4180.512695, 4194.358887, 4191.794922, 4171.281738, 4167.179199, 4183.076660, 4198.974121, 4178.461426, 4168.717773, 4208.205078, 4158.974121, 4155.384277, 3608.000000, 8167.000000, 8159.000000, 0.000000, 0.000000, 0.000000, 25084.000000, 313.846161, 4.000000, 4.000000, 4.000000, 4.000000, 4.000000, 4.000000, 4.000000, 4.000000, 4.000000, 4.000000, 4.000000, 4.000000, 4.000000, 4.000000, 4.000000, 4.000000
8.000000, 0.000000, 4182.051270, 4243.076660, 4176.410156, 4191.281738, 4194.358887, 4176.410156, 4168.205078, 4181.025391, 4197.948730, 4173.846191, 4158.461426, 4202.563965, 4155.384277, 4151.794922, 825.000000, 8167.000000, 8159.000000, 0.000000, 0.000000, 0.000000, 25084.000000, 322.051270, 4.000000, 4.000000, 4.000000, 4.000000, 4.000000, 4.000000, 4.000000, 4.000000, 4.000000, 4.000000, 4.000000, 4.000000, 4.000000, 4.000000, 4.000000, 4.000000
9.000000, 0.000000, 4171.794922, 4238.974121, 4175.384277, 4186.666504, 4198.461426, 4183.589844, 4165.127930, 4182.563965, 4197.948730, 4172.307617, 4152.307617, 4201.538574, 4151.281738, 4141.025391, 2948.000000, 8176.000000, 8168.000000, 0.000000, 0.000000, 0.000000, 25084.000000, 329.743591, 4.000000, 4.000000, 4.000000, 4.000000, 4.000000, 4.000000, 4.000000, 4.000000, 4.000000, 4.000000, 4.000000, 4.000000, 4.000000, 4.000000, 4.000000, 4.000000
10.000000, 0.000000, 4171.281738, 4237.436035, 4175.897461, 4189.743652, 4203.076660, 4184.615234, 4166.666504, 4184.615234, 4198.974121, 4172.307617, 4156.922852, 4205.127930, 4153.846191, 4140.512695, 3565.000000, 8176.000000, 8168.000000, 0.000000, 0.000000, 0.000000, 25084.000000, 337.948700, 4.000000, 4.000000, 4.000000, 4.000000, 4.000000, 4.000000, 4.000000, 4.000000, 4.000000, 4.000000, 4.000000, 4.000000, 4.000000, 4.000000, 4.000000, 4.000000
11.000000, 0.000000, 4171.281738, 4224.102539, 4171.794922, 4187.692383, 4193.333008, 4180.000000, 4166.666504, 4183.076660, 4196.410156, 4164.615234, 4151.281738, 4202.563965, 4143.589844, 4140.512695, 3571.000000, 8179.000000, 8175.000000, 0.000000, 0.000000, 0.000000, 25084.000000, 345.641022, 4.000000, 4.000000, 4.000000, 4.000000, 4.000000, 4.000000, 4.000000, 4.000000, 4.000000, 4.000000, 4.000000, 4.000000, 4.000000, 4.000000, 4.000000, 4.000000
12.000000, 0.000000, 4164.615234, 4208.717773, 4164.615234, 4180.000000, 4183.589844, 4176.922852, 4166.153809, 4172.307617, 4190.256348, 4155.384277, 4137.948730, 4193.333008, 4131.794922, 4134.358887, 3621.000000, 8179.000000, 8175.000000, 0.000000, 0.000000, 0.000000, 25084.000000, 353.333313, 4.000000, 4.000000, 4.000000, 4.000000, 4.000000, 4.000000, 4.000000, 4.000000, 4.000000, 4.000000, 4.000000, 4.000000, 4.000000, 4.000000, 4.000000, 4.000000
13.000000, 0.000000, 4165.641113, 4208.717773, 4167.692383, 4180.000000, 4190.769043, 4173.846191, 4168.205078, 4164.102539, 4191.281738, 4153.333008, 4141.538574, 4191.794922, 4136.922852, 4132.820313, 3460.000000, 8191.000000, 8179.000000, 0.000000, 0.000000, 0.000000, 25084.000000, 361.025635, 4.000000, 4.000000, 4.000000, 4.000000, 4.000000, 4.000000, 4.000000, 4.000000, 4.000000, 4.000000, 4.000000, 4.000000, 4.000000, 4.000000, 4.000000, 4.000000
14.000000, 0.000000, 4173.333008, 4208.205078, 4175.384277, 4187.179199, 4196.410156, 4169.230469, 4167.179199, 4165.127930, 4197.948730, 4160.000000, 4151.794922, 4195.897461, 4143.589844, 4140.000000, 3565.000000, 8191.000000, 8179.000000, 0.000000, 0.000000, 0.000000, 25084.000000, 369.230774, 4.000000, 4.000000, 4.000000, 4.000000, 4.000000, 4.000000, 4.000000, 4.000000, 4.000000, 4.000000, 4.000000, 4.000000, 4.000000, 4.000000, 4.000000, 4.000000
15.000000, 0.000000, 4181.538574, 4203.589844, 4181.538574, 4195.897461, 4195.897461, 4173.333008, 4164.615234, 4167.692383, 4198.974121, 4171.794922, 4158.974121, 4203.076660, 4150.769043, 4153.333008, 3571.000000, 8193.000000, 8176.000000, 0.000000, 0.000000, 0.000000, 25084.000000, 376.923065, 4.000000, 4.000000, 4.000000, 4.000000, 4.000000, 4.000000, 4.000000, 4.000000, 4.000000, 4.000000, 4.000000, 4.000000, 4.000000, 4.000000, 4.000000, 4.000000
16.000000, 0.000000, 4195.384277, 4209.230469, 4193.333008, 4204.615234, 4200.512695, 4182.563965, 4171.794922, 4176.410156, 4198.461426, 4186.666504, 4174.871582, 4219.487305, 4170.769043, 4173.333008, 0.000000, 8193.000000, 8176.000000, 0.000000, 0.000000, 0.000000, 25084.000000, 384.615387, 4.000000, 4.000000, 4.000000, 4.000000, 4.000000, 4.000000, 4.000000, 4.000000, 4.000000, 4.000000, 4.000000, 4.000000, 4.000000, 4.000000, 4.000000, 4.000000
17.000000, 0.000000, 4206.666504, 4213.333008, 4204.615234, 4209.743652, 4206.153809, 4186.153809, 4183.076660, 4196.922852, 4201.538574, 4201.025391, 4192.307617, 4241.025391, 4188.205078, 4188.205078, 0.000000, 8199.000000, 8177.000000, 0.000000, 0.000000, 0.000000, 25084.000000, 392.820496, 4.000000, 4.000000, 4.000000, 4.000000, 4.000000, 4.000000, 4.000000, 4.000000, 4.000000, 4.000000, 4.000000, 4.000000, 4.000000, 4.000000, 4.000000, 4.000000
18.000000, 0.000000, 4205.641113, 4206.153809, 4203.589844, 4208.205078, 4204.615234, 4185.641113, 4187.179199, 4213.846191, 4202.051270, 4202.051270, 4192.307617, 4251.794922, 4190.769043, 4189.230469, 0.000000, 8199.000000, 8177.000000, 0.000000, 0.000000, 0.000000, 25084.000000, 400.512817, 4.000000, 4.000000, 4.000000, 4.000000, 4.000000, 4.000000, 4.000000, 4.000000, 4.000000, 4.000000, 4.000000, 4.000000, 4.000000, 4.000000, 4.000000, 4.000000
19.000000, 0.000000, 4201.025391, 4198.461426, 4195.897461, 4201.025391, 4203.589844, 4187.179199, 4188.717773, 4214.871582, 4200.512695, 4192.820313, 4184.102539, 4246.666504, 4184.615234, 4186.666504, 0.000000, 8197.000000, 8177.000000, 0.000000, 0.000000, 0.000000, 25084.000000, 408.717926, 4.000000, 4.000000, 4.000000, 4.000000, 4.000000, 4.000000, 4.000000, 4.000000, 4.000000, 4.000000, 4.000000, 4.000000, 4.000000, 4.000000, 4.000000, 4.000000
20.000000, 0.000000, 4200.512695, 4196.922852, 4190.769043, 4198.974121, 4205.641113, 4188.717773, 4189.743652, 4208.205078, 4200.000000, 4186.666504, 4184.615234, 4237.436035, 4177.948730, 4185.127930, 0.000000, 8197.000000, 8177.000000, 0.000000, 0.000000, 0.000000, 25084.000000, 416.410248, 4.000000, 4.000000, 4.000000, 4.000000, 4.000000, 4.000000, 4.000000, 4.000000, 4.000000, 4.000000, 4.000000, 4.000000, 4.000000, 4.000000, 4.000000, 4.000000
21.000000, 0.000000, 4197.948730, 4193.333008, 4191.281738, 4203.076660, 4204.615234, 4186.153809, 4185.641113, 4204.102539, 4199.487305, 4189.743652, 4181.538574, 4232.307617, 4174.358887, 4179.487305, 0.000000, 8197.000000, 8175.000000, 0.000000, 0.000000, 0.000000, 25084.000000, 424.102539, 4.000000, 4.000000, 4.000000, 4.000000, 4.000000, 4.000000, 4.000000, 4.000000, 4.000000, 4.000000, 4.000000, 4.000000, 4.000000, 4.000000, 4.000000, 4.000000
22.000000, 0.000000, 4195.384277, 4184.615234, 4192.307617, 4202.563965, 4201.538574, 4184.615234, 4181.538574, 4197.436035, 4197.948730, 4191.281738, 4175.384277, 4231.281738, 4172.820313, 4173.333008, 0.000000, 8197.000000, 8175.000000, 0.000000, 0.000000, 0.000000, 25084.000000, 431.794861, 4.000000, 4.000000, 4.000000, 4.000000, 4.000000, 4.000000, 4.000000, 4.000000, 4.000000, 4.000000, 4.000000, 4.000000, 4.000000, 4.000000, 4.000000, 4.000000
23.000000, 0.000000, 4199.487305, 4182.051270, 4191.281738, 4200.000000, 4203.076660, 4183.589844, 4182.563965, 4188.205078, 4195.897461, 4189.743652, 4176.410156, 4232.307617, 4170.256348, 4172.820313, 0.000000, 8191.000000, 8184.000000, 0.000000, 0.000000, 0.000000, 25084.000000, 440.000000, 4.000000, 4.000000, 4.000000, 4.000000, 4.000000, 4.000000, 4.000000, 4.000000, 4.000000, 4.000000, 4.000000, 4.000000, 4.000000, 4.000000, 4.000000, 4.000000
24.000000, 0.000000, 4202.051270, 4183.076660, 4193.333008, 4201.538574, 4205.127930, 4184.615234, 4184.102539, 4189.230469, 4197.948730, 4188.717773, 4177.948730, 4230.256348, 4168.717773, 4173.333008, 0.000000, 8191.000000, 8184.000000, 0.000000, 0.000000, 0.000000, 25084.000000, 447.692291, 4.000000, 4.000000, 4.000000, 4.000000, 4.000000, 4.000000, 4.000000, 4.000000, 4.000000, 4.000000, 4.000000, 4.000000, 4.000000, 4.000000, 4.000000, 4.000000
25.000000, 0.000000, 4197.948730, 4180.000000, 4195.384277, 4200.512695, 4200.512695, 4183.589844, 4184.102539, 4198.974121, 4199.487305, 4188.717773, 4174.358887, 4221.025391, 4171.281738, 4173.333008, 0.000000, 8185.000000, 8189.000000, 0.000000, 0.000000, 0.000000, 25084.000000, 455.384613, 4.000000, 4.000000, 4.000000, 4.000000, 4.000000, 4.000000, 4.000000, 4.000000, 4.000000, 4.000000, 4.000000, 4.000000, 4.000000, 4.000000, 4.000000, 4.000000
26.000000, 0.000000, 4190.769043, 4176.410156, 4191.281738, 4195.897461, 4196.410156, 4180.512695, 4180.512695, 4197.948730, 4197.948730, 4186.153809, 4168.717773, 4211.794922, 4166.153809, 4168.717773, 0.000000, 8185.000000, 8189.000000, 0.000000, 0.000000, 0.000000, 25084.000000, 463.589722, 4.000000, 4.000000, 4.000000, 4.000000, 4.000000, 4.000000, 4.000000, 4.000000, 4.000000, 4.000000, 4.000000, 4.000000, 4.000000, 4.000000, 4.000000, 4.000000
27.000000, 0.000000, 4185.127930, 4168.205078, 4184.615234, 4196.410156, 4200.512695, 4187.692383, 4182.051270, 4192.307617, 4196.922852, 4174.871582, 4161.025391, 4211.794922, 4150.769043, 4158.974121, 0.000000, 8183.000000, 8187.000000, 0.000000, 0.000000, 0.000000, 25084.000000, 471.282043, 4.000000, 4.000000, 4.000000, 4.000000, 4.000000, 4.000000, 4.000000, 4.000000, 4.000000, 4.000000, 4.000000, 4.000000, 4.000000, 4.000000, 4.000000, 4.000000
28.000000, 0.000000, 4183.589844, 4157.436035, 4187.179199, 4197.948730, 4206.666504, 4201.538574, 4195.897461, 4203.589844, 4197.436035, 4165.127930, 4151.794922, 4213.333008, 4138.974121, 4154.358887, 0.000000, 8183.000000, 8187.000000, 0.000000, 0.000000, 0.000000, 25084.000000, 478.974335, 4.000000, 4.000000, 4.000000, 4.000000, 4.000000, 4.000000, 4.000000, 4.000000, 4.000000, 4.000000, 4.000000, 4.000000, 4.000000, 4.000000, 4.000000, 4.000000
29.000000, 0.000000, 4185.127930, 4154.358887, 4187.179199, 4190.769043, 4204.615234, 4204.615234, 4203.589844, 4214.871582, 4198.461426, 4172.820313, 4152.307617, 4210.256348, 4141.538574, 4153.846191, 0.000000, 8184.000000, 8189.000000, 0.000000, 0.000000, 0.000000, 25084.000000, 487.179474, 4.000000, 4.000000, 4.000000, 4.000000, 4.000000, 4.000000, 4.000000, 4.000000, 4.000000, 4.000000, 4.000000, 4.000000, 4.000000, 4.000000, 4.000000, 4.000000
30.000000, 0.000000, 4185.641113, 4155.897461, 4181.025391, 4188.717773, 4200.512695, 4200.000000, 4200.512695, 4212.307617, 4199.487305, 4186.153809, 4163.076660, 4210.256348, 4155.897461, 4154.358887, 0.000000, 8184.000000, 8189.000000, 0.000000, 0.000000, 0.000000, 25084.000000, 494.871796, 4.000000, 4.000000, 4.000000, 4.000000, 4.000000, 4.000000, 4.000000, 4.000000, 4.000000, 4.000000, 4.000000, 4.000000, 4.000000, 4.000000, 4.000000, 4.000000
31.000000, 0.000000, 4191.281738, 4161.538574, 4186.153809, 4198.461426, 4207.179199, 4202.563965, 4202.051270, 4208.205078, 4198.974121, 4190.256348, 4171.794922, 4211.281738, 4168.717773, 4161.538574, 0.000000, 8186.000000, 8187.000000, 0.000000, 0.000000, 0.000000, 25084.000000, 502.564087, 4.000000, 4.000000, 4.000000, 4.000000, 4.000000, 4.000000, 4.000000, 4.000000, 4.000000, 4.000000, 4.000000, 4.000000, 4.000000, 4.000000, 4.000000, 4.000000
32.000000, 0.000000, 4198.974121, 4163.076660, 4191.794922, 4204.615234, 4216.410156, 4205.127930, 4204.102539, 4204.102539, 4198.461426, 4188.717773, 4171.794922, 4211.281738, 4170.256348, 4167.692383, 0.000000, 8186.000000, 8187.000000, 0.000000, 0.000000, 0.000000, 25084.000000, 510.769226, 4.000000, 4.000000, 4.000000, 4.000000, 4.000000, 4.000000, 4.000000, 4.000000, 4.000000, 4.000000, 4.000000, 4.000000, 4.000000, 4.000000, 4.000000, 4.000000
33.000000, 0.000000, 4199.487305, 4160.000000, 4188.717773, 4201.538574, 4217.436035, 4204.102539, 4201.025391, 4198.974121, 4198.461426, 4186.153809, 4169.743652, 4213.333008, 4168.717773, 4169.230469, 0.000000, 8191.000000, 8189.000000, 0.000000, 0.000000, 0.000000, 25084.000000, 518.974365, 4.000000, 4.000000, 4.000000, 4.000000, 4.000000, 4.000000, 4.000000, 4.000000, 4.000000, 4.000000, 4.000000, 4.000000, 4.000000, 4.000000, 4.000000, 4.000000
34.000000, 0.000000, 4194.871582, 4156.410156, 4189.743652, 4201.538574, 4213.333008, 4205.127930, 4200.000000, 4200.512695, 4196.410156, 4184.615234, 4170.769043, 4217.436035, 4171.281738, 4168.717773, 0.000000, 8191.000000, 8189.000000, 0.000000, 0.000000, 0.000000, 25084.000000, 526.666626, 4.000000, 4.000000, 4.000000, 4.000000, 4.000000, 4.000000, 4.000000, 4.000000, 4.000000, 4.000000, 4.000000, 4.000000, 4.000000, 4.000000, 4.000000, 4.000000
35.000000, 0.000000, 4191.794922, 4149.230469, 4191.281738, 4199.487305, 4207.179199, 4196.410156, 4195.384277, 4201.538574, 4195.897461, 4183.076660, 4168.205078, 4221.538574, 4168.205078, 4166.153809, 0.000000, 8191.000000, 8186.000000, 0.000000, 0.000000, 0.000000, 25084.000000, 534.358948, 4.000000, 4.000000, 4.000000, 4.000000, 4.000000, 4.000000, 4.000000, 4.000000, 4.000000, 4.000000, 4.000000, 4.000000, 4.000000, 4.000000, 4.000000, 4.000000
36.000000, 0.000000, 4196.410156, 4148.717773, 4193.333008, 4200.512695, 4207.179199, 4183.076660, 4184.102539, 4193.846191, 4197.436035, 4181.538574, 4169.230469, 4230.256348, 4165.127930, 4170.769043, 0.000000, 8191.000000, 8186.000000, 0.000000, 0.000000, 0.000000, 25084.000000, 542.051270, 4.000000, 4.000000, 4.000000, 4.000000, 4.000000, 4.000000, 4.000000, 4.000000, 4.000000, 4.000000, 4.000000, 4.000000, 4.000000, 4.000000, 4.000000, 4.000000
37.000000, 0.000000, 4205.127930, 4151.281738, 4202.563965, 4209.743652, 4213.846191, 4187.179199, 4182.563965, 4196.410156, 4198.974121, 4188.205078, 4183.589844, 4243.589844, 4175.384277, 4183.589844, 0.000000, 8189.000000, 8174.000000, 0.000000, 0.000000, 0.000000, 25084.000000, 550.256409, 4.000000, 4.000000, 4.000000, 4.000000, 4.000000, 4.000000, 4.000000, 4.000000, 4.000000, 4.000000, 4.000000, 4.000000, 4.000000, 4.000000, 4.000000, 4.000000
38.000000, 0.000000, 4209.230469, 4149.230469, 4205.127930, 4212.307617, 4211.794922, 4197.948730, 4193.333008, 4210.256348, 4198.974121, 4199.487305, 4195.897461, 4247.692383, 4186.153809, 4188.717773, 0.000000, 8189.000000, 8174.000000, 0.000000, 0.000000, 0.000000, 25084.000000, 557.948730, 4.000000, 4.000000, 4.000000, 4.000000, 4.000000, 4.000000, 4.000000, 4.000000, 4.000000, 4.000000, 4.000000, 4.000000, 4.000000, 4.000000, 4.000000, 4.000000
39.000000, 0.000000, 4214.358887, 4150.256348, 4204.102539, 4213.333008, 4207.179199, 4200.512695, 4201.538574, 4222.563965, 4200.512695, 4203.589844, 4200.512695, 4247.179199, 4187.692383, 4193.333008, 0.000000, 8195.000000, 8179.000000, 0.000000, 0.000000, 0.000000, 25084.000000, 566.153809, 4.000000, 4.000000, 4.000000, 4.000000, 4.000000, 4.000000, 4.000000, 4.000000, 4.000000, 4.000000, 4.000000, 4.000000, 4.000000, 4.000000, 4.000000, 4.000000
40.000000, 0.000000, 4216.410156, 4148.205078, 4204.615234, 4213.846191, 4207.179199, 4197.948730, 4201.025391, 4220.512695, 4198.974121, 4198.461426, 4200.000000, 4249.230469, 4186.666504, 4199.487305, 0.000000, 8195.000000, 8179.000000, 0.000000, 0.000000, 0.000000, 25084.000000, 573.846130, 4.000000, 4.000000, 4.000000, 4.000000, 4.000000, 4.000000, 4.000000, 4.000000, 4.000000, 4.000000, 4.000000, 4.000000, 4.000000, 4.000000, 4.000000, 4.000000
41.000000, 0.000000, 4203.076660, 4138.974121, 4199.487305, 4203.589844, 4202.563965, 4192.307617, 4198.974121, 4207.179199, 4194.358887, 4189.230469, 4190.769043, 4247.179199, 4179.487305, 4191.281738, 0.000000, 8191.000000, 8185.000000, 0.000000, 0.000000, 0.000000, 25084.000000, 582.051270, 4.000000, 4.000000, 4.000000, 4.000000, 4.000000, 4.000000, 4.000000, 4.000000, 4.000000, 4.000000, 4.000000, 4.000000, 4.000000, 4.000000, 4.000000, 4.000000
42.000000, 0.000000, 4196.410156, 4135.384277, 4196.410156, 4197.436035, 4196.922852, 4186.666504, 4197.436035, 4201.025391, 4194.871582, 4185.641113, 4182.563965, 4245.641113, 4170.769043, 4183.589844, 0.000000, 8191.000000, 8185.000000, 0.000000, 0.000000, 0.000000, 25084.000000, 589.743591, 4.000000, 4.000000, 4.000000, 4.000000, 4.000000, 4.000000, 4.000000, 4.000000, 4.000000, 4.000000, 4.000000, 4.000000, 4.000000, 4.000000, 4.000000, 4.000000
43.000000, 0.000000, 4204.615234, 4136.410156, 4198.461426, 4202.051270, 4197.436035, 4185.641113, 4190.769043, 4195.384277, 4195.897461, 4186.153809, 4184.102539, 4244.615234, 4170.256348, 4184.102539, 0.000000, 8190.000000, 8196.000000, 0.000000, 0.000000, 0.000000, 25084.000000, 597.948730, 4.000000, 4.000000, 4.000000, 4.000000, 4.000000, 4.000000, 4.000000, 4.000000, 4.000000, 4.000000, 4.000000, 4.000000, 4.000000, 4.000000, 4.000000, 4.000000
44.000000, 0.000000, 4197.948730, 4127.692383, 4192.820313, 4199.487305, 4196.410156, 4184.102539, 4185.641113, 4191.794922, 4194.871582, 4181.025391, 4181.538574, 4236.922852, 4165.127930, 4174.871582, 0.000000, 8190.000000, 8196.000000, 0.000000, 0.000000, 0.000000, 25084.000000, 605.640991, 4.000000, 4.000000, 4.000000, 4.000000, 4.000000, 4.000000, 4.000000, 4.000000, 4.000000, 4.000000, 4.000000, 4.000000, 4.000000, 4.000000, 4.000000, 4.000000
45.000000, 0.000000, 4184.615234, 4116.922852, 4184.102539, 4193.846191, 4195.897461, 4185.127930, 4187.692383, 4195.384277, 4195.897461, 4173.333008, 4174.871582, 4229.230469, 4155.384277, 4166.153809, 0.000000, 8189.000000, 8204.000000, 0.000000, 0.000000, 0.000000, 25084.000000, 613.333313, 4.000000, 4.000000, 4.000000, 4.000000, 4.000000, 4.000000, 4.000000, 4.000000, 4.000000, 4.000000, 4.000000, 4.000000, 4.000000, 4.000000, 4.000000, 4.000000
46.000000, 0.000000, 4185.641113, 4116.410156, 4188.205078, 4195.384277, 4200.000000, 4190.769043, 4188.205078, 4190.769043, 4197.436035, 4171.281738, 4171.281738, 4229.230469, 4153.846191, 4168.205078, 0.000000, 8189.000000, 8204.000000, 0.000000, 0.000000, 0.000000, 25084.000000, 621.538452, 4.000000, 4.000000, 4.000000, 4.000000, 4.000000, 4.000000, 4.000000, 4.000000, 4.000000, 4.000000, 4.000000, 4.000000, 4.000000, 4.000000, 4.000000, 4.000000
47.000000, 0.000000, 4187.179199, 4113.846191, 4189.743652, 4190.256348, 4201.025391, 4188.717773, 4187.179199, 4188.717773, 4197.948730, 4175.897461, 4170.769043, 4227.179199, 4154.871582, 4167.692383, 0.000000, 8188.000000, 8204.000000, 0.000000, 0.000000, 0.000000, 25084.000000, 629.230774, 4.000000, 4.000000, 4.000000, 4.000000, 4.000000, 4.000000, 4.000000, 4.000000, 4.000000, 4.000000, 4.000000, 4.000000, 4.000000, 4.000000, 4.000000, 4.000000
48.000000, 0.000000, 4181.538574, 4106.666504, 4183.589844, 4185.127930, 4201.025391, 4186.153809, 4188.205078, 4201.538574, 4198.974121, 4181.538574, 4173.333008, 4225.641113, 4150.769043, 4167.692383, 0.000000, 8188.000000, 8204.000000, 0.000000, 0.000000, 0.000000, 25084.000000, 636.923035, 4.000000, 4.000000, 4.000000, 4.000000, 4.000000, 4.000000, 4.000000, 4.000000, 4.000000, 4.000000, 4.000000, 4.000000, 4.000000, 4.000000, 4.000000, 4.000000
49.000000, 0.000000, 4184.615234, 4110.256348, 4187.692383, 4194.358887, 4207.692383, 4190.256348, 4186.153809, 4204.102539, 4198.461426, 4182.051270, 4178.461426, 4230.256348, 4156.410156, 4173.846191, 0.000000, 8184.000000, 8202.000000, 0.000000, 0.000000, 0.000000, 25084.000000, 645.128174, 4.000000, 4.000000, 4.000000, 4.000000, 4.000000, 4.000000, 4.000000, 4.000000, 4.000000, 4.000000, 4.000000, 4.000000, 4.000000, 4.000000, 4.000000, 4.000000
50.000000, 0.000000, 4196.410156, 4114.871582, 4194.871582, 4207.179199, 4216.922852, 4195.897461, 4188.717773, 4192.820313, 4197.436035, 4184.102539, 4188.205078, 4235.384277, 4168.717773, 4183.076660, 0.000000, 8184.000000, 8202.000000, 0.000000, 0.000000, 0.000000, 25084.000000, 652.820496, 4.000000, 4.000000, 4.000000, 4.000000, 4.000000, 4.000000, 4.000000, 4.000000, 4.000000, 4.000000, 4.000000, 4.000000, 4.000000, 4.000000, 4.000000, 4.000000
51.000000, 0.000000, 4207.692383, 4113.333008, 4202.563965, 4213.846191, 4224.615234, 4200.512695, 4200.512695, 4201.538574, 4199.487305, 4192.820313, 4200.512695, 4244.102539, 4173.846191, 4193.846191, 0.000000, 8184.000000, 8185.000000, 0.000000, 0.000000, 0.000000, 25084.000000, 660.512817, 4.000000, 4.000000, 4.000000, 4.000000, 4.000000, 4.000000, 4.000000, 4.000000, 4.000000, 4.000000, 4.000000, 4.000000, 4.000000, 4.000000, 4.000000, 4.000000
52.000000, 0.000000, 4217.436035, 4111.794922, 4212.307617, 4217.948730, 4230.256348, 4203.589844, 4207.692383, 4218.461426, 4200.000000, 4198.461426, 4205.127930, 4254.871582, 4177.948730, 4202.051270, 0.000000, 8184.000000, 8185.000000, 0.000000, 0.000000, 0.000000, 25084.000000, 668.717957, 4.000000, 4.000000, 4.000000, 4.000000, 4.000000, 4.000000, 4.000000, 4.000000, 4.000000, 4.000000, 4.000000, 4.000000, 4.000000, 4.000000, 4.000000, 4.000000
53.000000, 0.000000, 4217.948730, 4111.794922, 4213.333008, 4220.512695, 4230.256348, 4205.127930, 4205.127930, 4222.563965, 4198.974121, 4201.025391, 4206.153809, 4257.948730, 4185.641113, 4200.512695, 0.000000, 8182.000000, 8186.000000, 0.000000, 0.000000, 0.000000, 25084.000000, 676.410217, 4.000000, 4.000000, 4.000000, 4.000000, 4.000000, 4.000000, 4.000000, 4.000000, 4.000000, 4.000000, 4.000000, 4.000000, 4.000000, 4.000000, 4.000000, 4.000000
54.000000, 0.000000, 4207.692383, 4103.076660, 4205.127930, 4216.410156, 4220.512695, 4203.589844, 4203.589844, 4213.333008, 4197.948730, 4198.461426, 4200.512695, 4248.717773, 4182.051270, 4192.307617, 0.000000, 8182.000000, 8186.000000, 0.000000, 0.000000, 0.000000, 25084.000000, 684.615356, 4.000000, 4.000000, 4.000000, 4.000000, 4.000000, 4.000000, 4.000000, 4.000000, 4.000000, 4.000000, 4.000000, 4.000000, 4.000000, 4.000000, 4.000000, 4.000000
55.000000, 0.000000, 4198.974121, 4089.230713, 4194.358887, 4207.692383, 4212.820313, 4201.538574, 4199.487305, 4203.076660, 4196.410156, 4189.743652, 4188.717773, 4235.384277, 4171.281738, 4184.102539, 0.000000, 8183.000000, 8181.000000, 0.000000, 0.000000, 0.000000, 25084.000000, 692.307678, 4.000000, 4.000000, 4.000000, 4.000000, 4.000000, 4.000000, 4.000000, 4.000000, 4.000000, 4.000000, 4.000000, 4.000000, 4.000000, 4.000000, 4.000000, 4.000000
56.000000, 0.000000, 4198.974121, 4082.051270, 4190.769043, 4202.563965, 4216.922852, 4201.538574, 4190.769043, 4202.051270, 4195.897461, 4185.641113, 4181.538574, 4230.256348, 4165.641113, 4177.948730, 0.000000, 8183.000000, 8181.000000, 0.000000, 0.000000, 0.000000, 25084.000000, 700.512817, 4.000000, 4.000000, 4.000000, 4.000000, 4.000000, 4.000000, 4.000000, 4.000000, 4.000000, 4.000000, 4.000000, 4.000000, 4.000000, 4.000000, 4.000000, 4.000000
57.000000, 0.000000, 4200.000000, 4080.000000, 4193.846191, 4202.563965, 4218.974121, 4197.436035, 4186.153809, 4198.461426, 4196.410156, 4185.641113, 4181.538574, 4231.794922, 4160.000000, 4173.846191, 0.000000, 8174.000000, 8173.000000, 0.000000, 0.000000, 0.000000, 25084.000000, 708.205139, 4.000000, 4.000000, 4.000000, 4.000000, 4.000000, 4.000000, 4.000000, 4.000000, 4.000000, 4.000000, 4.000000, 4.000000, 4.000000, 4.000000, 4.000000, 4.000000
58.000000, 0.000000, 4200.000000, 4077.948730, 4197.948730, 4204.102539, 4215.897461, 4192.820313, 4184.615234, 4196.410156, 4199.487305, 4184.615234, 4184.615234, 4233.333008, 4161.025391, 4179.487305, 0.000000, 8174.000000, 8173.000000, 0.000000, 0.000000, 0.000000, 25084.000000, 716.410217, 4.000000, 4.000000, 4.000000, 4.000000, 4.000000, 4.000000, 4.000000, 4.000000, 4.000000, 4.000000, 4.000000, 4.000000, 4.000000, 4.000000, 4.000000, 4.000000
59.000000, 0.000000, 4204.102539, 4076.410156, 4202.563965, 4206.153809, 4215.384277, 4195.384277, 4184.102539, 4201.538574, 4201.025391, 4185.127930, 4183.589844, 4234.871582, 4172.307617, 4185.127930, 0.000000, 8170.000000, 8165.000000, 0.000000, 0.000000, 0.000000, 25084.000000, 724.102539, 4.000000, 4.000000, 4.000000, 4.000000, 4.000000, 4.000000, 4.000000, 4.000000, 4.000000, 4.000000, 4.000000, 4.000000, 4.000000, 4.000000, 4.000000, 4.000000
60.000000, 0.000000, 4202.563965, 4066.666504, 4199.487305, 4204.615234, 4215.384277, 4197.436035, 4184.615234, 4196.922852, 4197.436035, 4184.615234, 4174.871582, 4227.179199, 4168.205078, 4175.897461, 0.000000, 8170.000000, 8165.000000, 0.000000, 0.000000, 0.000000, 25084.000000, 731.794861, 4.000000, 4.000000, 4.000000, 4.000000, 4.000000, 4.000000, 4.000000, 4.000000, 4.000000, 4.000000, 4.000000, 4.000000, 4.000000, 4.000000, 4.000000, 4.000000
61.000000, 0.000000, 4194.871582, 4057.435791, 4192.307617, 4202.051270, 4214.871582, 4196.410156, 4184.615234, 4190.256348, 4196.410156, 4183.589844, 4171.281738, 4219.487305, 4156.922852, 4168.717773, 0.000000, 8176.000000, 8153.000000, 0.000000, 0.000000, 0.000000, 25084.000000, 740.000000, 4.000000, 4.000000, 4.000000, 4.000000, 4.000000, 4.000000, 4.000000, 4.000000, 4.000000, 4.000000, 4.000000, 4.000000, 4.000000, 4.000000, 4.000000, 4.000000
62.000000, 0.000000, 4195.384277, 4058.974365, 4192.307617, 4203.589844, 4217.948730, 4200.000000, 4183.076660, 4200.000000, 4200.000000, 4186.666504, 4181.538574, 4226.666504, 4166.666504, 4173.333008, 0.000000, 8176.000000, 8153.000000, 0.000000, 0.000000, 0.000000, 25084.000000, 747.692261, 4.000000, 4.000000, 4.000000, 4.000000, 4.000000, 4.000000, 4.000000, 4.000000, 4.000000, 4.000000, 4.000000, 4.000000, 4.000000, 4.000000, 4.000000, 4.000000
63.000000, 0.000000, 4197.436035, 4054.871582, 4192.820313, 4204.615234, 4218.974121, 4209.743652, 4187.179199, 4206.153809, 4201.025391, 4192.307617, 4188.717773, 4234.358887, 4176.922852, 4174.871582, 0.000000, 8176.000000, 8154.000000, 0.000000, 0.000000, 0.000000, 25084.000000, 755.897400, 4.000000, 4.000000, 4.000000, 4.000000, 4.000000, 4.000000, 4.000000, 4.000000, 4.000000, 4.000000, 4.000000, 4.000000, 4.000000, 4.000000, 4.000000, 4.000000
64.000000, 0.000000, 4190.256348, 4042.563965, 4189.743652, 4203.076660, 4217.436035, 4214.871582, 4195.384277, 4201.538574, 4198.974121, 4196.922852, 4187.692383, 4231.281738, 4171.794922, 4176.410156, 3034.000000, 8176.000000, 8154.000000, 0.000000, 0.000000, 0.000000, 25084.000000, 763.589722, 4.000000, 4.000000, 4.000000, 4.000000, 4.000000, 4.000000, 4.000000, 4.000000, 4.000000, 4.000000, 4.000000, 4.000000, 4.000000, 4.000000, 4.000000, 4.000000
65.000000, 0.000000, 4184.102539, 4038.461426, 4188.717773, 4201.025391, 4218.461426, 4212.820313, 4200.512695, 4203.076660, 4198.461426, 4197.436035, 4189.743652, 4232.307617, 4173.846191, 4180.512695, 3515.000000, 8177.000000, 8152.000000, 0.000000, 0.000000, 0.000000, 25084.000000, 771.794861, 4.000000, 4.000000, 4.000000, 4.000000, 4.000000, 4.000000, 4.000000, 4.000000, 4.000000, 4.000000, 4.000000, 4.000000, 4.000000, 4.000000, 4.000000, 4.000000
66.000000, 0.000000, 4186.153809, 4035.897217, 4189.743652, 4200.000000, 4216.922852, 4211.794922, 4203.076660, 4202.051270, 4198.461426, 4193.846191, 4187.179199, 4232.307617, 4177.948730, 4176.410156, 3514.000000, 8177.000000, 8152.000000, 0.000000, 0.000000, 0.000000, 25084.000000, 779.487183, 4.000000, 4.000000, 4.000000, 4.000000, 4.000000, 4.000000, 4.000000, 4.000000, 4.000000, 4.000000, 4.000000, 4.000000, 4.000000, 4.000000, 4.000000, 4.000000
67.000000, 0.000000, 4183.076660, 4028.205078, 4185.127930, 4196.922852, 4213.333008, 4211.794922, 4202.563965, 4197.436035, 4197.948730, 4193.333008, 4181.538574, 4226.153809, 4170.769043, 4169.230469, 2200.000000, 8178.000000, 8149.000000, 0.000000, 0.000000, 0.000000, 25084.000000, 787.692261, 4.000000, 4.000000, 4.000000, 4.000000, 4.000000, 4.000000, 4.000000, 4.000000, 4.000000, 4.000000, 4.000000, 4.000000, 4.000000, 4.000000, 4.000000, 4.000000
68.000000, 0.000000, 4184.102539, 4027.179443, 4186.153809, 4200.000000, 4215.897461, 4207.692383, 4199.487305, 4205.127930, 4197.948730, 4198.974121, 4191.794922, 4235.897461, 4178.461426, 4177.948730, 3514.000000, 8178.000000, 8149.000000, 0.000000, 0.000000, 0.000000, 25084.000000, 795.384583, 4.000000, 4.000000, 4.000000, 4.000000, 4.000000, 4.000000, 4.000000, 4.000000, 4.000000, 4.000000, 4.000000, 4.000000, 4.000000, 4.000000, 4.000000, 4.000000
69.000000, 0.000000, 4197.948730, 4030.256348, 4198.461426, 4210.769043, 4216.410156, 4203.589844, 4196.410156, 4207.179199, 4198.461426, 4201.538574, 4204.615234, 4251.794922, 4195.897461, 4195.897461, 3557.000000, 8177.000000, 8150.000000, 0.000000, 0.000000, 0.000000, 25084.000000, 803.076904, 4.000000, 4.000000, 4.000000, 4.000000, 4.000000, 4.000000, 4.000000, 4.000000, 4.000000, 4.000000, 4.000000, 4.000000, 4.000000, 4.000000, 4.000000, 4.000000
70.000000, 0.000000, 4202.051270, 4022.051270, 4202.051270, 4215.897461, 4212.307617, 4203.589844, 4195.384277, 4201.538574, 4197.948730, 4200.512695, 4204.615234, 4251.281738, 4193.846191, 4201.025391, 3434.000000, 8177.000000, 8150.000000, 0.000000, 0.000000, 0.000000, 25084.000000, 810.769226, 4.000000, 4.000000, 4.000000, 4.000000, 4.000000, 4.000000, 4.000000, 4.000000, 4.000000, 4.000000, 4.000000, 4.000000, 4.000000, 4.000000, 4.000000, 4.000000
71.000000, 0.000000, 4198.461426, 4021.025635, 4201.025391, 4215.384277, 4215.897461, 4204.102539, 4196.922852, 4201.025391, 4197.948730, 4200.512695, 4203.589844, 4253.333008, 4190.256348, 4197.948730, 3500.000000, 8186.000000, 8160.000000, 0.000000, 0.000000, 0.000000, 25084.000000, 818.974365, 4.000000, 4.000000, 4.000000, 4.000000, 4.000000, 4.000000, 4.000000, 4.000000, 4.000000, 4.000000, 4.000000, 4.000000, 4.000000, 4.000000, 4.000000, 4.000000
72.000000, 0.000000, 4205.127930, 4029.230713, 4209.230469, 4217.436035, 4220.512695, 4204.615234, 4198.461426, 4202.563965, 4199.487305, 4203.076660, 4206.153809, 4264.615234, 4195.384277, 4200.512695, 825.000000, 8186.000000, 8160.000000, 0.000000, 0.000000, 0.000000, 25084.000000, 826.666626, 4.000000, 4.000000, 4.000000, 4.000000, 4.000000, 4.000000, 4.000000, 4.000000, 4.000000, 4.000000, 4.000000, 4.000000, 4.000000, 4.000000, 4.000000, 4.000000
73.000000, 0.000000, 4209.743652, 4022.563965, 4212.307617, 4220.512695, 4216.922852, 4205.127930, 4201.538574, 4208.717773, 4200.512695, 4206.153809, 4204.615234, 4265.641113, 4195.897461, 4204.102539, 2948.000000, 8184.000000, 8159.000000, 0.000000, 0.000000, 0.000000, 25084.000000, 834.871765, 4.000000, 4.000000, 4.000000, 4.000000, 4.000000, 4.000000, 4.000000, 4.000000, 4.000000, 4.000000, 4.000000, 4.000000, 4.000000, 4.000000, 4.000000, 4.000000
74.000000, 0.000000, 4201.538574, 4009.743408, 4206.153809, 4215.384277, 4216.410156, 4203.076660, 4204.615234, 4217.948730, 4200.000000, 4205.127930, 4201.025391, 4253.333008, 4191.281738, 4200.000000, 3566.000000, 8184.000000, 8159.000000, 0.000000, 0.000000, 0.000000, 25084.000000, 842.564087, 4.000000, 4.000000, 4.000000, 4.000000, 4.000000, 4.000000, 4.000000, 4.000000, 4.000000, 4.000000, 4.000000, 4.000000, 4.000000, 4.000000, 4.000000, 4.000000
75.000000, 0.000000, 4198.974121, 4008.205078, 4199.487305, 4206.666504, 4214.358887, 4198.974121, 4197.948730, 4206.666504, 4199.487305, 4199.487305, 4201.025391, 4244.615234, 4194.871582, 4196.410156, 3571.000000, 8182.000000, 8157.000000, 0.000000, 0.000000, 0.000000, 25084.000000, 850.256409, 4.000000, 4.000000, 4.000000, 4.000000, 4.000000, 4.000000, 4.000000, 4.000000, 4.000000, 4.000000, 4.000000, 4.000000, 4.000000, 4.000000, 4.000000, 4.000000
76.000000, 0.000000, 4197.948730, 4006.153809, 4190.769043, 4199.487305, 4204.102539, 4197.436035, 4187.179199, 4189.743652, 4196.922852, 4194.871582, 4191.794922, 4242.563965, 4183.589844, 4192.307617, 3530.000000, 8182.000000, 8157.000000, 0.000000, 0.000000, 0.000000, 25084.000000, 858.461548, 4.000000, 4.000000, 4.000000, 4.000000, 4.000000, 4.000000, 4.000000, 4.000000, 4.000000, 4.000000, 4.000000, 4.000000, 4.000000, 4.000000, 4.000000, 4.000000
77.000000, 0.000000, 4186.666504, 3992.820313, 4190.256348, 4195.384277, 4196.410156, 4194.358887, 4185.641113, 4196.410156, 4197.436035, 4194.358887, 4183.076660, 4242.051270, 4164.102539, 4181.025391, 3458.000000, 8184.000000, 8150.000000, 0.000000, 0.000000, 0.000000, 25084.000000, 866.153809, 4.000000, 4.000000, 4.000000, 4.000000, 4.000000, 4.000000, 4.000000, 4.000000, 4.000000, 4.000000, 4.000000, 4.000000, 4.000000, 4.000000, 4.000000, 4.000000
78.000000, 0.000000, 4185.641113, 3983.076904, 4194.871582, 4198.461426, 4197.436035, 4187.692383, 4186.666504, 4204.102539, 4199.487305, 4195.384277, 4192.820313, 4243.076660, 4177.948730, 4181.025391, 3566.000000, 8184.000000, 8150.000000, 0.000000, 0.000000, 0.000000, 25084.000000, 874.358948, 4.000000, 4.000000, 4.000000, 4.000000, 4.000000, 4.000000, 4.000000, 4.000000, 4.000000, 4.000000, 4.000000, 4.000000, 4.000000, 4.000000, 4.000000, 4.000000
79.000000, 0.000000, 4197.436035, 3990.769043, 4194.871582, 4202.051270, 4197.948730, 4189.230469, 4185.127930, 4200.000000, 4200.000000, 4196.922852, 4208.205078, 4250.256348, 4206.666504, 4196.410156, 3571.000000, 8182.000000, 8155.000000, 0.000000, 0.000000, 0.000000, 25084.000000, 882.051270, 4.000000, 4.000000, 4.000000, 4.000000, 4.000000, 4.000000, 4.000000, 4.000000, 4.000000, 4.000000, 4.000000, 4.000000, 4.000000, 4.000000, 4.000000, 4.000000
80.000000, 0.000000, 4203.589844, 3995.384521, 4193.333008, 4204.102539, 4200.512695, 4198.461426, 4186.666504, 4211.794922, 4200.000000, 4207.692383, 4216.922852, 4261.538574, 4221.025391, 4209.743652, 3530.000000, 8182.000000, 8155.000000, 0.000000, 0.000000, 0.000000, 25084.000000, 890.256409, 4.000000, 4.000000, 4.000000, 4.000000, 4.000000, 4.000000, 4.000000, 4.000000, 4.000000, 4.000000, 4.000000, 4.000000, 4.000000, 4.000000, 4.000000, 4.000000
81.000000, 0.000000, 4203.589844, 3989.743408, 4201.025391, 4212.307617, 4211.794922, 4204.102539, 4194.871582, 4226.666504, 4201.025391, 4217.948730, 4227.179199, 4265.641113, 4233.333008, 4220.000000, 3458.000000, 8164.000000, 8158.000000, 0.000000, 0.000000, 0.000000, 25084.000000, 897.948669, 4.000000, 4.000000, 4.000000, 4.000000, 4.000000, 4.000000, 4.000000, 4.000000, 4.000000, 4.000000, 4.000000, 4.000000, 4.000000, 4.000000, 4.000000, 4.000000
82.000000, 0.000000, 4204.615234, 3983.589600, 4205.641113, 4212.820313, 4212.820313, 4208.717773, 4208.717773, 4221.025391, 4201.538574, 4218.461426, 4238.461426, 4266.153809, 4249.230469, 4228.205078, 3566.000000, 8164.000000, 8158.000000, 0.000000, 0.000000, 0.000000, 25084.000000, 906.153809, 4.000000, 4.000000, 4.000000, 4.000000, 4.000000, 4.000000, 4.000000, 4.000000, 4.000000, 4.000000, 4.000000, 4.000000, 4.000000, 4.000000, 4.000000, 4.000000
83.000000, 0.000000, 4203.076660, 3975.897217, 4200.512695, 4204.102539, 4204.102539, 4213.333008, 4213.333008, 4218.974121, 4201.025391, 4223.076660, 4247.179199, 4273.846191, 4259.487305, 4235.384277, 3571.000000, 8163.000000, 8158.000000, 0.000000, 0.000000, 0.000000, 25084.000000, 914.358948, 4.000000, 4.000000, 4.000000, 4.000000, 4.000000, 4.000000, 4.000000, 4.000000, 4.000000, 4.000000, 4.000000, 4.000000, 4.000000, 4.000000, 4.000000, 4.000000
84.000000, 0.000000, 4204.102539, 3973.333252, 4201.538574, 4203.589844, 4207.179199, 4211.281738, 4209.230469, 4233.846191, 4201.025391, 4235.897461, 4255.384277, 4284.102539, 4267.692383, 4244.615234, 3530.000000, 8163.000000, 8158.000000, 0.000000, 0.000000, 0.000000, 25084.000000, 922.051270, 4.000000, 4.000000, 4.000000, 4.000000, 4.000000, 4.000000, 4.000000, 4.000000, 4.000000, 4.000000, 4.000000, 4.000000, 4.000000, 4.000000, 4.000000, 4.000000
85.000000, 0.000000, 4204.102539, 3970.256348, 4203.076660, 4205.641113, 4211.281738, 4205.641113, 4213.333008, 4241.538574, 4200.512695, 4237.436035, 4254.358887, 4283.589844, 4270.769043, 4243.076660, 3458.000000, 8155.000000, 8153.000000, 0.000000, 0.000000, 0.000000, 25084.000000, 930.256409, 4.000000, 4.000000, 4.000000, 4.000000, 4.000000, 4.000000, 4.000000, 4.000000, 4.000000, 4.000000, 4.000000, 4.000000, 4.000000, 4.000000, 4.000000, 4.000000
86.000000, 0.000000, 4197.948730, 3957.435791, 4200.512695, 4199.487305, 4202.051270, 4202.051270, 4214.358887, 4234.358887, 4198.974121, 4230.769043, 4246.666504, 4276.922852, 4261.025391, 4232.820313, 3566.000000, 8155.000000, 8153.000000, 0.000000, 0.000000, 0.000000, 25084.000000, 937.948669, 4.000000, 4.000000, 4.000000, 4.000000, 4.000000, 4.000000, 4.000000, 4.000000, 4.000000, 4.000000, 4.000000, 4.000000, 4.000000, 4.000000, 4.000000, 4.000000
87.000000, 0.000000, 4197.436035, 3954.358887, 4203.589844, 4200.512695, 4201.538574, 4201.538574, 4208.205078, 4226.153809, 4198.461426, 4227.179199, 4243.076660, 4271.794922, 4255.384277, 4231.281738, 3571.000000, 8152.000000, 8154.000000, 0.000000, 0.000000, 0.000000, 25084.000000, 945.640991, 4.000000, 4.000000, 4.000000, 4.000000, 4.000000, 4.000000, 4.000000, 4.000000, 4.000000, 4.000000, 4.000000, 4.000000, 4.000000, 4.000000, 4.000000, 4.000000
88.000000, 0.000000, 4196.410156, 3955.384521, 4201.025391, 4204.615234, 4206.153809, 4205.127930, 4209.743652, 4218.974121, 4199.487305, 4219.487305, 4236.410156, 4263.076660, 4247.179199, 4226.666504, 3530.000000, 8152.000000, 8154.000000, 0.000000, 0.000000, 0.000000, 25084.000000, 953.846130, 4.000000, 4.000000, 4.000000, 4.000000, 4.000000, 4.000000, 4.000000, 4.000000, 4.000000, 4.000000, 4.000000, 4.000000, 4.000000, 4.000000, 4.000000, 4.000000
89.000000, 0.000000, 4192.307617, 3947.692139, 4190.256348, 4196.922852, 4202.051270, 4204.615234, 4214.358887, 4211.281738, 4199.487305, 4211.281738, 4227.179199, 4255.897461, 4237.948730, 4215.384277, 3458.000000, 8151.000000, 8150.000000, 0.000000, 0.000000, 0.000000, 25084.000000, 961.538452, 4.000000, 4.000000, 4.000000, 4.000000, 4.000000, 4.000000, 4.000000, 4.000000, 4.000000, 4.000000, 4.000000, 4.000000, 4.000000, 4.000000, 4.000000, 4.000000
90.000000, 0.000000, 4198.461426, 3945.128174, 4192.820313, 4198.461426, 4208.205078, 4207.179199, 4213.333008, 4209.743652, 4197.948730, 4211.794922, 4228.205078, 4258.461426, 4242.563965, 4222.051270, 3566.000000, 8151.000000, 8150.000000, 0.000000, 0.000000, 0.000000, 25084.000000, 969.230774, 4.000000, 4.000000, 4.000000, 4.000000, 4.000000, 4.000000, 4.000000, 4.000000, 4.000000, 4.000000, 4.000000, 4.000000, 4.000000, 4.000000, 4.000000, 4.000000
91.000000, 0.000000, 4205.127930, 3949.743408, 4202.051270, 4212.820313, 4219.487305, 4215.897461, 4217.436035, 4215.897461, 4199.487305, 4217.436035, 4237.948730, 4262.563965, 4251.281738, 4234.358887, 3571.000000, 8153.000000, 8152.000000, 0.000000, 0.000000, 0.000000, 25084.000000, 977.435852, 4.000000, 4.000000, 4.000000, 4.000000, 4.000000, 4.000000, 4.000000, 4.000000, 4.000000, 4.000000, 4.000000, 4.000000, 4.000000, 4.000000, 4.000000, 4.000000
92.000000, 0.000000, 4202.563965, 3948.717773, 4202.563965, 4214.871582, 4215.384277, 4211.281738, 4212.307617, 4222.051270, 4201.025391, 4225.127930, 4245.641113, 4269.230469, 4256.410156, 4231.794922, 3530.000000, 8153.000000, 8152.000000, 0.000000, 0.000000, 0.000000, 25084.000000, 985.128174, 4.000000, 4.000000, 4.000000, 4.000000, 4.000000, 4.000000, 4.000000, 4.000000, 4.000000, 4.000000, 4.000000, 4.000000, 4.000000, 4.000000, 4.000000, 4.000000
93.000000, 0.000000, 4206.666504, 3943.589600, 4208.717773, 4207.179199, 4210.256348, 4198.974121, 4199.487305, 4229.743652, 4201.538574, 4233.333008, 4251.281738, 4287.692383, 4263.589844, 4232.307617, 3458.000000, 8155.000000, 8146.000000, 0.000000, 0.000000, 0.000000, 25084.000000, 993.333313, 4.000000, 4.000000, 4.000000, 4.000000, 4.000000, 4.000000, 4.000000, 4.000000, 4.000000, 4.000000, 4.000000, 4.000000, 4.000000, 4.000000, 4.000000, 4.000000
94.000000, 0.000000, 4214.358887, 3938.974365, 4217.948730, 4205.127930, 4210.256348, 4198.461426, 4206.153809, 4246.153809, 4202.563965, 4234.358887, 4250.769043, 4296.922852, 4264.615234, 4237.436035, 3566.000000, 8155.000000, 8146.000000, 0.000000, 0.000000, 0.000000, 25085.000000, 1.538461, 4.000000, 4.000000, 4.000000, 4.000000, 4.000000, 4.000000, 4.000000, 4.000000, 4.000000, 4.000000, 4.000000, 4.000000, 4.000000, 4.000000, 4.000000, 4.000000
95.000000, 0.000000, 4216.922852, 3933.845947, 4218.461426, 4206.153809, 4207.179199, 4202.051270, 4216.922852, 4251.794922, 4201.025391, 4232.307617, 4250.256348, 4288.717773, 4262.051270, 4236.410156, 3571.000000, 8162.000000, 8142.000000, 0.000000, 0.000000, 0.000000, 25085.000000, 9.230769, 4.000000, 4.000000, 4.000000, 4.000000, 4.000000, 4.000000, 4.000000, 4.000000, 4.000000, 4.000000, 4.000000, 4.000000, 4.000000, 4.000000, 4.000000, 4.000000
96.000000, 0.000000, 4214.871582, 3934.871582, 4215.897461, 4210.256348, 4205.127930, 4201.025391, 4213.333008, 4238.461426, 4198.461426, 4231.794922, 4249.743652, 4280.000000, 4260.000000, 4235.384277, 3530.000000, 8162.000000, 8142.000000, 0.000000, 0.000000, 0.000000, 25085.000000, 16.923077, 4.000000, 4.000000, 4.000000, 4.000000, 4.000000, 4.000000, 4.000000, 4.000000, 4.000000, 4.000000, 4.000000, 4.000000, 4.000000, 4.000000, 4.000000, 4.000000
97.000000, 0.000000, 4208.205078, 3934.871582, 4213.846191, 4213.333008, 4204.615234, 4202.051270, 4210.256348, 4224.102539, 4199.487305, 4220.512695, 4240.512695, 4271.794922, 4254.358887, 4233.846191, 3458.000000, 8161.000000, 8137.000000, 0.000000, 0.000000, 0.000000, 25085.000000, 25.128204, 4.000000, 4.000000, 4.000000, 4.000000, 4.000000, 4.000000, 4.000000, 4.000000, 4.000000, 4.000000, 4.000000, 4.000000, 4.000000, 4.000000, 4.000000, 4.000000
98.000000, 0.000000, 4202.051270, 3924.615234, 4203.589844, 4204.102539, 4202.563965, 4207.179199, 4212.820313, 4213.333008, 4198.974121, 4203.589844, 4226.666504, 4261.538574, 4241.538574, 4223.589844, 3566.000000, 8161.000000, 8137.000000, 0.000000, 0.000000, 0.000000, 25085.000000, 32.820511, 4.000000, 4.000000, 4.000000, 4.000000, 4.000000, 4.000000, 4.000000, 4.000000, 4.000000, 4.000000, 4.000000, 4.000000, 4.000000, 4.000000, 4.000000, 4.000000
99.000000, 0.000000, 4195.384277, 3915.384521, 4194.871582, 4197.436035, 4204.102539, 4213.333008, 4215.897461, 4213.846191, 4197.436035, 4203.589844, 4221.538574, 4260.512695, 4232.820313, 4211.281738, 3571.000000, 8167.000000, 8135.000000, 0.000000, 0.000000, 0.000000, 25085.000000, 41.025639, 4.000000, 4.000000, 4.000000, 4.000000, 4.000000, 4.000000, 4.000000, 4.000000, 4.000000, 4.000000, 4.000000, 4.000000, 4.000000, 4.000000, 4.000000, 4.000000
100.000000, 0.000000, 4187.179199, 3912.307617, 4196.410156, 4196.410156, 4204.615234, 4216.922852, 4219.487305, 4223.589844, 4200.000000, 4214.358887, 4218.974121, 4257.948730, 4231.281738, 4202.051270, 3530.000000, 8167.000000, 8135.000000, 0.000000, 0.000000, 0.000000, 25085.000000, 48.717949, 4.000000, 4.000000, 4.000000, 4.000000, 4.000000, 4.000000, 4.000000, 4.000000, 4.000000, 4.000000, 4.000000, 4.000000, 4.000000, 4.000000, 4.000000, 4.000000
101.000000, 0.000000, 4182.051270, 3908.717773, 4192.820313, 4190.769043, 4200.512695, 4211.794922, 4216.922852, 4229.230469, 4202.563965, 4218.974121, 4215.897461, 4247.179199, 4231.281738, 4197.436035, 3458.000000, 8174.000000, 8127.000000, 0.000000, 0.000000, 0.000000, 25085.000000, 56.923077, 4.000000, 4.000000, 4.000000, 4.000000, 4.000000, 4.000000, 4.000000, 4.000000, 4.000000, 4.000000, 4.000000, 4.000000, 4.000000, 4.000000, 4.000000, 4.000000
102.000000, 0.000000, 4184.615234, 3907.692139, 4192.307617, 4189.230469, 4198.461426, 4211.281738, 4214.871582, 4230.256348, 4201.538574, 4223.589844, 4223.589844, 4252.820313, 4236.922852, 4202.563965, 3566.000000, 8174.000000, 8127.000000, 0.000000, 0.000000, 0.000000, 25085.000000, 64.615379, 4.000000, 4.000000, 4.000000, 4.000000, 4.000000, 4.000000, 4.000000, 4.000000, 4.000000, 4.000000, 4.000000, 4.000000, 4.000000, 4.000000, 4.000000, 4.000000
103.000000, 0.000000, 4191.794922, 3907.692139, 4197.948730, 4193.333008, 4202.051270, 4217.948730, 4222.051270, 4235.384277, 4201.025391, 4233.846191, 4235.384277, 4270.769043, 4247.179199, 4215.897461, 3571.000000, 8174.000000, 8124.000000, 0.000000, 0.000000, 0.000000, 25085.000000, 72.307693, 4.000000, 4.000000, 4.000000, 4.000000, 4.000000, 4.000000, 4.000000, 4.000000, 4.000000, 4.000000, 4.000000, 4.000000, 4.000000, 4.000000, 4.000000, 4.000000
104.000000, 0.000000, 4198.461426, 3910.256348, 4200.000000, 4193.333008, 4208.205078, 4218.461426, 4217.948730, 4235.384277, 4200.512695, 4233.333008, 4236.410156, 4271.794922, 4249.230469, 4225.641113, 3530.000000, 8174.000000, 8124.000000, 0.000000, 0.000000, 0.000000, 25085.000000, 80.512817, 4.000000, 4.000000, 4.000000, 4.000000, 4.000000, 4.000000, 4.000000, 4.000000, 4.000000, 4.000000, 4.000000, 4.000000, 4.000000, 4.000000, 4.000000, 4.000000
105.000000, 0.000000, 4203.076660, 3911.794678, 4206.153809, 4197.948730, 4213.333008, 4214.358887, 4202.563965, 4223.076660, 4196.922852, 4222.051270, 4230.769043, 4265.127930, 4245.127930, 4226.666504, 3458.000000, 8178.000000, 8118.000000, 0.000000, 0.000000, 0.000000, 25085.000000, 88.205124, 4.000000, 4.000000, 4.000000, 4.000000, 4.000000, 4.000000, 4.000000, 4.000000, 4.000000, 4.000000, 4.000000, 4.000000, 4.000000, 4.000000, 4.000000, 4.000000
106.000000, 0.000000, 4206.153809, 3908.717773, 4211.281738, 4203.076660, 4214.358887, 4217.948730, 4202.051270, 4211.281738, 4195.384277, 4215.384277, 4230.769043, 4265.127930, 4246.153809, 4227.692383, 3566.000000, 8178.000000, 8118.000000, 0.000000, 0.000000, 0.000000, 25085.000000, 95.897430, 4.000000, 4.000000, 4.000000, 4.000000, 4.000000, 4.000000, 4.000000, 4.000000, 4.000000, 4.000000, 4.000000, 4.000000, 4.000000, 4.000000, 4.000000, 4.000000
107.000000, 0.000000, 4207.692383, 3914.358887, 4211.281738, 4202.051270, 4214.871582, 4220.512695, 4207.179199, 4213.333008, 4199.487305, 4212.307617, 4230.769043, 4264.615234, 4241.538574, 4228.717773, 3571.000000, 8180.000000, 8110.000000, 0.000000, 0.000000, 0.000000, 25085.000000, 104.102562, 4.000000, 4.000000, 4.000000, 4.000000, 4.000000, 4.000000, 4.000000, 4.000000, 4.000000, 4.000000, 4.000000, 4.000000, 4.000000, 4.000000, 4.000000, 4.000000
108.000000, 0.000000, 4204.615234, 3919.487061, 4208.717773, 4202.051270, 4215.384277, 4214.871582, 4201.538574, 4214.871582, 4200.000000, 4210.769043, 4227.179199, 4260.512695, 4231.281738, 4220.512695, 3530.000000, 8180.000000, 8110.000000, 0.000000, 0.000000, 0.000000, 25085.000000, 111.794868, 4.000000, 4.000000, 4.000000, 4.000000, 4.000000, 4.000000, 4.000000, 4.000000, 4.000000, 4.000000, 4.000000, 4.000000, 4.000000, 4.000000, 4.000000, 4.000000
109.000000, 0.000000, 4206.666504, 3913.333252, 4205.127930, 4202.563965, 4214.871582, 4213.333008, 4197.436035, 4208.205078, 4197.948730, 4212.307617, 4229.230469, 4263.076660, 4236.922852, 4217.948730, 3458.000000, 8179.000000, 8103.000000, 0.000000, 0.000000, 0.000000, 25085.000000, 120.000000, 4.000000, 4.000000, 4.000000, 4.000000, 4.000000, 4.000000, 4.000000, 4.000000, 4.000000, 4.000000, 4.000000, 4.000000, 4.000000, 4.000000, 4.000000, 4.000000
110.000000, 0.000000, 4214.358887, 3915.384521, 4206.666504, 4201.538574, 4213.333008, 4213.846191, 4198.974121, 4204.615234, 4198.974121, 4215.384277, 4233.846191, 4266.153809, 4246.666504, 4226.666504, 3566.000000, 8179.000000, 8103.000000, 0.000000, 0.000000, 0.000000, 25085.000000, 127.692307, 4.000000, 4.000000, 4.000000, 4.000000, 4.000000, 4.000000, 4.000000, 4.000000, 4.000000, 4.000000, 4.000000, 4.000000, 4.000000, 4.000000, 4.000000, 4.000000
111.000000, 0.000000, 4214.358887, 3921.538330, 4209.230469, 4203.076660, 4211.281738, 4205.641113, 4199.487305, 4204.102539, 4200.512695, 4217.436035, 4233.846191, 4258.974121, 4245.127930, 4226.153809, 3571.000000, 8176.000000, 8099.000000, 0.000000, 0.000000, 0.000000, 25085.000000, 135.384613, 4.000000, 4.000000, 4.000000, 4.000000, 4.000000, 4.000000, 4.000000, 4.000000, 4.000000, 4.000000, 4.000000, 4.000000, 4.000000, 4.000000, 4.000000, 4.000000
112.000000, 0.000000, 4216.922852, 3921.538330, 4211.794922, 4206.666504, 4209.230469, 4198.461426, 4199.487305, 4198.974121, 4198.974121, 4214.358887, 4230.769043, 4256.922852, 4242.563965, 4221.025391, 3530.000000, 8176.000000, 8099.000000, 0.000000, 0.000000, 0.000000, 25085.000000, 143.589737, 4.000000, 4.000000, 4.000000, 4.000000, 4.000000, 4.000000, 4.000000, 4.000000, 4.000000, 4.000000, 4.000000, 4.000000, 4.000000, 4.000000, 4.000000, 4.000000
113.000000, 0.000000, 4217.436035, 3918.461426, 4210.256348, 4206.153809, 4205.127930, 4199.487305, 4197.948730, 4197.948730, 4198.461426, 4205.641113, 4226.666504, 4258.461426, 4240.512695, 4222.051270, 3458.000000, 8179.000000, 8097.000000, 0.000000, 0.000000, 0.000000, 25085.000000, 151.794861, 4.000000, 4.000000, 4.000000, 4.000000, 4.000000, 4.000000, 4.000000, 4.000000, 4.000000, 4.000000, 4.000000, 4.000000, 4.000000, 4.000000, 4.000000, 4.000000
114.000000, 0.000000, 4206.153809, 3913.333252, 4205.127930, 4200.000000, 4200.512695, 4198.461426, 4197.436035, 4203.589844, 4198.461426, 4197.436035, 4219.487305, 4250.769043, 4231.794922, 4218.461426, 3566.000000, 8179.000000, 8097.000000, 0.000000, 0.000000, 0.000000, 25085.000000, 159.487183, 4.000000, 4.000000, 4.000000, 4.000000, 4.000000, 4.000000, 4.000000, 4.000000, 4.000000, 4.000000, 4.000000, 4.000000, 4.000000, 4.000000, 4.000000, 4.000000
115.000000, 0.000000, 4200.512695, 3912.820313, 4203.076660, 4198.461426, 4204.102539, 4198.461426, 4209.230469, 4214.358887, 4197.948730, 4196.410156, 4215.897461, 4250.256348, 4227.692383, 4214.358887, 3571.000000, 8173.000000, 8095.000000, 0.000000, 0.000000, 0.000000, 25085.000000, 167.179489, 4.000000, 4.000000, 4.000000, 4.000000, 4.000000, 4.000000, 4.000000, 4.000000, 4.000000, 4.000000, 4.000000, 4.000000, 4.000000, 4.000000, 4.000000, 4.000000
116.000000, 0.000000, 4205.641113, 3919.487061, 4198.974121, 4203.076660, 4210.769043, 4203.589844, 4218.461426, 4229.743652, 4200.000000, 4201.538574, 4220.000000, 4258.461426, 4233.846191, 4214.358887, 3530.000000, 8173.000000, 8095.000000, 0.000000, 0.000000, 0.000000, 25085.000000, 175.384613, 4.000000, 4.000000, 4.000000, 4.000000, 4.000000, 4.000000, 4.000000, 4.000000, 4.000000, 4.000000, 4.000000, 4.000000, 4.000000, 4.000000, 4.000000, 4.000000
117.000000, 0.000000, 4200.000000, 3919.487061, 4190.256348, 4198.974121, 4206.666504, 4205.127930, 4204.102539, 4229.230469, 4201.538574, 4204.102539, 4220.000000, 4249.230469, 4234.871582, 4207.692383, 3458.000000, 8174.000000, 8091.000000, 0.000000, 0.000000, 0.000000, 25085.000000, 183.076920, 4.000000, 4.000000, 4.000000, 4.000000, 4.000000, 4.000000, 4.000000, 4.000000, 4.000000, 4.000000, 4.000000, 4.000000, 4.000000, 4.000000, 4.000000, 4.000000
118.000000, 0.000000, 4186.666504, 3908.717773, 4182.563965, 4188.205078, 4202.051270, 4203.076660, 4186.666504, 4206.666504, 4195.897461, 4202.051270, 4207.692383, 4231.794922, 4226.153809, 4194.358887, 3566.000000, 8174.000000, 8091.000000, 0.000000, 0.000000, 0.000000, 25085.000000, 191.282043, 4.000000, 4.000000, 4.000000, 4.000000, 4.000000, 4.000000, 4.000000, 4.000000, 4.000000, 4.000000, 4.000000, 4.000000, 4.000000, 4.000000, 4.000000, 4.000000
119.000000, 0.000000, 4179.487305, 3901.538330, 4175.897461, 4184.615234, 4198.974121, 4196.410156, 4180.000000, 4190.769043, 4193.333008, 4198.461426, 4197.948730, 4226.153809, 4215.897461, 4185.127930, 3571.000000, 8172.000000, 8094.000000, 0.000000, 0.000000, 0.000000, 25085.000000, 198.974350, 4.000000, 4.000000, 4.000000, 4.000000, 4.000000, 4.000000, 4.000000, 4.000000, 4.000000, 4.000000, 4.000000, 4.000000, 4.000000, 4.000000, 4.000000, 4.000000
120.000000, 0.000000, 4174.871582, 3897.948730, 4171.794922, 4182.051270, 4190.256348, 4186.666504, 4172.307617, 4186.666504, 4195.897461, 4197.948730, 4200.000000, 4229.230469, 4213.333008, 4183.076660, 3530.000000, 8172.000000, 8094.000000, 0.000000, 0.000000, 0.000000, 25085.000000, 207.179489, 4.000000, 4.000000, 4.000000, 4.000000, 4.000000, 4.000000, 4.000000, 4.000000, 4.000000, 4.000000, 4.000000, 4.000000, 4.000000, 4.000000, 4.000000, 4.000000
121.000000, 0.000000, 4176.922852, 3894.358887, 4175.897461, 4182.051270, 4187.692383, 4185.641113, 4166.153809, 4184.615234, 4193.846191, 4201.025391, 4204.102539, 4237.436035, 4221.025391, 4194.871582, 3458.000000, 8169.000000, 8100.000000, 0.000000, 0.000000, 0.000000, 25085.000000, 214.871796, 4.000000, 4.000000, 4.000000, 4.000000, 4.000000, 4.000000, 4.000000, 4.000000, 4.000000, 4.000000, 4.000000, 4.000000, 4.000000, 4.000000, 4.000000, 4.000000
122.000000, 0.000000, 4184.615234, 3897.948730, 4185.641113, 4184.615234, 4189.230469, 4187.179199, 4165.127930, 4182.051270, 4193.846191, 4197.948730, 4203.076660, 4242.563965, 4218.461426, 4201.025391, 3566.000000, 8169.000000, 8100.000000, 0.000000, 0.000000, 0.000000, 25085.000000, 222.564102, 4.000000, 4.000000, 4.000000, 4.000000, 4.000000, 4.000000, 4.000000, 4.000000, 4.000000, 4.000000, 4.000000, 4.000000, 4.000000, 4.000000, 4.000000, 4.000000
123.000000, 0.000000, 4187.692383, 3896.410156, 4191.281738, 4184.102539, 4185.641113, 4183.076660, 4165.127930, 4183.076660, 4195.897461, 4188.717773, 4195.897461, 4232.820313, 4201.538574, 4189.743652, 3571.000000, 8163.000000, 8101.000000, 0.000000, 0.000000, 0.000000, 25085.000000, 230.769226, 4.000000, 4.000000, 4.000000, 4.000000, 4.000000, 4.000000, 4.000000, 4.000000, 4.000000, 4.000000, 4.000000, 4.000000, 4.000000, 4.000000, 4.000000, 4.000000
124.000000, 0.000000, 4181.025391, 3887.179443, 4188.205078, 4181.538574, 4183.589844, 4183.076660, 4174.358887, 4187.179199, 4193.333008, 4178.461426, 4187.179199, 4221.538574, 4195.384277, 4178.461426, 3530.000000, 8163.000000, 8101.000000, 0.000000, 0.000000, 0.000000, 25085.000000, 238.974350, 4.000000, 4.000000, 4.000000, 4.000000, 4.000000, 4.000000, 4.000000, 4.000000, 4.000000, 4.000000, 4.000000, 4.000000, 4.000000, 4.000000, 4.000000, 4.000000
125.000000, 0.000000, 4174.871582, 3881.025635, 4182.563965, 4180.512695, 4184.615234, 4188.717773, 4189.230469, 4186.153809, 4192.820313, 4171.281738, 4181.538574, 4221.538574, 4197.436035, 4177.436035, 3458.000000, 8162.000000, 8112.000000, 0.000000, 0.000000, 0.000000, 25085.000000, 246.666656, 4.000000, 4.000000, 4.000000, 4.000000, 4.000000, 4.000000, 4.000000, 4.000000, 4.000000, 4.000000, 4.000000, 4.000000, 4.000000, 4.000000, 4.000000, 4.000000
126.000000, 0.000000, 4177.948730, 3876.923096, 4182.563965, 4178.974121, 4184.615234, 4189.230469, 4192.820313, 4182.563965, 4198.974121, 4174.871582, 4187.179199, 4227.179199, 4198.974121, 4181.538574, 3566.000000, 8162.000000, 8112.000000, 0.000000, 0.000000, 0.000000, 25085.000000, 254.358963, 4.000000, 4.000000, 4.000000, 4.000000, 4.000000, 4.000000, 4.000000, 4.000000, 4.000000, 4.000000, 4.000000, 4.000000, 4.000000, 4.000000, 4.000000, 4.000000
127.000000, 0.000000, 4183.076660, 3877.435791, 4182.563965, 4178.461426, 4183.589844, 4186.666504, 4188.717773, 4192.820313, 4202.563965, 4188.717773, 4197.436035, 4230.769043, 4206.666504, 4185.127930, 57.000000, 8159.000000, 8114.000000, 0.000000, 0.000000, 0.000000, 25085.000000, 262.564087, 4.000000, 4.000000, 4.000000, 4.000000, 4.000000, 4.000000, 4.000000, 4.000000, 4.000000, 4.000000, 4.000000, 4.000000, 4.000000, 4.000000, 4.000000, 4.000000
0.000000, 0.000000, 4183.076660, 3880.000000, 4180.000000, 4181.025391, 4183.076660, 4185.641113, 4186.666504, 4202.051270, 4200.000000, 4198.974121, 4203.589844, 4236.410156, 4216.922852, 4192.820313, 3032.000000, 8159.000000, 8114.000000, 0.000000, 0.000000, 0.000000, 25085.000000, 270.256409, 4.000000, 4.000000, 4.000000, 4.000000, 4.000000, 4.000000, 4.000000, 4.000000, 4.000000, 4.000000, 4.000000, 4.000000, 4.000000, 4.000000, 4.000000, 4.000000
1.000000, 0.000000, 4183.589844, 3879.487061, 4183.589844, 4183.589844, 4182.563965, 4185.127930, 4185.641113, 4198.461426, 4198.461426, 4199.487305, 4209.743652, 4244.102539, 4216.922852, 4200.512695, 3514.000000, 8159.000000, 8125.000000, 0.000000, 0.000000, 0.000000, 25085.000000, 278.461517, 4.000000, 4.000000, 4.000000, 4.000000, 4.000000, 4.000000, 4.000000, 4.000000, 4.000000, 4.000000, 4.000000, 4.000000, 4.000000, 4.000000, 4.000000, 4.000000
2.000000, 0.000000, 4191.281738, 3881.538330, 4192.820313, 4188.717773, 4183.589844, 4185.641113, 4184.102539, 4205.127930, 4200.000000, 4201.025391, 4215.384277, 4252.307617, 4216.410156, 4201.538574, 3514.000000, 8159.000000, 8125.000000, 0.000000, 0.000000, 0.000000, 25085.000000, 286.153839, 4.000000, 4.000000, 4.000000, 4.000000, 4.000000, 4.000000, 4.000000, 4.000000, 4.000000, 4.000000, 4.000000, 4.000000, 4.000000, 4.000000, 4.000000, 4.000000
3.000000, 0.000000, 4191.794922, 3880.000000, 4190.256348, 4191.794922, 4184.102539, 4184.615234, 4182.563965, 4215.897461, 4201.025391, 4200.000000, 4213.333008, 4246.153809, 4218.461426, 4200.000000, 2215.000000, 8163.000000, 8134.000000, 0.000000, 0.000000, 0.000000, 25085.000000, 294.358978, 4.000000, 4.000000, 4.000000, 4.000000, 4.000000, 4.000000, 4.000000, 4.000000, 4.000000, 4.000000, 4.000000, 4.000000, 4.000000, 4.000000, 4.000000, 4.000000
4.000000, 0.000000, 4184.102539, 3871.281982, 4184.615234, 4186.666504, 4184.102539, 4184.615234, 4190.256348, 4204.102539, 4198.974121, 4190.769043, 4202.563965, 4234.358887, 4214.358887, 4198.974121, 3514.000000, 8163.000000, 8134.000000, 0.000000, 0.000000, 0.000000, 25085.000000, 302.051270, 4.000000, 4.000000, 4.000000, 4.000000, 4.000000, 4.000000, 4.000000, 4.000000, 4.000000, 4.000000, 4.000000, 4.000000, 4.000000, 4.000000, 4.000000, 4.000000
5.000000, 0.000000, 4184.102539, 3869.230713, 4186.153809, 4183.589844, 4184.615234, 4186.666504, 4197.948730, 4196.922852, 4198.974121, 4186.666504, 4201.025391, 4237.948730, 4212.820313, 4200.000000, 3557.000000, 8162.000000, 8135.000000, 0.000000, 0.000000, 0.000000, 25085.000000, 310.256409, 4.000000, 4.000000, 4.000000, 4.000000, 4.000000, 4.000000, 4.000000, 4.000000, 4.000000, 4.000000, 4.000000, 4.000000, 4.000000, 4.000000, 4.000000, 4.000000
6.000000, 0.000000, 4187.179199, 3870.769043, 4185.127930, 4186.666504, 4186.153809, 4188.205078, 4189.230469, 4205.127930, 4200.512695, 4191.281738, 4210.769043, 4246.153809, 4216.410156, 4200.512695, 3419.000000, 8162.000000, 8135.000000, 0.000000, 0.000000, 0.000000, 25085.000000, 317.948700, 4.000000, 4.000000, 4.000000, 4.000000, 4.000000, 4.000000, 4.000000, 4.000000, 4.000000, 4.000000, 4.000000, 4.000000, 4.000000, 4.000000, 4.000000, 4.000000
7.000000, 0.000000, 4182.563965, 3866.153809, 4185.127930, 4184.102539, 4190.256348, 4192.820313, 4179.487305, 4191.281738, 4197.436035, 4189.230469, 4206.666504, 4238.461426, 4208.205078, 4190.769043, 3481.000000, 8167.000000, 8134.000000, 0.000000, 0.000000, 0.000000, 25085.000000, 326.153839, 4.000000, 4.000000, 4.000000, 4.000000, 4.000000, 4.000000, 4.000000, 4.000000, 4.000000, 4.000000, 4.000000, 4.000000, 4.000000, 4.000000, 4.000000, 4.000000
8.000000, 0.000000, 4178.461426, 3862.563965, 4187.179199, 4182.051270, 4194.871582, 4200.512695, 4187.692383, 4180.000000, 4197.948730, 4183.076660, 4195.384277, 4227.179199, 4194.871582, 4182.563965, 825.000000, 8167.000000, 8134.000000, 0.000000, 0.000000, 0.000000, 25085.000000, 333.846161, 4.000000, 4.000000, 4.000000, 4.000000, 4.000000, 4.000000, 4.000000, 4.000000, 4.000000, 4.000000, 4.000000, 4.000000, 4.000000, 4.000000, 4.000000, 4.000000
9.000000, 0.000000, 4185.127930, 3865.640869, 4189.743652, 4190.769043, 4199.487305, 4206.666504, 4203.076660, 4202.051270, 4201.025391, 4194.358887, 4204.102539, 4238.974121, 4203.589844, 4192.820313, 2948.000000, 8171.000000, 8136.000000, 0.000000, 0.000000, 0.000000, 25085.000000, 342.051270, 4.000000, 4.000000, 4.000000, 4.000000, 4.000000, 4.000000, 4.000000, 4.000000, 4.000000, 4.000000, 4.000000, 4.000000, 4.000000, 4.000000, 4.000000, 4.000000
10.000000, 0.000000, 4190.256348, 3872.307617, 4193.846191, 4194.358887, 4197.948730, 4202.051270, 4207.692383, 4219.487305, 4201.538574, 4211.794922, 4219.487305, 4250.769043, 4220.512695, 4202.563965, 3566.000000, 8171.000000, 8136.000000, 0.000000, 0.000000, 0.000000, 25085.000000, 349.743591, 4.000000, 4.000000, 4.000000, 4.000000, 4.000000, 4.000000, 4.000000, 4.000000, 4.000000, 4.000000, 4.000000, 4.000000, 4.000000, 4.000000, 4.000000, 4.000000
11.000000, 0.000000, 4188.205078, 3876.410156, 4192.820313, 4188.717773, 4189.230469, 4187.179199, 4198.974121, 4215.384277, 4201.025391, 4211.281738, 4218.974121, 4248.205078, 4220.512695, 4199.487305, 3571.000000, 8174.000000, 8130.000000, 0.000000, 0.000000, 0.000000, 25085.000000, 357.435883, 4.000000, 4.000000, 4.000000, 4.000000, 4.000000, 4.000000, 4.000000, 4.000000, 4.000000, 4.000000, 4.000000, 4.000000, 4.000000, 4.000000, 4.000000, 4.000000
12.000000, 0.000000, 4185.641113, 3879.487061, 4188.717773, 4185.127930, 4183.589844, 4177.948730, 4187.692383, 4214.871582, 4200.512695, 4202.563965, 4215.384277, 4246.153809, 4213.846191, 4198.461426, 3517.000000, 8174.000000, 8130.000000, 0.000000, 0.000000, 0.000000, 25085.000000, 365.641022, 4.000000, 4.000000, 4.000000, 4.000000, 4.000000, 4.000000, 4.000000, 4.000000, 4.000000, 4.000000, 4.000000, 4.000000, 4.000000, 4.000000, 4.000000, 4.000000
13.000000, 0.000000, 4185.641113, 3880.512695, 4189.230469, 4185.641113, 4181.538574, 4182.051270, 4191.281738, 4205.641113, 4198.461426, 4198.974121, 4216.922852, 4248.205078, 4215.384277, 4202.051270, 3455.000000, 8176.000000, 8132.000000, 0.000000, 0.000000, 0.000000, 25085.000000, 373.333313, 4.000000, 4.000000, 4.000000, 4.000000, 4.000000, 4.000000, 4.000000, 4.000000, 4.000000, 4.000000, 4.000000, 4.000000, 4.000000, 4.000000, 4.000000, 4.000000
14.000000, 0.000000, 4188.717773, 3883.076904, 4191.281738, 4187.179199, 4182.563965, 4187.179199, 4200.000000, 4189.230469, 4196.410156, 4197.948730, 4215.897461, 4248.205078, 4218.461426, 4203.076660, 3566.000000, 8176.000000, 8132.000000, 0.000000, 0.000000, 0.000000, 25085.000000, 381.538452, 4.000000, 4.000000, 4.000000, 4.000000, 4.000000, 4.000000, 4.000000, 4.000000, 4.000000, 4.000000, 4.000000, 4.000000, 4.000000, 4.000000, 4.000000, 4.000000
15.000000, 0.000000, 4184.102539, 3892.307617, 4188.717773, 4183.589844, 4181.538574, 4191.794922, 4198.461426, 4197.436035, 4198.974121, 4197.436035, 4212.307617, 4243.076660, 4210.769043, 4194.871582, 3571.000000, 8174.000000, 8118.000000, 0.000000, 0.000000, 0.000000, 25085.000000, 389.230774, 4.000000, 4.000000, 4.000000, 4.000000, 4.000000, 4.000000, 4.000000, 4.000000, 4.000000, 4.000000, 4.000000, 4.000000, 4.000000, 4.000000, 4.000000, 4.000000
16.000000, 0.000000, 4171.794922, 3900.000000, 4176.922852, 4172.307617, 4176.922852, 4197.436035, 4193.846191, 4203.076660, 4199.487305, 4199.487305, 4202.051270, 4231.281738, 4197.948730, 4182.051270, 0.000000, 8174.000000, 8118.000000, 0.000000, 0.000000, 0.000000, 25085.000000, 396.923065, 4.000000, 4.000000, 4.000000, 4.000000, 4.000000, 4.000000, 4.000000, 4.000000, 4.000000, 4.000000, 4.000000, 4.000000, 4.000000, 4.000000, 4.000000, 4.000000
17.000000, 0.000000, 4166.666504, 3908.205078, 4169.230469, 4166.153809, 4171.794922, 4190.769043, 4188.717773, 4183.076660, 4197.948730, 4198.974121, 4190.256348, 4217.948730, 4193.846191, 4179.487305, 0.000000, 8177.000000, 8102.000000, 0.000000, 0.000000, 0.000000, 25085.000000, 405.128204, 4.000000, 4.000000, 4.000000, 4.000000, 4.000000, 4.000000, 4.000000, 4.000000, 4.000000, 4.000000, 4.000000, 4.000000, 4.000000, 4.000000, 4.000000, 4.000000
18.000000, 0.000000, 4169.743652, 3916.410156, 4166.153809, 4169.230469, 4169.230469, 4181.538574, 4185.127930, 4176.410156, 4198.461426, 4191.794922, 4185.127930, 4213.846191, 4188.717773, 4180.000000, 0.000000, 8177.000000, 8102.000000, 0.000000, 0.000000, 0.000000, 25085.000000, 412.820496, 4.000000, 4.000000, 4.000000, 4.000000, 4.000000, 4.000000, 4.000000, 4.000000, 4.000000, 4.000000, 4.000000, 4.000000, 4.000000, 4.000000, 4.000000, 4.000000
19.000000, 0.000000, 4165.127930, 3921.025635, 4159.487305, 4167.692383, 4168.205078, 4181.025391, 4187.692383, 4190.256348, 4195.897461, 4186.153809, 4181.025391, 4215.897461, 4177.948730, 4172.307617, 0.000000, 8175.000000, 8105.000000, 0.000000, 0.000000, 0.000000, 25085.000000, 421.025635, 4.000000, 4.000000, 4.000000, 4.000000, 4.000000, 4.000000, 4.000000, 4.000000, 4.000000, 4.000000, 4.000000, 4.000000, 4.000000, 4.000000, 4.000000, 4.000000
20.000000, 0.000000, 4167.692383, 3933.333252, 4162.051270, 4166.666504, 4168.717773, 4175.897461, 4182.051270, 4186.153809, 4193.333008, 4191.794922, 4187.692383, 4223.076660, 4189.230469, 4175.384277, 0.000000, 8175.000000, 8105.000000, 0.000000, 0.000000, 0.000000, 25085.000000, 428.717926, 4.000000, 4.000000, 4.000000, 4.000000, 4.000000, 4.000000, 4.000000, 4.000000, 4.000000, 4.000000, 4.000000, 4.000000, 4.000000, 4.000000, 4.000000, 4.000000
21.000000, 0.000000, 4189.230469, 3952.820313, 4177.948730, 4177.436035, 4167.692383, 4161.538574, 4166.666504, 4174.871582, 4194.871582, 4201.025391, 4204.615234, 4237.948730, 4217.948730, 4198.974121, 0.000000, 8165.000000, 8090.000000, 0.000000, 0.000000, 0.000000, 25085.000000, 436.923065, 4.000000, 4.000000, 4.000000, 4.000000, 4.000000, 4.000000, 4.000000, 4.000000, 4.000000, 4.000000, 4.000000, 4.000000, 4.000000, 4.000000, 4.000000, 4.000000
22.000000, 0.000000, 4213.333008, 3972.820313, 4196.922852, 4187.179199, 4165.127930, 4161.025391, 4166.153809, 4190.256348, 4201.538574, 4203.589844, 4216.410156, 4249.230469, 4234.871582, 4223.589844, 0.000000, 8165.000000, 8090.000000, 0.000000, 0.000000, 0.000000, 25085.000000, 444.615387, 4.000000, 4.000000, 4.000000, 4.000000, 4.000000, 4.000000, 4.000000, 4.000000, 4.000000, 4.000000, 4.000000, 4.000000, 4.000000, 4.000000, 4.000000, 4.000000
23.000000, 0.000000, 4229.743652, 3992.820313, 4206.153809, 4193.846191, 4167.179199, 4167.179199, 4175.384277, 4206.153809, 4200.512695, 4204.615234, 4226.666504, 4253.846191, 4246.153809, 4242.051270, 0.000000, 8159.000000, 8084.000000, 0.000000, 0.000000, 0.000000, 25085.000000, 452.820496, 4.000000, 4.000000, 4.000000, 4.000000, 4.000000, 4.000000, 4.000000, 4.000000, 4.000000, 4.000000, 4.000000, 4.000000, 4.000000, 4.000000, 4.000000, 4.000000
24.000000, 0.000000, 4235.384277, 4006.666504, 4201.025391, 4192.820313, 4163.589844, 4161.025391, 4171.281738, 4188.205078, 4191.281738, 4203.076660, 4229.743652, 4251.794922, 4260.000000, 4251.281738, 0.000000, 8159.000000, 8084.000000, 0.000000, 0.000000, 0.000000, 25085.000000, 460.512817, 4.000000, 4.000000, 4.000000, 4.000000, 4.000000, 4.000000, 4.000000, 4.000000, 4.000000, 4.000000, 4.000000, 4.000000, 4.000000, 4.000000, 4.000000, 4.000000
25.000000, 0.000000, 4230.256348, 4009.743408, 4193.846191, 4181.025391, 4152.307617, 4157.436035, 4168.717773, 4170.769043, 4191.281738, 4196.410156, 4220.512695, 4245.641113, 4265.641113, 4250.769043, 0.000000, 8150.000000, 8078.000000, 0.000000, 0.000000, 0.000000, 25085.000000, 468.205109, 4.000000, 4.000000, 4.000000, 4.000000, 4.000000, 4.000000, 4.000000, 4.000000, 4.000000, 4.000000, 4.000000, 4.000000, 4.000000, 4.000000, 4.000000, 4.000000
26.000000, 0.000000, 4230.256348, 4011.794678, 4194.871582, 4176.922852, 4154.871582, 4168.205078, 4179.487305, 4191.281738, 4198.974121, 4194.871582, 4223.076660, 4250.256348, 4263.076660, 4258.974121, 0.000000, 8150.000000, 8078.000000, 0.000000, 0.000000, 0.000000, 25085.000000, 475.897430, 4.000000, 4.000000, 4.000000, 4.000000, 4.000000, 4.000000, 4.000000, 4.000000, 4.000000, 4.000000, 4.000000, 4.000000, 4.000000, 4.000000, 4.000000, 4.000000
27.000000, 0.000000, 4236.922852, 4024.615234, 4197.436035, 4183.076660, 4168.717773, 4183.589844, 4190.256348, 4207.692383, 4200.512695, 4200.000000, 4237.948730, 4263.589844, 4264.102539, 4276.922852, 0.000000, 8146.000000, 8077.000000, 0.000000, 0.000000, 0.000000, 25085.000000, 484.102539, 4.000000, 4.000000, 4.000000, 4.000000, 4.000000, 4.000000, 4.000000, 4.000000, 4.000000, 4.000000, 4.000000, 4.000000, 4.000000, 4.000000, 4.000000, 4.000000
28.000000, 0.000000, 4233.846191, 4037.435791, 4193.846191, 4177.948730, 4170.256348, 4184.102539, 4186.666504, 4183.076660, 4196.410156, 4197.948730, 4235.384277, 4265.641113, 4267.692383, 4277.948730, 0.000000, 8146.000000, 8077.000000, 0.000000, 0.000000, 0.000000, 25085.000000, 491.794861, 4.000000, 4.000000, 4.000000, 4.000000, 4.000000, 4.000000, 4.000000, 4.000000, 4.000000, 4.000000, 4.000000, 4.000000, 4.000000, 4.000000, 4.000000, 4.000000
29.000000, 0.000000, 4226.666504, 4038.974365, 4193.333008, 4167.692383, 4160.512695, 4172.307617, 4174.871582, 4166.153809, 4197.436035, 4196.410156, 4230.256348, 4261.538574, 4267.692383, 4269.230469, 0.000000, 8141.000000, 8078.000000, 0.000000, 0.000000, 0.000000, 25085.000000, 500.000000, 4.000000, 4.000000, 4.000000, 4.000000, 4.000000, 4.000000, 4.000000, 4.000000, 4.000000, 4.000000, 4.000000, 4.000000, 4.000000, 4.000000, 4.000000, 4.000000
30.000000, 0.000000, 4229.230469, 4045.640869, 4199.487305, 4174.871582, 4162.563965, 4167.179199, 4172.307617, 4181.538574, 4199.487305, 4203.589844, 4241.538574, 4263.589844, 4267.179199, 4273.333008, 0.000000, 8141.000000, 8078.000000, 0.000000, 0.000000, 0.000000, 25085.000000, 507.692291, 4.000000, 4.000000, 4.000000, 4.000000, 4.000000, 4.000000, 4.000000, 4.000000, 4.000000, 4.000000, 4.000000, 4.000000, 4.000000, 4.000000, 4.000000, 4.000000
31.000000, 0.000000, 4233.846191, 4058.974365, 4203.076660, 4183.076660, 4166.153809, 4170.256348, 4177.436035, 4189.743652, 4199.487305, 4207.692383, 4246.153809, 4267.692383, 4270.769043, 4277.948730, 0.000000, 8134.000000, 8079.000000, 0.000000, 0.000000, 0.000000, 25085.000000, 515.384583, 4.000000, 4.000000, 4.000000, 4.000000, 4.000000, 4.000000, 4.000000, 4.000000, 4.000000, 4.000000, 4.000000, 4.000000, 4.000000, 4.000000, 4.000000, 4.000000
32.000000, 0.000000, 4233.333008, 4071.794678, 4201.538574, 4176.922852, 4162.563965, 4172.820313, 4180.000000, 4172.820313, 4195.897461, 4204.102539, 4237.436035, 4263.076660, 4269.743652, 4269.743652, 0.000000, 8134.000000, 8079.000000, 0.000000, 0.000000, 0.000000, 25085.000000, 523.589722, 4.000000, 4.000000, 4.000000, 4.000000, 4.000000, 4.000000, 4.000000, 4.000000, 4.000000, 4.000000, 4.000000, 4.000000, 4.000000, 4.000000, 4.000000, 4.000000
33.000000, 0.000000, 4222.051270, 4084.102539, 4192.820313, 4170.256348, 4164.102539, 4172.820313, 4179.487305, 4164.102539, 4191.794922, 4201.538574, 4228.205078, 4251.794922, 4253.846191, 4253.333008, 0.000000, 8134.000000, 8079.000000, 0.000000, 0.000000, 0.000000, 25085.000000, 531.794861, 4.000000, 4.000000, 4.000000, 4.000000, 4.000000, 4.000000, 4.000000, 4.000000, 4.000000, 4.000000, 4.000000, 4.000000, 4.000000, 4.000000, 4.000000, 4.000000
34.000000, 0.000000, 4206.666504, 4091.281982, 4182.051270, 4169.743652, 4170.256348, 4176.922852, 4183.076660, 4174.358887, 4196.410156, 4198.461426, 4218.461426, 4244.615234, 4235.897461, 4234.358887, 0.000000, 8134.000000, 8079.000000, 0.000000, 0.000000, 0.000000, 25085.000000, 539.487183, 4.000000, 4.000000, 4.000000, 4.000000, 4.000000, 4.000000, 4.000000, 4.000000, 4.000000, 4.000000, 4.000000, 4.000000, 4.000000, 4.000000, 4.000000, 4.000000
35.000000, 0.000000, 4197.436035, 4093.845947, 4185.641113, 4169.230469, 4169.743652, 4181.538574, 4185.641113, 4173.333008, 4198.974121, 4191.281738, 4205.127930, 4245.127930, 4224.615234, 4216.922852, 0.000000, 8133.000000, 8078.000000, 0.000000, 0.000000, 0.000000, 25085.000000, 547.179443, 4.000000, 4.000000, 4.000000, 4.000000, 4.000000, 4.000000, 4.000000, 4.000000, 4.000000, 4.000000, 4.000000, 4.000000, 4.000000, 4.000000, 4.000000, 4.000000
36.000000, 0.000000, 4193.846191, 4097.436035, 4190.769043, 4166.666504, 4167.692383, 4176.922852, 4180.000000, 4162.563965, 4197.436035, 4187.179199, 4198.461426, 4245.127930, 4218.461426, 4214.358887, 0.000000, 8133.000000, 8078.000000, 0.000000, 0.000000, 0.000000, 25085.000000, 554.871765, 4.000000, 4.000000, 4.000000, 4.000000, 4.000000, 4.000000, 4.000000, 4.000000, 4.000000, 4.000000, 4.000000, 4.000000, 4.000000, 4.000000, 4.000000, 4.000000
37.000000, 0.000000, 4188.205078, 4108.205078, 4190.256348, 4167.692383, 4168.205078, 4171.281738, 4180.512695, 4174.358887, 4198.974121, 4185.641113, 4202.051270, 4246.666504, 4215.384277, 4215.897461, 0.000000, 8128.000000, 8078.000000, 0.000000, 0.000000, 0.000000, 25085.000000, 563.076904, 4.000000, 4.000000, 4.000000, 4.000000, 4.000000, 4.000000, 4.000000, 4.000000, 4.000000, 4.000000, 4.000000, 4.000000, 4.000000, 4.000000, 4.000000, 4.000000
38.000000, 0.000000, 4185.641113, 4121.025391, 4193.846191, 4169.230469, 4166.153809, 4175.897461, 4185.641113, 4198.461426, 4201.538574, 4184.102539, 4203.589844, 4247.179199, 4212.820313, 4206.153809, 0.000000, 8128.000000, 8078.000000, 0.000000, 0.000000, 0.000000, 25085.000000, 570.769226, 4.000000, 4.000000, 4.000000, 4.000000, 4.000000, 4.000000, 4.000000, 4.000000, 4.000000, 4.000000, 4.000000, 4.000000, 4.000000, 4.000000, 4.000000, 4.000000
39.000000, 0.000000, 4184.102539, 4128.717773, 4192.820313, 4168.205078, 4167.692383, 4182.563965, 4187.179199, 4205.127930, 4200.512695, 4185.127930, 4197.436035, 4237.948730, 4208.205078, 4195.897461, 0.000000, 8127.000000, 8070.000000, 0.000000, 0.000000, 0.000000, 25085.000000, 578.974365, 4.000000, 4.000000, 4.000000, 4.000000, 4.000000, 4.000000, 4.000000, 4.000000, 4.000000, 4.000000, 4.000000, 4.000000, 4.000000, 4.000000, 4.000000, 4.000000
40.000000, 0.000000, 4176.922852, 4136.410156, 4186.153809, 4168.205078, 4168.717773, 4178.461426, 4186.666504, 4200.512695, 4199.487305, 4186.153809, 4191.281738, 4229.743652, 4197.436035, 4188.717773, 0.000000, 8127.000000, 8070.000000, 0.000000, 0.000000, 0.000000, 25085.000000, 586.666626, 4.000000, 4.000000, 4.000000, 4.000000, 4.000000, 4.000000, 4.000000, 4.000000, 4.000000, 4.000000, 4.000000, 4.000000, 4.000000, 4.000000, 4.000000, 4.000000
41.000000, 0.000000, 4168.205078, 4142.563965, 4178.461426, 4165.127930, 4161.025391, 4173.333008, 4188.205078, 4198.461426, 4198.461426, 4181.025391, 4187.179199, 4227.692383, 4186.153809, 4178.461426, 0.000000, 8126.000000, 8067.000000, 0.000000, 0.000000, 0.000000, 25085.000000, 594.871765, 4.000000, 4.000000, 4.000000, 4.000000, 4.000000, 4.000000, 4.000000, 4.000000, 4.000000, 4.000000, 4.000000, 4.000000, 4.000000, 4.000000, 4.000000, 4.000000
42.000000, 0.000000, 4164.102539, 4153.333008, 4173.846191, 4158.974121, 4156.922852, 4170.769043, 4186.666504, 4191.281738, 4198.461426, 4177.436035, 4185.127930, 4226.666504, 4185.127930, 4168.717773, 0.000000, 8126.000000, 8067.000000, 0.000000, 0.000000, 0.000000, 25085.000000, 602.564087, 4.000000, 4.000000, 4.000000, 4.000000, 4.000000, 4.000000, 4.000000, 4.000000, 4.000000, 4.000000, 4.000000, 4.000000, 4.000000, 4.000000, 4.000000, 4.000000
43.000000, 0.000000, 4168.717773, 4168.205078, 4176.922852, 4156.922852, 4163.589844, 4168.205078, 4183.589844, 4178.461426, 4198.974121, 4182.563965, 4191.794922, 4230.769043, 4193.846191, 4172.820313, 0.000000, 8127.000000, 8063.000000, 0.000000, 0.000000, 0.000000, 25085.000000, 610.769226, 4.000000, 4.000000, 4.000000, 4.000000, 4.000000, 4.000000, 4.000000, 4.000000, 4.000000, 4.000000, 4.000000, 4.000000, 4.000000, 4.000000, 4.000000, 4.000000
44.000000, 0.000000, 4171.794922, 4180.512695, 4181.538574, 4163.076660, 4168.717773, 4174.358887, 4187.692383, 4173.846191, 4197.436035, 4191.794922, 4201.538574, 4238.461426, 4200.512695, 4183.076660, 0.000000, 8127.000000, 8063.000000, 0.000000, 0.000000, 0.000000, 25085.000000, 618.461548, 4.000000, 4.000000, 4.000000, 4.000000, 4.000000, 4.000000, 4.000000, 4.000000, 4.000000, 4.000000, 4.000000, 4.000000, 4.000000, 4.000000, 4.000000, 4.000000
45.000000, 0.000000, 4169.743652, 4194.871582, 4184.102539, 4168.717773, 4166.153809, 4182.563965, 4190.769043, 4181.025391, 4199.487305, 4195.384277, 4203.589844, 4243.076660, 4206.153809, 4187.179199, 0.000000, 8129.000000, 8063.000000, 0.000000, 0.000000, 0.000000, 25085.000000, 626.153809, 4.000000, 4.000000, 4.000000, 4.000000, 4.000000, 4.000000, 4.000000, 4.000000, 4.000000, 4.000000, 4.000000, 4.000000, 4.000000, 4.000000, 4.000000, 4.000000
46.000000, 0.000000, 4177.436035, 4213.333008, 4188.205078, 4171.281738, 4168.717773, 4185.127930, 4189.743652, 4186.153809, 4197.948730, 4192.307617, 4203.589844, 4248.205078, 4213.333008, 4187.179199, 0.000000, 8129.000000, 8063.000000, 0.000000, 0.000000, 0.000000, 25085.000000, 633.846130, 4.000000, 4.000000, 4.000000, 4.000000, 4.000000, 4.000000, 4.000000, 4.000000, 4.000000, 4.000000, 4.000000, 4.000000, 4.000000, 4.000000, 4.000000, 4.000000
47.000000, 0.000000, 4187.179199, 4231.794922, 4192.307617, 4170.769043, 4168.205078, 4183.076660, 4191.281738, 4186.666504, 4191.794922, 4188.717773, 4202.563965, 4249.743652, 4209.230469, 4189.230469, 0.000000, 8132.000000, 8066.000000, 0.000000, 0.000000, 0.000000, 25085.000000, 642.051270, 4.000000, 4.000000, 4.000000, 4.000000, 4.000000, 4.000000, 4.000000, 4.000000, 4.000000, 4.000000, 4.000000, 4.000000, 4.000000, 4.000000, 4.000000, 4.000000
48.000000, 0.000000, 4177.948730, 4237.436035, 4189.230469, 4168.717773, 4157.948730, 4176.922852, 4191.794922, 4188.717773, 4190.256348, 4181.538574, 4193.333008, 4240.512695, 4200.000000, 4190.256348, 0.000000, 8132.000000, 8066.000000, 0.000000, 0.000000, 0.000000, 25085.000000, 649.743591, 4.000000, 4.000000, 4.000000, 4.000000, 4.000000, 4.000000, 4.000000, 4.000000, 4.000000, 4.000000, 4.000000, 4.000000, 4.000000, 4.000000, 4.000000, 4.000000
49.000000, 0.000000, 4165.127930, 4236.410156, 4182.563965, 4166.153809, 4152.307617, 4170.256348, 4186.666504, 4182.051270, 4191.281738, 4173.333008, 4186.153809, 4232.820313, 4198.974121, 4181.025391, 0.000000, 8129.000000, 8077.000000, 0.000000, 0.000000, 0.000000, 25085.000000, 657.435852, 4.000000, 4.000000, 4.000000, 4.000000, 4.000000, 4.000000, 4.000000, 4.000000, 4.000000, 4.000000, 4.000000, 4.000000, 4.000000, 4.000000, 4.000000, 4.000000
50.000000, 0.000000, 4168.205078, 4249.743652, 4180.000000, 4157.436035, 4154.871582, 4168.205078, 4181.538574, 4167.692383, 4192.820313, 4172.820313, 4188.205078, 4230.256348, 4197.436035, 4170.256348, 0.000000, 8129.000000, 8077.000000, 0.000000, 0.000000, 0.000000, 25085.000000, 665.640991, 4.000000, 4.000000, 4.000000, 4.000000, 4.000000, 4.000000, 4.000000, 4.000000, 4.000000, 4.000000, 4.000000, 4.000000, 4.000000, 4.000000, 4.000000, 4.000000
51.000000, 0.000000, 4166.153809, 4267.692383, 4176.410156, 4154.871582, 4154.871582, 4175.897461, 4183.076660, 4171.794922, 4198.461426, 4181.025391, 4186.666504, 4224.102539, 4189.743652, 4167.692383, 0.000000, 8131.000000, 8078.000000, 0.000000, 0.000000, 0.000000, 25085.000000, 673.333313, 4.000000, 4.000000, 4.000000, 4.000000, 4.000000, 4.000000, 4.000000, 4.000000, 4.000000, 4.000000, 4.000000, 4.000000, 4.000000, 4.000000, 4.000000, 4.000000
52.000000, 0.000000, 4153.846191, 4276.410156, 4170.769043, 4157.948730, 4157.948730, 4185.127930, 4188.205078, 4188.205078, 4202.563965, 4185.127930, 4182.563965, 4215.384277, 4187.692383, 4167.179199, 0.000000, 8131.000000, 8078.000000, 0.000000, 0.000000, 0.000000, 25085.000000, 681.025635, 4.000000, 4.000000, 4.000000, 4.000000, 4.000000, 4.000000, 4.000000, 4.000000, 4.000000, 4.000000, 4.000000, 4.000000, 4.000000, 4.000000, 4.000000, 4.000000
53.000000, 0.000000, 4152.820313, 4287.692383, 4171.281738, 4155.897461, 4166.153809, 4186.153809, 4187.179199, 4186.666504, 4200.000000, 4186.153809, 4184.615234, 4215.897461, 4191.794922, 4165.127930, 0.000000, 8131.000000, 8088.000000, 0.000000, 0.000000, 0.000000, 25085.000000, 689.230774, 4.000000, 4.000000, 4.000000, 4.000000, 4.000000, 4.000000, 4.000000, 4.000000, 4.000000, 4.000000, 4.000000, 4.000000, 4.000000, 4.000000, 4.000000, 4.000000
54.000000, 0.000000, 4160.000000, 4302.563965, 4174.871582, 4154.871582, 4167.692383, 4185.127930, 4186.153809, 4183.076660, 4200.000000, 4194.358887, 4189.230469, 4224.615234, 4196.410156, 4166.666504, 0.000000, 8131.000000, 8088.000000, 0.000000, 0.000000, 0.000000, 25085.000000, 696.923035, 4.000000, 4.000000, 4.000000, 4.000000, 4.000000, 4.000000, 4.000000, 4.000000, 4.000000, 4.000000, 4.000000, 4.000000, 4.000000, 4.000000, 4.000000, 4.000000
55.000000, 0.000000, 4166.666504, 4316.410156, 4178.461426, 4166.153809, 4166.666504, 4188.205078, 4191.794922, 4191.281738, 4202.563965, 4202.051270, 4190.769043, 4232.307617, 4198.974121, 4170.769043, 0.000000, 8135.000000, 8090.000000, 0.000000, 0.000000, 0.000000, 25085.000000, 704.615356, 4.000000, 4.000000, 4.000000, 4.000000, 4.000000, 4.000000, 4.000000, 4.000000, 4.000000, 4.000000, 4.000000, 4.000000, 4.000000, 4.000000, 4.000000, 4.000000
