title:neutral14, recorded:17.05.18 21.48.04, timestamp started:2018-05-12T20:28:52.032863+02:00            , sampling:128, subject:Noé, labels:COUNTER INTERPOLATED AF3 F7 F3 FC5 T7 P7 O1 O2 P8 T8 FC6 F4 F8 AF4 RAW_CQ GYROX GYROY MARKER MARKER_HARDWARE SYNC TIME_STAMP_s TIME_STAMP_ms CQ_AF3 CQ_F7 CQ_F3 CQ_FC5 CQ_T7 CQ_P7 CQ_O1 CQ_O2 CQ_P8 CQ_T8 CQ_FC6 CQ_F4 CQ_F8 CQ_AF4 CQ_CMS CQ_DRL, chan:40, samples:2702, units:emotiv
4.000000, 0.000000, 4235.897461, 4241.025391, 4202.051270, 4218.461426, 4195.897461, 4184.615234, 4186.666504, 4199.487305, 4203.076660, 4201.025391, 4201.025391, 4182.051270, 4234.358887, 4200.000000, 3523.000000, 8240.000000, 8133.000000, 0.000000, 0.000000, 0.000000, -22000.000000, 867.692261, 4.000000, 4.000000, 4.000000, 4.000000, 4.000000, 4.000000, 4.000000, 4.000000, 4.000000, 4.000000, 4.000000, 4.000000, 4.000000, 4.000000, 4.000000, 4.000000
5.000000, 0.000000, 4226.666504, 4227.179199, 4200.512695, 4212.307617, 4193.333008, 4186.153809, 4188.717773, 4193.333008, 4196.410156, 4184.615234, 4194.871582, 4182.051270, 4224.102539, 4198.461426, 3532.000000, 8241.000000, 8128.000000, 0.000000, 0.000000, 0.000000, -22000.000000, 875.897400, 4.000000, 4.000000, 4.000000, 4.000000, 4.000000, 4.000000, 4.000000, 4.000000, 4.000000, 4.000000, 4.000000, 4.000000, 4.000000, 4.000000, 4.000000, 4.000000
6.000000, 0.000000, 4222.563965, 4224.102539, 4202.563965, 4209.230469, 4203.589844, 4199.487305, 4197.436035, 4192.820313, 4195.384277, 4188.205078, 4186.666504, 4181.538574, 4227.692383, 4195.897461, 3051.000000, 8241.000000, 8128.000000, 0.000000, 0.000000, 0.000000, -22000.000000, 883.589722, 4.000000, 4.000000, 4.000000, 4.000000, 4.000000, 4.000000, 4.000000, 4.000000, 4.000000, 4.000000, 4.000000, 4.000000, 4.000000, 4.000000, 4.000000, 4.000000
7.000000, 0.000000, 4223.589844, 4235.384277, 4197.436035, 4206.153809, 4207.179199, 4195.897461, 4192.820313, 4185.641113, 4187.692383, 4178.461426, 4182.051270, 4173.333008, 4230.769043, 4200.000000, 3510.000000, 8241.000000, 8122.000000, 0.000000, 0.000000, 0.000000, -22000.000000, 891.282043, 4.000000, 4.000000, 4.000000, 4.000000, 4.000000, 4.000000, 4.000000, 4.000000, 4.000000, 4.000000, 4.000000, 4.000000, 4.000000, 4.000000, 4.000000, 4.000000
8.000000, 0.000000, 4222.563965, 4233.333008, 4192.307617, 4200.512695, 4191.794922, 4182.051270, 4179.487305, 4182.563965, 4183.076660, 4148.717773, 4181.025391, 4166.666504, 4218.974121, 4195.384277, 3513.000000, 8241.000000, 8122.000000, 0.000000, 0.000000, 0.000000, -22000.000000, 899.487183, 4.000000, 4.000000, 4.000000, 4.000000, 4.000000, 4.000000, 4.000000, 4.000000, 4.000000, 4.000000, 4.000000, 4.000000, 4.000000, 4.000000, 4.000000, 4.000000
9.000000, 0.000000, 4217.436035, 4227.179199, 4193.846191, 4203.076660, 4190.769043, 4188.205078, 4176.410156, 4190.769043, 4190.256348, 4162.563965, 4179.487305, 4170.256348, 4215.384277, 4194.871582, 3533.000000, 8240.000000, 8114.000000, 0.000000, 0.000000, 0.000000, -22000.000000, 907.179443, 4.000000, 4.000000, 4.000000, 4.000000, 4.000000, 4.000000, 4.000000, 4.000000, 4.000000, 4.000000, 4.000000, 4.000000, 4.000000, 4.000000, 4.000000, 4.000000
10.000000, 0.000000, 4222.051270, 4234.358887, 4194.871582, 4213.333008, 4210.769043, 4198.461426, 4179.487305, 4194.871582, 4195.897461, 4188.205078, 4180.512695, 4175.897461, 4229.743652, 4199.487305, 3544.000000, 8240.000000, 8114.000000, 0.000000, 0.000000, 0.000000, -22000.000000, 914.871765, 4.000000, 4.000000, 4.000000, 4.000000, 4.000000, 4.000000, 4.000000, 4.000000, 4.000000, 4.000000, 4.000000, 4.000000, 4.000000, 4.000000, 4.000000, 4.000000
11.000000, 0.000000, 4232.820313, 4240.512695, 4191.794922, 4217.948730, 4210.769043, 4194.358887, 4185.641113, 4193.846191, 4197.436035, 4170.769043, 4189.743652, 4175.897461, 4240.512695, 4198.974121, 1176.000000, 8243.000000, 8112.000000, 0.000000, 0.000000, 0.000000, -22000.000000, 923.076904, 4.000000, 4.000000, 4.000000, 4.000000, 4.000000, 4.000000, 4.000000, 4.000000, 4.000000, 4.000000, 4.000000, 4.000000, 4.000000, 4.000000, 4.000000, 4.000000
12.000000, 0.000000, 4230.769043, 4235.384277, 4188.205078, 4215.384277, 4197.948730, 4188.205078, 4189.230469, 4197.948730, 4197.948730, 4173.846191, 4194.871582, 4174.871582, 4233.333008, 4199.487305, 3444.000000, 8243.000000, 8112.000000, 0.000000, 0.000000, 0.000000, -22000.000000, 930.769226, 4.000000, 4.000000, 4.000000, 4.000000, 4.000000, 4.000000, 4.000000, 4.000000, 4.000000, 4.000000, 4.000000, 4.000000, 4.000000, 4.000000, 4.000000, 4.000000
13.000000, 0.000000, 4226.666504, 4229.743652, 4190.256348, 4214.358887, 4200.000000, 4185.641113, 4182.563965, 4200.512695, 4197.948730, 4198.461426, 4193.333008, 4176.410156, 4230.256348, 4197.948730, 3491.000000, 8238.000000, 8106.000000, 0.000000, 0.000000, 0.000000, -22000.000000, 938.974365, 4.000000, 4.000000, 4.000000, 4.000000, 4.000000, 4.000000, 4.000000, 4.000000, 4.000000, 4.000000, 4.000000, 4.000000, 4.000000, 4.000000, 4.000000, 4.000000
14.000000, 0.000000, 4226.666504, 4230.256348, 4198.461426, 4214.871582, 4205.127930, 4188.717773, 4185.127930, 4206.666504, 4207.692383, 4191.281738, 4195.897461, 4182.563965, 4238.461426, 4200.512695, 3544.000000, 8238.000000, 8106.000000, 0.000000, 0.000000, 0.000000, -22000.000000, 946.666626, 4.000000, 4.000000, 4.000000, 4.000000, 4.000000, 4.000000, 4.000000, 4.000000, 4.000000, 4.000000, 4.000000, 4.000000, 4.000000, 4.000000, 4.000000, 4.000000
15.000000, 0.000000, 4229.230469, 4231.794922, 4202.563965, 4216.922852, 4206.153809, 4200.000000, 4201.025391, 4214.358887, 4216.922852, 4192.307617, 4197.436035, 4184.102539, 4242.563965, 4200.512695, 1176.000000, 8238.000000, 8107.000000, 0.000000, 0.000000, 0.000000, -22000.000000, 954.871765, 4.000000, 4.000000, 4.000000, 4.000000, 4.000000, 4.000000, 4.000000, 4.000000, 4.000000, 4.000000, 4.000000, 4.000000, 4.000000, 4.000000, 4.000000, 4.000000
16.000000, 0.000000, 4227.692383, 4226.153809, 4192.307617, 4210.769043, 4200.000000, 4202.051270, 4202.051270, 4198.974121, 4199.487305, 4201.538574, 4188.717773, 4180.000000, 4230.256348, 4195.897461, 0.000000, 8238.000000, 8107.000000, 0.000000, 0.000000, 0.000000, -22000.000000, 962.564087, 4.000000, 4.000000, 4.000000, 4.000000, 4.000000, 4.000000, 4.000000, 4.000000, 4.000000, 4.000000, 4.000000, 4.000000, 4.000000, 4.000000, 4.000000, 4.000000
17.000000, 0.000000, 4215.897461, 4215.897461, 4180.512695, 4198.974121, 4189.743652, 4187.179199, 4193.333008, 4178.974121, 4174.871582, 4179.487305, 4181.538574, 4180.512695, 4215.897461, 4196.922852, 0.000000, 8229.000000, 8111.000000, 0.000000, 0.000000, 0.000000, -22000.000000, 970.256409, 4.000000, 4.000000, 4.000000, 4.000000, 4.000000, 4.000000, 4.000000, 4.000000, 4.000000, 4.000000, 4.000000, 4.000000, 4.000000, 4.000000, 4.000000, 4.000000
18.000000, 0.000000, 4216.922852, 4217.436035, 4186.153809, 4201.025391, 4196.922852, 4182.563965, 4194.871582, 4184.615234, 4177.948730, 4168.717773, 4190.256348, 4188.717773, 4221.538574, 4195.384277, 0.000000, 8229.000000, 8111.000000, 0.000000, 0.000000, 0.000000, -22000.000000, 978.461487, 4.000000, 4.000000, 4.000000, 4.000000, 4.000000, 4.000000, 4.000000, 4.000000, 4.000000, 4.000000, 4.000000, 4.000000, 4.000000, 4.000000, 4.000000, 4.000000
19.000000, 0.000000, 4229.230469, 4224.102539, 4198.974121, 4211.281738, 4207.179199, 4193.333008, 4197.436035, 4194.358887, 4192.820313, 4188.717773, 4197.948730, 4196.922852, 4231.281738, 4201.025391, 0.000000, 8230.000000, 8109.000000, 0.000000, 0.000000, 0.000000, -22000.000000, 986.153809, 4.000000, 4.000000, 4.000000, 4.000000, 4.000000, 4.000000, 4.000000, 4.000000, 4.000000, 4.000000, 4.000000, 4.000000, 4.000000, 4.000000, 4.000000, 4.000000
20.000000, 0.000000, 4231.794922, 4221.538574, 4204.615234, 4218.461426, 4204.615234, 4193.846191, 4194.871582, 4197.436035, 4200.000000, 4187.692383, 4205.127930, 4197.948730, 4232.820313, 4197.948730, 0.000000, 8230.000000, 8109.000000, 0.000000, 0.000000, 0.000000, -22000.000000, 993.846130, 4.000000, 4.000000, 4.000000, 4.000000, 4.000000, 4.000000, 4.000000, 4.000000, 4.000000, 4.000000, 4.000000, 4.000000, 4.000000, 4.000000, 4.000000, 4.000000
21.000000, 0.000000, 4236.922852, 4224.102539, 4211.281738, 4223.076660, 4203.589844, 4186.666504, 4196.922852, 4207.692383, 4208.205078, 4181.538574, 4217.436035, 4202.563965, 4236.922852, 4196.922852, 0.000000, 8236.000000, 8111.000000, 0.000000, 0.000000, 0.000000, -21999.000000, 2.051282, 4.000000, 4.000000, 4.000000, 4.000000, 4.000000, 4.000000, 4.000000, 4.000000, 4.000000, 4.000000, 4.000000, 4.000000, 4.000000, 4.000000, 4.000000, 4.000000
22.000000, 0.000000, 4230.769043, 4221.025391, 4211.281738, 4221.025391, 4197.436035, 4184.102539, 4190.256348, 4202.051270, 4202.563965, 4188.717773, 4212.820313, 4205.127930, 4233.846191, 4196.410156, 0.000000, 8236.000000, 8111.000000, 0.000000, 0.000000, 0.000000, -21999.000000, 9.743589, 4.000000, 4.000000, 4.000000, 4.000000, 4.000000, 4.000000, 4.000000, 4.000000, 4.000000, 4.000000, 4.000000, 4.000000, 4.000000, 4.000000, 4.000000, 4.000000
23.000000, 0.000000, 4228.717773, 4218.974121, 4202.051270, 4214.871582, 4188.205078, 4183.076660, 4179.487305, 4185.127930, 4186.666504, 4170.256348, 4198.461426, 4196.410156, 4216.410156, 4201.025391, 0.000000, 8237.000000, 8119.000000, 0.000000, 0.000000, 0.000000, -21999.000000, 17.948717, 4.000000, 4.000000, 4.000000, 4.000000, 4.000000, 4.000000, 4.000000, 4.000000, 4.000000, 4.000000, 4.000000, 4.000000, 4.000000, 4.000000, 4.000000, 4.000000
24.000000, 0.000000, 4234.358887, 4221.538574, 4197.948730, 4212.820313, 4185.127930, 4182.563965, 4182.051270, 4188.205078, 4183.589844, 4145.641113, 4200.000000, 4190.256348, 4211.281738, 4220.000000, 0.000000, 8237.000000, 8119.000000, 0.000000, 0.000000, 0.000000, -21999.000000, 25.641026, 4.000000, 4.000000, 4.000000, 4.000000, 4.000000, 4.000000, 4.000000, 4.000000, 4.000000, 4.000000, 4.000000, 4.000000, 4.000000, 4.000000, 4.000000, 4.000000
25.000000, 0.000000, 4208.717773, 4194.871582, 4187.179199, 4214.871582, 4184.102539, 4186.153809, 4184.102539, 4187.179199, 4185.127930, 4169.743652, 4205.127930, 4186.153809, 4217.948730, 4172.820313, 0.000000, 8237.000000, 8122.000000, 0.000000, 0.000000, 0.000000, -21999.000000, 33.333332, 4.000000, 4.000000, 4.000000, 4.000000, 4.000000, 4.000000, 4.000000, 4.000000, 4.000000, 4.000000, 4.000000, 4.000000, 4.000000, 4.000000, 4.000000, 4.000000
26.000000, 0.000000, 4225.641113, 4208.205078, 4189.230469, 4216.410156, 4190.256348, 4185.127930, 4180.512695, 4170.256348, 4182.563965, 4211.794922, 4191.794922, 4179.487305, 4206.153809, 4184.615234, 0.000000, 8237.000000, 8122.000000, 0.000000, 0.000000, 0.000000, -21999.000000, 41.538460, 4.000000, 4.000000, 4.000000, 4.000000, 4.000000, 4.000000, 4.000000, 4.000000, 4.000000, 4.000000, 4.000000, 4.000000, 4.000000, 4.000000, 4.000000, 4.000000
27.000000, 0.000000, 4235.897461, 4224.102539, 4196.922852, 4211.794922, 4203.589844, 4184.615234, 4175.384277, 4170.769043, 4183.076660, 4189.230469, 4185.641113, 4170.256348, 4194.358887, 4223.076660, 0.000000, 8241.000000, 8125.000000, 0.000000, 0.000000, 0.000000, -21999.000000, 49.230766, 4.000000, 4.000000, 4.000000, 4.000000, 4.000000, 4.000000, 4.000000, 4.000000, 4.000000, 4.000000, 4.000000, 4.000000, 4.000000, 4.000000, 4.000000, 4.000000
28.000000, 0.000000, 4214.358887, 4203.076660, 4189.230469, 4202.563965, 4202.051270, 4190.769043, 4174.871582, 4182.563965, 4186.153809, 4148.717773, 4194.871582, 4166.666504, 4192.820313, 4183.589844, 0.000000, 8241.000000, 8125.000000, 0.000000, 0.000000, 0.000000, -21999.000000, 56.923077, 4.000000, 4.000000, 4.000000, 4.000000, 4.000000, 4.000000, 4.000000, 4.000000, 4.000000, 4.000000, 4.000000, 4.000000, 4.000000, 4.000000, 4.000000, 4.000000
29.000000, 0.000000, 4234.358887, 4214.871582, 4195.897461, 4198.461426, 4186.666504, 4190.256348, 4186.153809, 4183.076660, 4190.769043, 4179.487305, 4201.025391, 4179.487305, 4189.743652, 4209.743652, 0.000000, 8247.000000, 8133.000000, 0.000000, 0.000000, 0.000000, -21999.000000, 64.615379, 4.000000, 4.000000, 4.000000, 4.000000, 4.000000, 4.000000, 4.000000, 4.000000, 4.000000, 4.000000, 4.000000, 4.000000, 4.000000, 4.000000, 4.000000, 4.000000
30.000000, 0.000000, 4231.281738, 4210.256348, 4198.974121, 4201.025391, 4188.205078, 4190.769043, 4194.871582, 4193.333008, 4201.538574, 4198.974121, 4209.743652, 4189.743652, 4198.974121, 4206.153809, 0.000000, 8247.000000, 8133.000000, 0.000000, 0.000000, 0.000000, -21999.000000, 72.820511, 4.000000, 4.000000, 4.000000, 4.000000, 4.000000, 4.000000, 4.000000, 4.000000, 4.000000, 4.000000, 4.000000, 4.000000, 4.000000, 4.000000, 4.000000, 4.000000
31.000000, 0.000000, 4230.769043, 4206.666504, 4196.922852, 4207.179199, 4190.769043, 4191.794922, 4200.512695, 4203.589844, 4201.538574, 4163.589844, 4216.922852, 4185.641113, 4202.563965, 4189.230469, 0.000000, 8250.000000, 8144.000000, 0.000000, 0.000000, 0.000000, -21999.000000, 80.512817, 4.000000, 4.000000, 4.000000, 4.000000, 4.000000, 4.000000, 4.000000, 4.000000, 4.000000, 4.000000, 4.000000, 4.000000, 4.000000, 4.000000, 4.000000, 4.000000
32.000000, 0.000000, 4234.871582, 4214.871582, 4198.461426, 4211.794922, 4187.692383, 4191.281738, 4196.410156, 4197.436035, 4194.358887, 4174.871582, 4204.615234, 4174.358887, 4176.922852, 4208.717773, 0.000000, 8250.000000, 8144.000000, 0.000000, 0.000000, 0.000000, -21999.000000, 88.205124, 4.000000, 4.000000, 4.000000, 4.000000, 4.000000, 4.000000, 4.000000, 4.000000, 4.000000, 4.000000, 4.000000, 4.000000, 4.000000, 4.000000, 4.000000, 4.000000
33.000000, 0.000000, 4229.230469, 4211.794922, 4190.769043, 4209.230469, 4193.846191, 4194.871582, 4188.205078, 4191.794922, 4192.820313, 4177.948730, 4193.846191, 4163.589844, 4164.102539, 4196.410156, 0.000000, 8249.000000, 8147.000000, 0.000000, 0.000000, 0.000000, -21999.000000, 96.410255, 4.000000, 4.000000, 4.000000, 4.000000, 4.000000, 4.000000, 4.000000, 4.000000, 4.000000, 4.000000, 4.000000, 4.000000, 4.000000, 4.000000, 4.000000, 4.000000
34.000000, 0.000000, 4241.025391, 4216.410156, 4188.717773, 4206.666504, 4186.666504, 4194.871582, 4192.820313, 4185.641113, 4184.615234, 4148.205078, 4202.051270, 4158.974121, 4173.846191, 4200.512695, 0.000000, 8249.000000, 8147.000000, 0.000000, 0.000000, 0.000000, -21999.000000, 104.102562, 4.000000, 4.000000, 4.000000, 4.000000, 4.000000, 4.000000, 4.000000, 4.000000, 4.000000, 4.000000, 4.000000, 4.000000, 4.000000, 4.000000, 4.000000, 4.000000
35.000000, 0.000000, 4234.358887, 4208.205078, 4184.615234, 4212.820313, 4176.922852, 4188.717773, 4191.794922, 4172.307617, 4174.871582, 4177.436035, 4196.922852, 4151.281738, 4164.102539, 4189.230469, 0.000000, 8247.000000, 8155.000000, 0.000000, 0.000000, 0.000000, -21999.000000, 112.307686, 4.000000, 4.000000, 4.000000, 4.000000, 4.000000, 4.000000, 4.000000, 4.000000, 4.000000, 4.000000, 4.000000, 4.000000, 4.000000, 4.000000, 4.000000, 4.000000
36.000000, 0.000000, 4241.025391, 4222.563965, 4186.153809, 4221.538574, 4192.307617, 4190.256348, 4188.717773, 4160.512695, 4167.179199, 4148.717773, 4191.794922, 4150.256348, 4143.076660, 4196.922852, 0.000000, 8247.000000, 8155.000000, 0.000000, 0.000000, 0.000000, -21999.000000, 120.000000, 4.000000, 4.000000, 4.000000, 4.000000, 4.000000, 4.000000, 4.000000, 4.000000, 4.000000, 4.000000, 4.000000, 4.000000, 4.000000, 4.000000, 4.000000, 4.000000
37.000000, 0.000000, 4243.076660, 4227.179199, 4193.333008, 4217.436035, 4210.769043, 4201.025391, 4194.358887, 4162.051270, 4165.127930, 4103.589844, 4215.384277, 4165.641113, 4153.333008, 4207.179199, 0.000000, 8254.000000, 8155.000000, 0.000000, 0.000000, 0.000000, -21999.000000, 127.692307, 4.000000, 4.000000, 4.000000, 4.000000, 4.000000, 4.000000, 4.000000, 4.000000, 4.000000, 4.000000, 4.000000, 4.000000, 4.000000, 4.000000, 4.000000, 4.000000
38.000000, 0.000000, 4243.589844, 4220.000000, 4198.461426, 4215.897461, 4197.948730, 4196.922852, 4189.743652, 4168.205078, 4175.897461, 4189.743652, 4216.922852, 4173.846191, 4167.179199, 4197.436035, 0.000000, 8254.000000, 8155.000000, 0.000000, 0.000000, 0.000000, -21999.000000, 135.897430, 4.000000, 4.000000, 4.000000, 4.000000, 4.000000, 4.000000, 4.000000, 4.000000, 4.000000, 4.000000, 4.000000, 4.000000, 4.000000, 4.000000, 4.000000, 4.000000
39.000000, 0.000000, 4251.281738, 4227.179199, 4203.589844, 4226.666504, 4178.461426, 4184.615234, 4172.307617, 4162.051270, 4174.358887, 4191.281738, 4198.974121, 4168.717773, 4151.281738, 4201.025391, 0.000000, 8247.000000, 8151.000000, 0.000000, 0.000000, 0.000000, -21999.000000, 144.102554, 4.000000, 4.000000, 4.000000, 4.000000, 4.000000, 4.000000, 4.000000, 4.000000, 4.000000, 4.000000, 4.000000, 4.000000, 4.000000, 4.000000, 4.000000, 4.000000
40.000000, 0.000000, 4240.000000, 4215.897461, 4196.410156, 4220.512695, 4193.846191, 4181.538574, 4169.743652, 4153.333008, 4166.153809, 4104.615234, 4207.692383, 4169.230469, 4136.922852, 4192.307617, 0.000000, 8247.000000, 8151.000000, 0.000000, 0.000000, 0.000000, -21999.000000, 151.794861, 4.000000, 4.000000, 4.000000, 4.000000, 4.000000, 4.000000, 4.000000, 4.000000, 4.000000, 4.000000, 4.000000, 4.000000, 4.000000, 4.000000, 4.000000, 4.000000
41.000000, 0.000000, 4242.563965, 4209.743652, 4187.179199, 4199.487305, 4210.769043, 4186.153809, 4182.563965, 4153.333008, 4172.820313, 4176.410156, 4212.307617, 4168.205078, 4132.820313, 4198.461426, 0.000000, 8235.000000, 8162.000000, 0.000000, 0.000000, 0.000000, -21999.000000, 159.487183, 4.000000, 4.000000, 4.000000, 4.000000, 4.000000, 4.000000, 4.000000, 4.000000, 4.000000, 4.000000, 4.000000, 4.000000, 4.000000, 4.000000, 4.000000, 4.000000
42.000000, 0.000000, 4238.974121, 4217.948730, 4179.487305, 4206.153809, 4189.743652, 4187.179199, 4184.102539, 4151.794922, 4173.846191, 4227.179199, 4198.461426, 4155.384277, 4117.948730, 4196.922852, 0.000000, 8235.000000, 8162.000000, 0.000000, 0.000000, 0.000000, -21999.000000, 167.179489, 4.000000, 4.000000, 4.000000, 4.000000, 4.000000, 4.000000, 4.000000, 4.000000, 4.000000, 4.000000, 4.000000, 4.000000, 4.000000, 4.000000, 4.000000, 4.000000
43.000000, 0.000000, 4231.794922, 4217.436035, 4177.436035, 4215.897461, 4167.692383, 4185.127930, 4181.025391, 4153.333008, 4162.563965, 4127.179199, 4198.974121, 4154.871582, 4093.845947, 4189.230469, 0.000000, 8236.000000, 8167.000000, 0.000000, 0.000000, 0.000000, -21999.000000, 175.384613, 4.000000, 4.000000, 4.000000, 4.000000, 4.000000, 4.000000, 4.000000, 4.000000, 4.000000, 4.000000, 4.000000, 4.000000, 4.000000, 4.000000, 4.000000, 4.000000
44.000000, 0.000000, 4232.820313, 4202.563965, 4186.153809, 4201.025391, 4179.487305, 4191.794922, 4190.256348, 4167.692383, 4167.692383, 4110.256348, 4215.384277, 4171.281738, 4090.256348, 4201.538574, 0.000000, 8236.000000, 8167.000000, 0.000000, 0.000000, 0.000000, -21999.000000, 183.076920, 4.000000, 4.000000, 4.000000, 4.000000, 4.000000, 4.000000, 4.000000, 4.000000, 4.000000, 4.000000, 4.000000, 4.000000, 4.000000, 4.000000, 4.000000, 4.000000
45.000000, 0.000000, 4233.846191, 4200.512695, 4189.743652, 4203.076660, 4188.717773, 4205.641113, 4207.692383, 4186.153809, 4186.666504, 4188.717773, 4226.153809, 4174.358887, 4106.153809, 4195.897461, 0.000000, 8234.000000, 8151.000000, 0.000000, 0.000000, 0.000000, -21999.000000, 190.769226, 4.000000, 4.000000, 4.000000, 4.000000, 4.000000, 4.000000, 4.000000, 4.000000, 4.000000, 4.000000, 4.000000, 4.000000, 4.000000, 4.000000, 4.000000, 4.000000
46.000000, 0.000000, 4253.333008, 4222.563965, 4192.307617, 4221.538574, 4185.641113, 4205.641113, 4211.281738, 4190.256348, 4194.871582, 4202.563965, 4218.974121, 4167.179199, 4100.512695, 4200.000000, 0.000000, 8234.000000, 8151.000000, 0.000000, 0.000000, 0.000000, -21999.000000, 198.974350, 4.000000, 4.000000, 4.000000, 4.000000, 4.000000, 4.000000, 4.000000, 4.000000, 4.000000, 4.000000, 4.000000, 4.000000, 4.000000, 4.000000, 4.000000, 4.000000
47.000000, 0.000000, 4256.922852, 4218.974121, 4194.358887, 4218.974121, 4203.076660, 4191.281738, 4188.205078, 4174.358887, 4188.205078, 4167.179199, 4208.717773, 4167.179199, 4083.589600, 4201.538574, 0.000000, 8229.000000, 8126.000000, 0.000000, 0.000000, 0.000000, -21999.000000, 206.666656, 4.000000, 4.000000, 4.000000, 4.000000, 4.000000, 4.000000, 4.000000, 4.000000, 4.000000, 4.000000, 4.000000, 4.000000, 4.000000, 4.000000, 4.000000, 4.000000
48.000000, 0.000000, 4260.000000, 4215.897461, 4198.461426, 4213.846191, 4206.666504, 4184.615234, 4172.820313, 4160.512695, 4174.871582, 4168.717773, 4213.333008, 4166.666504, 4081.538330, 4200.000000, 0.000000, 8229.000000, 8126.000000, 0.000000, 0.000000, 0.000000, -21999.000000, 214.358963, 4.000000, 4.000000, 4.000000, 4.000000, 4.000000, 4.000000, 4.000000, 4.000000, 4.000000, 4.000000, 4.000000, 4.000000, 4.000000, 4.000000, 4.000000, 4.000000
49.000000, 0.000000, 4272.307617, 4223.589844, 4201.025391, 4220.512695, 4167.179199, 4182.563965, 4175.897461, 4160.000000, 4163.589844, 4178.461426, 4216.410156, 4157.948730, 4077.948730, 4208.205078, 0.000000, 8229.000000, 8121.000000, 0.000000, 0.000000, 0.000000, -21999.000000, 222.564102, 4.000000, 4.000000, 4.000000, 4.000000, 4.000000, 4.000000, 4.000000, 4.000000, 4.000000, 4.000000, 4.000000, 4.000000, 4.000000, 4.000000, 4.000000, 4.000000
50.000000, 0.000000, 4265.641113, 4215.384277, 4191.281738, 4223.076660, 4153.846191, 4178.974121, 4175.384277, 4157.436035, 4160.512695, 4147.692383, 4210.256348, 4150.769043, 4065.128174, 4195.897461, 0.000000, 8229.000000, 8121.000000, 0.000000, 0.000000, 0.000000, -21999.000000, 230.256409, 4.000000, 4.000000, 4.000000, 4.000000, 4.000000, 4.000000, 4.000000, 4.000000, 4.000000, 4.000000, 4.000000, 4.000000, 4.000000, 4.000000, 4.000000, 4.000000
51.000000, 0.000000, 4272.820313, 4216.410156, 4188.717773, 4217.948730, 4192.820313, 4182.051270, 4176.410156, 4150.256348, 4158.974121, 4143.076660, 4210.769043, 4152.820313, 4066.666504, 4200.512695, 0.000000, 8242.000000, 8127.000000, 0.000000, 0.000000, 0.000000, -21999.000000, 237.948715, 4.000000, 4.000000, 4.000000, 4.000000, 4.000000, 4.000000, 4.000000, 4.000000, 4.000000, 4.000000, 4.000000, 4.000000, 4.000000, 4.000000, 4.000000, 4.000000
52.000000, 0.000000, 4263.076660, 4206.153809, 4188.717773, 4208.717773, 4213.333008, 4189.230469, 4183.589844, 4155.384277, 4161.538574, 4185.641113, 4209.230469, 4150.769043, 4068.717773, 4201.025391, 0.000000, 8242.000000, 8127.000000, 0.000000, 0.000000, 0.000000, -21999.000000, 245.641022, 4.000000, 4.000000, 4.000000, 4.000000, 4.000000, 4.000000, 4.000000, 4.000000, 4.000000, 4.000000, 4.000000, 4.000000, 4.000000, 4.000000, 4.000000, 4.000000
53.000000, 0.000000, 4242.051270, 4190.769043, 4178.974121, 4196.922852, 4187.179199, 4187.179199, 4178.461426, 4159.487305, 4163.589844, 4164.615234, 4200.000000, 4140.000000, 4044.615234, 4190.769043, 0.000000, 8249.000000, 8134.000000, 0.000000, 0.000000, 0.000000, -21999.000000, 253.846146, 4.000000, 4.000000, 4.000000, 4.000000, 4.000000, 4.000000, 4.000000, 4.000000, 4.000000, 4.000000, 4.000000, 4.000000, 4.000000, 4.000000, 4.000000, 4.000000
54.000000, 0.000000, 4237.948730, 4185.641113, 4172.820313, 4187.179199, 4172.820313, 4182.563965, 4173.846191, 4155.897461, 4158.974121, 4118.974121, 4194.871582, 4134.358887, 4020.512695, 4195.897461, 0.000000, 8249.000000, 8134.000000, 0.000000, 0.000000, 0.000000, -21999.000000, 261.538452, 4.000000, 4.000000, 4.000000, 4.000000, 4.000000, 4.000000, 4.000000, 4.000000, 4.000000, 4.000000, 4.000000, 4.000000, 4.000000, 4.000000, 4.000000, 4.000000
55.000000, 0.000000, 4226.666504, 4172.820313, 4171.794922, 4187.179199, 4176.922852, 4182.563965, 4180.000000, 4156.410156, 4159.487305, 4146.153809, 4190.769043, 4133.333008, 4012.820313, 4184.615234, 0.000000, 8261.000000, 8146.000000, 0.000000, 0.000000, 0.000000, -21999.000000, 269.743591, 4.000000, 4.000000, 4.000000, 4.000000, 4.000000, 4.000000, 4.000000, 4.000000, 4.000000, 4.000000, 4.000000, 4.000000, 4.000000, 4.000000, 4.000000, 4.000000
56.000000, 0.000000, 4241.025391, 4178.461426, 4182.563965, 4196.922852, 4162.051270, 4181.538574, 4182.051270, 4153.846191, 4163.076660, 4157.436035, 4194.871582, 4138.974121, 4017.948730, 4196.410156, 0.000000, 8261.000000, 8146.000000, 0.000000, 0.000000, 0.000000, -21999.000000, 277.435883, 4.000000, 4.000000, 4.000000, 4.000000, 4.000000, 4.000000, 4.000000, 4.000000, 4.000000, 4.000000, 4.000000, 4.000000, 4.000000, 4.000000, 4.000000, 4.000000
57.000000, 0.000000, 4251.281738, 4180.512695, 4190.769043, 4202.563965, 4165.641113, 4186.666504, 4181.538574, 4156.922852, 4172.820313, 4150.256348, 4215.897461, 4152.820313, 4033.845947, 4200.512695, 0.000000, 8270.000000, 8146.000000, 0.000000, 0.000000, 0.000000, -21999.000000, 285.128204, 4.000000, 4.000000, 4.000000, 4.000000, 4.000000, 4.000000, 4.000000, 4.000000, 4.000000, 4.000000, 4.000000, 4.000000, 4.000000, 4.000000, 4.000000, 4.000000
58.000000, 0.000000, 4249.230469, 4176.410156, 4189.743652, 4202.051270, 4207.692383, 4193.333008, 4187.179199, 4169.230469, 4182.563965, 4179.487305, 4227.692383, 4157.948730, 4041.025635, 4186.666504, 0.000000, 8270.000000, 8146.000000, 0.000000, 0.000000, 0.000000, -21999.000000, 293.333313, 4.000000, 4.000000, 4.000000, 4.000000, 4.000000, 4.000000, 4.000000, 4.000000, 4.000000, 4.000000, 4.000000, 4.000000, 4.000000, 4.000000, 4.000000, 4.000000
59.000000, 0.000000, 4256.922852, 4183.076660, 4193.333008, 4200.000000, 4209.743652, 4188.717773, 4186.666504, 4173.333008, 4177.436035, 4185.641113, 4221.025391, 4157.436035, 4031.281982, 4201.538574, 0.000000, 8271.000000, 8146.000000, 0.000000, 0.000000, 0.000000, -21999.000000, 301.025635, 4.000000, 4.000000, 4.000000, 4.000000, 4.000000, 4.000000, 4.000000, 4.000000, 4.000000, 4.000000, 4.000000, 4.000000, 4.000000, 4.000000, 4.000000, 4.000000
60.000000, 0.000000, 4246.153809, 4174.871582, 4195.897461, 4198.461426, 4167.692383, 4181.538574, 4183.076660, 4172.307617, 4170.256348, 4177.436035, 4212.307617, 4154.871582, 4023.076904, 4197.948730, 0.000000, 8271.000000, 8146.000000, 0.000000, 0.000000, 0.000000, -21999.000000, 308.717926, 4.000000, 4.000000, 4.000000, 4.000000, 4.000000, 4.000000, 4.000000, 4.000000, 4.000000, 4.000000, 4.000000, 4.000000, 4.000000, 4.000000, 4.000000, 4.000000
61.000000, 0.000000, 4254.871582, 4183.076660, 4199.487305, 4202.051270, 4177.948730, 4185.641113, 4190.769043, 4183.076660, 4182.051270, 4184.102539, 4210.769043, 4155.384277, 4025.640869, 4199.487305, 0.000000, 8265.000000, 8141.000000, 0.000000, 0.000000, 0.000000, -21999.000000, 316.923065, 4.000000, 4.000000, 4.000000, 4.000000, 4.000000, 4.000000, 4.000000, 4.000000, 4.000000, 4.000000, 4.000000, 4.000000, 4.000000, 4.000000, 4.000000, 4.000000
62.000000, 0.000000, 4261.538574, 4188.717773, 4199.487305, 4207.179199, 4210.256348, 4194.871582, 4198.461426, 4203.589844, 4205.641113, 4183.076660, 4227.692383, 4163.076660, 4042.563965, 4203.076660, 0.000000, 8265.000000, 8141.000000, 0.000000, 0.000000, 0.000000, -21999.000000, 324.615387, 4.000000, 4.000000, 4.000000, 4.000000, 4.000000, 4.000000, 4.000000, 4.000000, 4.000000, 4.000000, 4.000000, 4.000000, 4.000000, 4.000000, 4.000000, 4.000000
63.000000, 0.000000, 4246.153809, 4171.281738, 4190.256348, 4198.461426, 4185.127930, 4199.487305, 4203.076660, 4207.179199, 4206.666504, 4185.127930, 4234.871582, 4163.076660, 4050.769043, 4189.743652, 0.000000, 8273.000000, 8150.000000, 0.000000, 0.000000, 0.000000, -21999.000000, 332.820496, 4.000000, 4.000000, 4.000000, 4.000000, 4.000000, 4.000000, 4.000000, 4.000000, 4.000000, 4.000000, 4.000000, 4.000000, 4.000000, 4.000000, 4.000000, 4.000000
64.000000, 0.000000, 4242.051270, 4164.615234, 4183.589844, 4184.102539, 4167.692383, 4195.897461, 4206.153809, 4187.179199, 4187.692383, 4200.000000, 4213.333008, 4152.820313, 4031.281982, 4194.871582, 3341.000000, 8273.000000, 8150.000000, 0.000000, 0.000000, 0.000000, -21999.000000, 340.512817, 4.000000, 4.000000, 4.000000, 4.000000, 4.000000, 4.000000, 4.000000, 4.000000, 4.000000, 4.000000, 4.000000, 4.000000, 4.000000, 4.000000, 4.000000, 4.000000
65.000000, 0.000000, 4231.794922, 4160.000000, 4174.358887, 4180.512695, 4198.974121, 4191.281738, 4197.948730, 4178.461426, 4183.589844, 4202.563965, 4205.641113, 4148.205078, 4020.512695, 4187.179199, 3505.000000, 8286.000000, 8157.000000, 0.000000, 0.000000, 0.000000, -21999.000000, 348.717926, 4.000000, 4.000000, 4.000000, 4.000000, 4.000000, 4.000000, 4.000000, 4.000000, 4.000000, 4.000000, 4.000000, 4.000000, 4.000000, 4.000000, 4.000000, 4.000000
66.000000, 0.000000, 4234.871582, 4167.179199, 4173.333008, 4186.153809, 4207.179199, 4188.205078, 4190.769043, 4182.563965, 4188.205078, 4175.897461, 4215.384277, 4146.153809, 4027.179443, 4192.307617, 2769.000000, 8286.000000, 8157.000000, 0.000000, 0.000000, 0.000000, -21999.000000, 356.410248, 4.000000, 4.000000, 4.000000, 4.000000, 4.000000, 4.000000, 4.000000, 4.000000, 4.000000, 4.000000, 4.000000, 4.000000, 4.000000, 4.000000, 4.000000, 4.000000
67.000000, 0.000000, 4230.256348, 4162.051270, 4175.384277, 4184.615234, 4188.717773, 4185.127930, 4192.307617, 4174.871582, 4183.589844, 4164.102539, 4210.769043, 4141.025391, 4020.512695, 4195.384277, 2030.000000, 8285.000000, 8170.000000, 0.000000, 0.000000, 0.000000, -21999.000000, 364.102570, 4.000000, 4.000000, 4.000000, 4.000000, 4.000000, 4.000000, 4.000000, 4.000000, 4.000000, 4.000000, 4.000000, 4.000000, 4.000000, 4.000000, 4.000000, 4.000000
68.000000, 0.000000, 4223.076660, 4148.205078, 4172.307617, 4179.487305, 4195.897461, 4184.615234, 4193.846191, 4162.051270, 4177.948730, 4199.487305, 4202.563965, 4144.615234, 4012.307617, 4184.615234, 3526.000000, 8285.000000, 8170.000000, 0.000000, 0.000000, 0.000000, -21999.000000, 371.794861, 4.000000, 4.000000, 4.000000, 4.000000, 4.000000, 4.000000, 4.000000, 4.000000, 4.000000, 4.000000, 4.000000, 4.000000, 4.000000, 4.000000, 4.000000, 4.000000
69.000000, 0.000000, 4246.153809, 4160.512695, 4182.563965, 4190.256348, 4205.127930, 4185.641113, 4189.743652, 4154.871582, 4175.384277, 4223.589844, 4209.230469, 4154.871582, 4018.461426, 4202.051270, 3653.000000, 8281.000000, 8185.000000, 0.000000, 0.000000, 0.000000, -21999.000000, 380.000000, 4.000000, 4.000000, 4.000000, 4.000000, 4.000000, 4.000000, 4.000000, 4.000000, 4.000000, 4.000000, 4.000000, 4.000000, 4.000000, 4.000000, 4.000000, 4.000000
70.000000, 0.000000, 4241.025391, 4163.589844, 4188.717773, 4199.487305, 4193.846191, 4183.589844, 4184.615234, 4151.794922, 4169.230469, 4194.871582, 4220.512695, 4157.948730, 4028.205078, 4198.974121, 3053.000000, 8281.000000, 8185.000000, 0.000000, 0.000000, 0.000000, -21999.000000, 387.692291, 4.000000, 4.000000, 4.000000, 4.000000, 4.000000, 4.000000, 4.000000, 4.000000, 4.000000, 4.000000, 4.000000, 4.000000, 4.000000, 4.000000, 4.000000, 4.000000
71.000000, 0.000000, 4232.820313, 4161.538574, 4188.717773, 4191.794922, 4188.717773, 4182.051270, 4188.205078, 4151.794922, 4166.153809, 4165.641113, 4217.948730, 4154.358887, 4027.179443, 4193.846191, 3516.000000, 8260.000000, 8199.000000, 0.000000, 0.000000, 0.000000, -21999.000000, 395.897430, 4.000000, 4.000000, 4.000000, 4.000000, 4.000000, 4.000000, 4.000000, 4.000000, 4.000000, 4.000000, 4.000000, 4.000000, 4.000000, 4.000000, 4.000000, 4.000000
72.000000, 0.000000, 4233.333008, 4154.871582, 4187.179199, 4181.538574, 4200.000000, 4188.717773, 4191.794922, 4153.846191, 4166.666504, 4187.692383, 4194.358887, 4150.769043, 4006.666504, 4196.922852, 3512.000000, 8260.000000, 8199.000000, 0.000000, 0.000000, 0.000000, -21999.000000, 403.589722, 4.000000, 4.000000, 4.000000, 4.000000, 4.000000, 4.000000, 4.000000, 4.000000, 4.000000, 4.000000, 4.000000, 4.000000, 4.000000, 4.000000, 4.000000, 4.000000
73.000000, 0.000000, 4221.025391, 4143.589844, 4185.127930, 4180.000000, 4208.205078, 4201.538574, 4201.538574, 4158.461426, 4172.820313, 4205.127930, 4184.615234, 4156.410156, 3994.358887, 4187.692383, 3510.000000, 8248.000000, 8198.000000, 0.000000, 0.000000, 0.000000, -21999.000000, 411.282043, 4.000000, 4.000000, 4.000000, 4.000000, 4.000000, 4.000000, 4.000000, 4.000000, 4.000000, 4.000000, 4.000000, 4.000000, 4.000000, 4.000000, 4.000000, 4.000000
74.000000, 0.000000, 4228.717773, 4152.820313, 4193.846191, 4185.641113, 4201.025391, 4203.076660, 4214.358887, 4165.641113, 4182.563965, 4195.897461, 4209.230469, 4170.769043, 4015.384521, 4198.974121, 3545.000000, 8248.000000, 8198.000000, 0.000000, 0.000000, 0.000000, -21999.000000, 419.487183, 4.000000, 4.000000, 4.000000, 4.000000, 4.000000, 4.000000, 4.000000, 4.000000, 4.000000, 4.000000, 4.000000, 4.000000, 4.000000, 4.000000, 4.000000, 4.000000
75.000000, 0.000000, 4237.436035, 4158.974121, 4197.436035, 4196.410156, 4197.948730, 4190.256348, 4204.102539, 4166.666504, 4185.641113, 4205.127930, 4224.102539, 4180.000000, 4038.974365, 4200.512695, 1170.000000, 8230.000000, 8189.000000, 0.000000, 0.000000, 0.000000, -21999.000000, 427.692291, 4.000000, 4.000000, 4.000000, 4.000000, 4.000000, 4.000000, 4.000000, 4.000000, 4.000000, 4.000000, 4.000000, 4.000000, 4.000000, 4.000000, 4.000000, 4.000000
76.000000, 0.000000, 4250.256348, 4167.179199, 4196.922852, 4198.974121, 4203.076660, 4180.000000, 4186.666504, 4152.307617, 4178.974121, 4216.922852, 4213.846191, 4175.384277, 4037.948730, 4202.563965, 3347.000000, 8230.000000, 8189.000000, 0.000000, 0.000000, 0.000000, -21999.000000, 435.384613, 4.000000, 4.000000, 4.000000, 4.000000, 4.000000, 4.000000, 4.000000, 4.000000, 4.000000, 4.000000, 4.000000, 4.000000, 4.000000, 4.000000, 4.000000, 4.000000
77.000000, 0.000000, 4252.820313, 4174.871582, 4197.948730, 4186.666504, 4201.538574, 4181.538574, 4182.563965, 4134.871582, 4167.692383, 4211.794922, 4214.358887, 4168.717773, 4041.025635, 4207.179199, 3531.000000, 8222.000000, 8184.000000, 0.000000, 0.000000, 0.000000, -21999.000000, 443.076904, 4.000000, 4.000000, 4.000000, 4.000000, 4.000000, 4.000000, 4.000000, 4.000000, 4.000000, 4.000000, 4.000000, 4.000000, 4.000000, 4.000000, 4.000000, 4.000000
78.000000, 0.000000, 4247.692383, 4182.051270, 4197.436035, 4195.384277, 4205.127930, 4188.717773, 4191.281738, 4133.846191, 4166.153809, 4203.589844, 4220.000000, 4172.307617, 4057.435791, 4200.000000, 3545.000000, 8222.000000, 8184.000000, 0.000000, 0.000000, 0.000000, -21999.000000, 451.282043, 4.000000, 4.000000, 4.000000, 4.000000, 4.000000, 4.000000, 4.000000, 4.000000, 4.000000, 4.000000, 4.000000, 4.000000, 4.000000, 4.000000, 4.000000, 4.000000
79.000000, 0.000000, 4253.846191, 4191.281738, 4192.820313, 4215.897461, 4199.487305, 4181.538574, 4189.743652, 4132.307617, 4163.589844, 4196.922852, 4204.102539, 4169.230469, 4058.461426, 4205.641113, 1170.000000, 8210.000000, 8181.000000, 0.000000, 0.000000, 0.000000, -21999.000000, 458.974335, 4.000000, 4.000000, 4.000000, 4.000000, 4.000000, 4.000000, 4.000000, 4.000000, 4.000000, 4.000000, 4.000000, 4.000000, 4.000000, 4.000000, 4.000000, 4.000000
80.000000, 0.000000, 4238.974121, 4179.487305, 4181.538574, 4196.410156, 4177.436035, 4169.230469, 4182.563965, 4124.615234, 4162.051270, 4195.897461, 4188.717773, 4156.410156, 4052.820313, 4197.436035, 3347.000000, 8210.000000, 8181.000000, 0.000000, 0.000000, 0.000000, -21999.000000, 466.666656, 4.000000, 4.000000, 4.000000, 4.000000, 4.000000, 4.000000, 4.000000, 4.000000, 4.000000, 4.000000, 4.000000, 4.000000, 4.000000, 4.000000, 4.000000, 4.000000
81.000000, 0.000000, 4245.641113, 4182.563965, 4189.743652, 4175.897461, 4189.743652, 4184.102539, 4194.358887, 4143.589844, 4181.538574, 4213.846191, 4202.051270, 4165.127930, 4070.256348, 4201.538574, 3531.000000, 8198.000000, 8151.000000, 0.000000, 0.000000, 0.000000, -21999.000000, 474.871796, 4.000000, 4.000000, 4.000000, 4.000000, 4.000000, 4.000000, 4.000000, 4.000000, 4.000000, 4.000000, 4.000000, 4.000000, 4.000000, 4.000000, 4.000000, 4.000000
82.000000, 0.000000, 4267.692383, 4198.974121, 4210.256348, 4207.692383, 4231.281738, 4207.692383, 4206.153809, 4169.743652, 4205.127930, 4230.769043, 4223.076660, 4189.743652, 4105.641113, 4213.846191, 3545.000000, 8198.000000, 8151.000000, 0.000000, 0.000000, 0.000000, -21999.000000, 482.564087, 4.000000, 4.000000, 4.000000, 4.000000, 4.000000, 4.000000, 4.000000, 4.000000, 4.000000, 4.000000, 4.000000, 4.000000, 4.000000, 4.000000, 4.000000, 4.000000
83.000000, 0.000000, 4260.000000, 4198.974121, 4205.127930, 4232.307617, 4234.871582, 4207.179199, 4203.076660, 4163.076660, 4204.615234, 4227.179199, 4219.487305, 4186.666504, 4124.615234, 4195.384277, 1170.000000, 8195.000000, 8142.000000, 0.000000, 0.000000, 0.000000, -21999.000000, 490.769226, 4.000000, 4.000000, 4.000000, 4.000000, 4.000000, 4.000000, 4.000000, 4.000000, 4.000000, 4.000000, 4.000000, 4.000000, 4.000000, 4.000000, 4.000000, 4.000000
84.000000, 0.000000, 4254.358887, 4202.563965, 4190.769043, 4203.076660, 4209.230469, 4196.410156, 4203.076660, 4144.615234, 4188.205078, 4222.051270, 4191.281738, 4168.205078, 4111.794922, 4193.846191, 3347.000000, 8195.000000, 8142.000000, 0.000000, 0.000000, 0.000000, -21999.000000, 498.461517, 4.000000, 4.000000, 4.000000, 4.000000, 4.000000, 4.000000, 4.000000, 4.000000, 4.000000, 4.000000, 4.000000, 4.000000, 4.000000, 4.000000, 4.000000, 4.000000
85.000000, 0.000000, 4246.666504, 4204.615234, 4190.256348, 4189.230469, 4216.922852, 4195.897461, 4200.512695, 4146.153809, 4188.717773, 4226.153809, 4172.820313, 4168.717773, 4105.127930, 4193.846191, 3531.000000, 8186.000000, 8127.000000, 0.000000, 0.000000, 0.000000, -21999.000000, 506.153839, 4.000000, 4.000000, 4.000000, 4.000000, 4.000000, 4.000000, 4.000000, 4.000000, 4.000000, 4.000000, 4.000000, 4.000000, 4.000000, 4.000000, 4.000000, 4.000000
86.000000, 0.000000, 4240.512695, 4206.153809, 4187.692383, 4202.051270, 4223.076660, 4189.743652, 4188.205078, 4142.563965, 4188.205078, 4218.974121, 4172.820313, 4169.743652, 4116.410156, 4190.769043, 3545.000000, 8186.000000, 8127.000000, 0.000000, 0.000000, 0.000000, -21999.000000, 513.846130, 4.000000, 4.000000, 4.000000, 4.000000, 4.000000, 4.000000, 4.000000, 4.000000, 4.000000, 4.000000, 4.000000, 4.000000, 4.000000, 4.000000, 4.000000, 4.000000
87.000000, 0.000000, 4236.922852, 4205.127930, 4176.922852, 4189.230469, 4191.794922, 4183.589844, 4190.256348, 4129.230469, 4174.358887, 4194.871582, 4167.179199, 4153.846191, 4122.051270, 4195.384277, 1170.000000, 8191.000000, 8118.000000, 0.000000, 0.000000, 0.000000, -21999.000000, 522.051270, 4.000000, 4.000000, 4.000000, 4.000000, 4.000000, 4.000000, 4.000000, 4.000000, 4.000000, 4.000000, 4.000000, 4.000000, 4.000000, 4.000000, 4.000000, 4.000000
88.000000, 0.000000, 4233.333008, 4208.717773, 4178.974121, 4186.666504, 4187.179199, 4193.333008, 4199.487305, 4130.256348, 4177.436035, 4187.179199, 4163.589844, 4154.358887, 4134.358887, 4192.820313, 3347.000000, 8191.000000, 8118.000000, 0.000000, 0.000000, 0.000000, -21999.000000, 529.743591, 4.000000, 4.000000, 4.000000, 4.000000, 4.000000, 4.000000, 4.000000, 4.000000, 4.000000, 4.000000, 4.000000, 4.000000, 4.000000, 4.000000, 4.000000, 4.000000
89.000000, 0.000000, 4246.153809, 4223.076660, 4189.743652, 4205.127930, 4214.358887, 4201.025391, 4195.384277, 4134.358887, 4190.256348, 4200.512695, 4162.563965, 4164.615234, 4153.846191, 4206.153809, 3531.000000, 8186.000000, 8130.000000, 0.000000, 0.000000, 0.000000, -21999.000000, 537.948730, 4.000000, 4.000000, 4.000000, 4.000000, 4.000000, 4.000000, 4.000000, 4.000000, 4.000000, 4.000000, 4.000000, 4.000000, 4.000000, 4.000000, 4.000000, 4.000000
90.000000, 0.000000, 4238.974121, 4223.076660, 4186.153809, 4202.563965, 4226.666504, 4202.051270, 4195.897461, 4137.948730, 4196.410156, 4208.717773, 4154.358887, 4160.512695, 4160.000000, 4202.051270, 3545.000000, 8186.000000, 8130.000000, 0.000000, 0.000000, 0.000000, -21999.000000, 545.640991, 4.000000, 4.000000, 4.000000, 4.000000, 4.000000, 4.000000, 4.000000, 4.000000, 4.000000, 4.000000, 4.000000, 4.000000, 4.000000, 4.000000, 4.000000, 4.000000
91.000000, 0.000000, 4234.358887, 4230.256348, 4184.102539, 4194.358887, 4217.948730, 4203.076660, 4198.974121, 4136.922852, 4192.307617, 4196.922852, 4149.230469, 4161.025391, 4170.769043, 4194.358887, 1170.000000, 8192.000000, 8132.000000, 0.000000, 0.000000, 0.000000, -21999.000000, 553.846130, 4.000000, 4.000000, 4.000000, 4.000000, 4.000000, 4.000000, 4.000000, 4.000000, 4.000000, 4.000000, 4.000000, 4.000000, 4.000000, 4.000000, 4.000000, 4.000000
92.000000, 0.000000, 4244.615234, 4244.615234, 4190.769043, 4200.000000, 4208.205078, 4196.922852, 4192.820313, 4129.230469, 4186.153809, 4188.205078, 4149.743652, 4171.794922, 4193.846191, 4200.512695, 3347.000000, 8192.000000, 8132.000000, 0.000000, 0.000000, 0.000000, -21999.000000, 561.538452, 4.000000, 4.000000, 4.000000, 4.000000, 4.000000, 4.000000, 4.000000, 4.000000, 4.000000, 4.000000, 4.000000, 4.000000, 4.000000, 4.000000, 4.000000, 4.000000
93.000000, 0.000000, 4232.820313, 4238.461426, 4182.051270, 4200.512695, 4205.127930, 4189.743652, 4189.230469, 4122.051270, 4180.512695, 4191.281738, 4146.153809, 4167.179199, 4202.563965, 4188.717773, 3531.000000, 8201.000000, 8144.000000, 0.000000, 0.000000, 0.000000, -21999.000000, 569.743591, 4.000000, 4.000000, 4.000000, 4.000000, 4.000000, 4.000000, 4.000000, 4.000000, 4.000000, 4.000000, 4.000000, 4.000000, 4.000000, 4.000000, 4.000000, 4.000000
94.000000, 0.000000, 4237.948730, 4252.820313, 4182.563965, 4201.025391, 4216.410156, 4196.922852, 4197.948730, 4124.615234, 4176.410156, 4185.641113, 4143.589844, 4165.641113, 4204.615234, 4198.974121, 3545.000000, 8201.000000, 8144.000000, 0.000000, 0.000000, 0.000000, -21999.000000, 577.435913, 4.000000, 4.000000, 4.000000, 4.000000, 4.000000, 4.000000, 4.000000, 4.000000, 4.000000, 4.000000, 4.000000, 4.000000, 4.000000, 4.000000, 4.000000, 4.000000
95.000000, 0.000000, 4243.076660, 4263.589844, 4194.871582, 4207.179199, 4227.692383, 4208.205078, 4212.307617, 4145.641113, 4188.205078, 4178.974121, 4143.589844, 4176.922852, 4222.051270, 4204.615234, 1170.000000, 8196.000000, 8163.000000, 0.000000, 0.000000, 0.000000, -21999.000000, 585.128174, 4.000000, 4.000000, 4.000000, 4.000000, 4.000000, 4.000000, 4.000000, 4.000000, 4.000000, 4.000000, 4.000000, 4.000000, 4.000000, 4.000000, 4.000000, 4.000000
96.000000, 0.000000, 4232.307617, 4254.358887, 4188.205078, 4198.461426, 4206.153809, 4204.102539, 4219.487305, 4155.897461, 4198.974121, 4180.000000, 4135.384277, 4173.846191, 4234.871582, 4195.384277, 3347.000000, 8196.000000, 8163.000000, 0.000000, 0.000000, 0.000000, -21999.000000, 592.820496, 4.000000, 4.000000, 4.000000, 4.000000, 4.000000, 4.000000, 4.000000, 4.000000, 4.000000, 4.000000, 4.000000, 4.000000, 4.000000, 4.000000, 4.000000, 4.000000
97.000000, 0.000000, 4240.000000, 4262.051270, 4188.205078, 4196.410156, 4196.410156, 4198.461426, 4208.717773, 4142.051270, 4194.871582, 4186.153809, 4134.871582, 4172.307617, 4243.076660, 4204.102539, 3531.000000, 8207.000000, 8146.000000, 0.000000, 0.000000, 0.000000, -21999.000000, 601.025635, 4.000000, 4.000000, 4.000000, 4.000000, 4.000000, 4.000000, 4.000000, 4.000000, 4.000000, 4.000000, 4.000000, 4.000000, 4.000000, 4.000000, 4.000000, 4.000000
98.000000, 0.000000, 4240.000000, 4276.922852, 4194.871582, 4206.153809, 4224.615234, 4203.589844, 4197.436035, 4136.922852, 4191.794922, 4190.769043, 4143.589844, 4185.641113, 4263.076660, 4198.461426, 3545.000000, 8207.000000, 8146.000000, 0.000000, 0.000000, 0.000000, -21999.000000, 608.717957, 4.000000, 4.000000, 4.000000, 4.000000, 4.000000, 4.000000, 4.000000, 4.000000, 4.000000, 4.000000, 4.000000, 4.000000, 4.000000, 4.000000, 4.000000, 4.000000
99.000000, 0.000000, 4241.538574, 4288.717773, 4192.820313, 4206.666504, 4232.820313, 4208.205078, 4202.563965, 4144.102539, 4190.256348, 4185.127930, 4137.948730, 4183.589844, 4276.922852, 4199.487305, 1170.000000, 8214.000000, 8141.000000, 0.000000, 0.000000, 0.000000, -21999.000000, 616.410217, 4.000000, 4.000000, 4.000000, 4.000000, 4.000000, 4.000000, 4.000000, 4.000000, 4.000000, 4.000000, 4.000000, 4.000000, 4.000000, 4.000000, 4.000000, 4.000000
100.000000, 0.000000, 4235.384277, 4285.127930, 4184.102539, 4200.000000, 4219.487305, 4210.769043, 4207.179199, 4147.692383, 4190.256348, 4183.076660, 4127.692383, 4170.769043, 4276.410156, 4196.922852, 3347.000000, 8214.000000, 8141.000000, 0.000000, 0.000000, 0.000000, -21999.000000, 624.615356, 4.000000, 4.000000, 4.000000, 4.000000, 4.000000, 4.000000, 4.000000, 4.000000, 4.000000, 4.000000, 4.000000, 4.000000, 4.000000, 4.000000, 4.000000, 4.000000
101.000000, 0.000000, 4223.076660, 4283.076660, 4180.512695, 4195.897461, 4217.436035, 4215.384277, 4207.692383, 4149.743652, 4193.846191, 4184.102539, 4122.051270, 4169.230469, 4274.871582, 4190.256348, 3531.000000, 8219.000000, 8171.000000, 0.000000, 0.000000, 0.000000, -21999.000000, 632.307678, 4.000000, 4.000000, 4.000000, 4.000000, 4.000000, 4.000000, 4.000000, 4.000000, 4.000000, 4.000000, 4.000000, 4.000000, 4.000000, 4.000000, 4.000000, 4.000000
102.000000, 0.000000, 4232.820313, 4298.461426, 4190.256348, 4201.025391, 4219.487305, 4212.307617, 4203.076660, 4153.846191, 4194.871582, 4184.102539, 4124.102539, 4172.820313, 4286.666504, 4203.076660, 3545.000000, 8219.000000, 8171.000000, 0.000000, 0.000000, 0.000000, -21999.000000, 640.000000, 4.000000, 4.000000, 4.000000, 4.000000, 4.000000, 4.000000, 4.000000, 4.000000, 4.000000, 4.000000, 4.000000, 4.000000, 4.000000, 4.000000, 4.000000, 4.000000
103.000000, 0.000000, 4231.281738, 4295.384277, 4194.871582, 4203.589844, 4221.025391, 4203.076660, 4200.512695, 4156.922852, 4195.384277, 4189.743652, 4128.717773, 4172.307617, 4303.076660, 4195.384277, 1170.000000, 8218.000000, 8182.000000, 0.000000, 0.000000, 0.000000, -21999.000000, 648.205139, 4.000000, 4.000000, 4.000000, 4.000000, 4.000000, 4.000000, 4.000000, 4.000000, 4.000000, 4.000000, 4.000000, 4.000000, 4.000000, 4.000000, 4.000000, 4.000000
104.000000, 0.000000, 4224.615234, 4292.307617, 4186.153809, 4187.692383, 4213.846191, 4199.487305, 4204.615234, 4157.436035, 4192.307617, 4184.615234, 4120.000000, 4168.717773, 4295.384277, 4193.333008, 3347.000000, 8218.000000, 8182.000000, 0.000000, 0.000000, 0.000000, -21999.000000, 655.897400, 4.000000, 4.000000, 4.000000, 4.000000, 4.000000, 4.000000, 4.000000, 4.000000, 4.000000, 4.000000, 4.000000, 4.000000, 4.000000, 4.000000, 4.000000, 4.000000
105.000000, 0.000000, 4215.897461, 4296.410156, 4177.436035, 4182.051270, 4200.512695, 4200.512695, 4202.051270, 4163.076660, 4192.820313, 4173.846191, 4119.487305, 4168.717773, 4290.256348, 4195.384277, 3531.000000, 8210.000000, 8173.000000, 0.000000, 0.000000, 0.000000, -21999.000000, 664.102539, 4.000000, 4.000000, 4.000000, 4.000000, 4.000000, 4.000000, 4.000000, 4.000000, 4.000000, 4.000000, 4.000000, 4.000000, 4.000000, 4.000000, 4.000000, 4.000000
106.000000, 0.000000, 4210.769043, 4298.974121, 4180.512695, 4197.436035, 4206.666504, 4201.025391, 4198.461426, 4170.256348, 4197.948730, 4181.538574, 4127.692383, 4168.205078, 4302.051270, 4188.717773, 3545.000000, 8210.000000, 8173.000000, 0.000000, 0.000000, 0.000000, -21999.000000, 671.794861, 4.000000, 4.000000, 4.000000, 4.000000, 4.000000, 4.000000, 4.000000, 4.000000, 4.000000, 4.000000, 4.000000, 4.000000, 4.000000, 4.000000, 4.000000, 4.000000
107.000000, 0.000000, 4215.384277, 4303.076660, 4185.127930, 4198.461426, 4217.948730, 4201.025391, 4210.769043, 4167.692383, 4196.410156, 4185.641113, 4115.384277, 4163.076660, 4297.948730, 4196.410156, 1170.000000, 8203.000000, 8175.000000, 0.000000, 0.000000, 0.000000, -21999.000000, 679.487183, 4.000000, 4.000000, 4.000000, 4.000000, 4.000000, 4.000000, 4.000000, 4.000000, 4.000000, 4.000000, 4.000000, 4.000000, 4.000000, 4.000000, 4.000000, 4.000000
108.000000, 0.000000, 4204.102539, 4301.538574, 4177.948730, 4189.230469, 4211.281738, 4205.127930, 4211.794922, 4158.974121, 4193.333008, 4173.846191, 4107.692383, 4163.076660, 4292.307617, 4190.769043, 3347.000000, 8203.000000, 8175.000000, 0.000000, 0.000000, 0.000000, -21999.000000, 687.692261, 4.000000, 4.000000, 4.000000, 4.000000, 4.000000, 4.000000, 4.000000, 4.000000, 4.000000, 4.000000, 4.000000, 4.000000, 4.000000, 4.000000, 4.000000, 4.000000
109.000000, 0.000000, 4212.820313, 4314.358887, 4182.563965, 4198.974121, 4211.794922, 4208.717773, 4197.948730, 4157.436035, 4192.820313, 4173.846191, 4122.563965, 4169.743652, 4302.563965, 4197.436035, 3531.000000, 8197.000000, 8180.000000, 0.000000, 0.000000, 0.000000, -21999.000000, 695.384583, 4.000000, 4.000000, 4.000000, 4.000000, 4.000000, 4.000000, 4.000000, 4.000000, 4.000000, 4.000000, 4.000000, 4.000000, 4.000000, 4.000000, 4.000000, 4.000000
110.000000, 0.000000, 4214.871582, 4313.846191, 4188.205078, 4202.051270, 4220.512695, 4206.666504, 4193.846191, 4160.512695, 4191.794922, 4185.127930, 4121.538574, 4169.230469, 4306.153809, 4200.000000, 3545.000000, 8197.000000, 8180.000000, 0.000000, 0.000000, 0.000000, -21999.000000, 703.076904, 4.000000, 4.000000, 4.000000, 4.000000, 4.000000, 4.000000, 4.000000, 4.000000, 4.000000, 4.000000, 4.000000, 4.000000, 4.000000, 4.000000, 4.000000, 4.000000
111.000000, 0.000000, 4196.410156, 4300.512695, 4178.461426, 4188.205078, 4205.641113, 4202.051270, 4197.436035, 4159.487305, 4185.641113, 4190.256348, 4109.743652, 4168.205078, 4303.076660, 4186.153809, 1170.000000, 8196.000000, 8173.000000, 0.000000, 0.000000, 0.000000, -21999.000000, 711.282043, 4.000000, 4.000000, 4.000000, 4.000000, 4.000000, 4.000000, 4.000000, 4.000000, 4.000000, 4.000000, 4.000000, 4.000000, 4.000000, 4.000000, 4.000000, 4.000000
112.000000, 0.000000, 4198.974121, 4308.717773, 4178.461426, 4184.102539, 4192.307617, 4199.487305, 4200.000000, 4155.897461, 4182.051270, 4188.205078, 4109.230469, 4168.205078, 4306.153809, 4196.410156, 3347.000000, 8196.000000, 8173.000000, 0.000000, 0.000000, 0.000000, -21999.000000, 718.974365, 4.000000, 4.000000, 4.000000, 4.000000, 4.000000, 4.000000, 4.000000, 4.000000, 4.000000, 4.000000, 4.000000, 4.000000, 4.000000, 4.000000, 4.000000, 4.000000
113.000000, 0.000000, 4189.230469, 4302.563965, 4177.436035, 4186.666504, 4201.538574, 4194.358887, 4194.358887, 4154.358887, 4182.563965, 4183.589844, 4107.179199, 4157.436035, 4305.127930, 4192.820313, 3531.000000, 8194.000000, 8173.000000, 0.000000, 0.000000, 0.000000, -21999.000000, 727.179443, 4.000000, 4.000000, 4.000000, 4.000000, 4.000000, 4.000000, 4.000000, 4.000000, 4.000000, 4.000000, 4.000000, 4.000000, 4.000000, 4.000000, 4.000000, 4.000000
114.000000, 0.000000, 4187.179199, 4292.307617, 4173.333008, 4184.615234, 4205.641113, 4192.820313, 4195.384277, 4161.538574, 4188.205078, 4180.000000, 4106.666504, 4155.897461, 4304.102539, 4192.307617, 3545.000000, 8194.000000, 8173.000000, 0.000000, 0.000000, 0.000000, -21999.000000, 734.871765, 4.000000, 4.000000, 4.000000, 4.000000, 4.000000, 4.000000, 4.000000, 4.000000, 4.000000, 4.000000, 4.000000, 4.000000, 4.000000, 4.000000, 4.000000, 4.000000
115.000000, 0.000000, 4191.281738, 4291.281738, 4176.922852, 4184.102539, 4201.025391, 4200.512695, 4209.230469, 4180.000000, 4203.076660, 4185.127930, 4121.538574, 4168.717773, 4313.333008, 4198.461426, 1170.000000, 8192.000000, 8185.000000, 0.000000, 0.000000, 0.000000, -21999.000000, 742.564087, 4.000000, 4.000000, 4.000000, 4.000000, 4.000000, 4.000000, 4.000000, 4.000000, 4.000000, 4.000000, 4.000000, 4.000000, 4.000000, 4.000000, 4.000000, 4.000000
116.000000, 0.000000, 4180.512695, 4288.717773, 4181.025391, 4185.127930, 4203.076660, 4196.922852, 4213.846191, 4188.717773, 4209.743652, 4195.384277, 4128.717773, 4171.281738, 4323.076660, 4187.692383, 3347.000000, 8192.000000, 8185.000000, 0.000000, 0.000000, 0.000000, -21999.000000, 750.256409, 4.000000, 4.000000, 4.000000, 4.000000, 4.000000, 4.000000, 4.000000, 4.000000, 4.000000, 4.000000, 4.000000, 4.000000, 4.000000, 4.000000, 4.000000, 4.000000
117.000000, 0.000000, 4188.717773, 4296.410156, 4189.230469, 4187.692383, 4204.615234, 4185.641113, 4204.102539, 4181.025391, 4204.102539, 4198.974121, 4122.051270, 4169.743652, 4324.102539, 4194.358887, 3531.000000, 8199.000000, 8175.000000, 0.000000, 0.000000, 0.000000, -21999.000000, 758.461548, 4.000000, 4.000000, 4.000000, 4.000000, 4.000000, 4.000000, 4.000000, 4.000000, 4.000000, 4.000000, 4.000000, 4.000000, 4.000000, 4.000000, 4.000000, 4.000000
118.000000, 0.000000, 4184.102539, 4289.230469, 4190.769043, 4188.717773, 4190.769043, 4185.127930, 4196.410156, 4173.846191, 4201.025391, 4195.897461, 4123.076660, 4170.769043, 4317.436035, 4190.769043, 3545.000000, 8199.000000, 8175.000000, 0.000000, 0.000000, 0.000000, -21999.000000, 766.153809, 4.000000, 4.000000, 4.000000, 4.000000, 4.000000, 4.000000, 4.000000, 4.000000, 4.000000, 4.000000, 4.000000, 4.000000, 4.000000, 4.000000, 4.000000, 4.000000
119.000000, 0.000000, 4177.948730, 4284.615234, 4191.794922, 4187.179199, 4184.102539, 4186.153809, 4198.461426, 4170.256348, 4199.487305, 4192.307617, 4127.179199, 4170.256348, 4314.871582, 4192.307617, 1170.000000, 8210.000000, 8139.000000, 0.000000, 0.000000, 0.000000, -21999.000000, 774.358948, 4.000000, 4.000000, 4.000000, 4.000000, 4.000000, 4.000000, 4.000000, 4.000000, 4.000000, 4.000000, 4.000000, 4.000000, 4.000000, 4.000000, 4.000000, 4.000000
120.000000, 0.000000, 4189.743652, 4295.384277, 4200.000000, 4192.820313, 4198.461426, 4186.153809, 4192.820313, 4164.102539, 4196.922852, 4198.461426, 4125.641113, 4176.410156, 4327.692383, 4202.563965, 3347.000000, 8210.000000, 8139.000000, 0.000000, 0.000000, 0.000000, -21999.000000, 782.051270, 4.000000, 4.000000, 4.000000, 4.000000, 4.000000, 4.000000, 4.000000, 4.000000, 4.000000, 4.000000, 4.000000, 4.000000, 4.000000, 4.000000, 4.000000, 4.000000
121.000000, 0.000000, 4190.769043, 4295.897461, 4198.974121, 4200.512695, 4208.717773, 4187.179199, 4187.692383, 4162.051270, 4194.358887, 4206.666504, 4129.230469, 4181.538574, 4342.563965, 4189.743652, 3531.000000, 8213.000000, 8152.000000, 0.000000, 0.000000, 0.000000, -21999.000000, 790.256409, 4.000000, 4.000000, 4.000000, 4.000000, 4.000000, 4.000000, 4.000000, 4.000000, 4.000000, 4.000000, 4.000000, 4.000000, 4.000000, 4.000000, 4.000000, 4.000000
122.000000, 0.000000, 4195.384277, 4294.871582, 4196.410156, 4200.000000, 4203.076660, 4184.102539, 4195.384277, 4162.051270, 4187.179199, 4199.487305, 4131.281738, 4176.922852, 4342.051270, 4196.922852, 3545.000000, 8213.000000, 8152.000000, 0.000000, 0.000000, 0.000000, -21999.000000, 797.948669, 4.000000, 4.000000, 4.000000, 4.000000, 4.000000, 4.000000, 4.000000, 4.000000, 4.000000, 4.000000, 4.000000, 4.000000, 4.000000, 4.000000, 4.000000, 4.000000
123.000000, 0.000000, 4191.281738, 4289.230469, 4198.974121, 4197.436035, 4204.102539, 4189.743652, 4203.076660, 4167.179199, 4188.717773, 4189.743652, 4133.846191, 4176.410156, 4343.589844, 4203.076660, 1170.000000, 8213.000000, 8159.000000, 0.000000, 0.000000, 0.000000, -21999.000000, 805.640991, 4.000000, 4.000000, 4.000000, 4.000000, 4.000000, 4.000000, 4.000000, 4.000000, 4.000000, 4.000000, 4.000000, 4.000000, 4.000000, 4.000000, 4.000000, 4.000000
124.000000, 0.000000, 4188.717773, 4289.743652, 4201.538574, 4198.461426, 4205.641113, 4201.538574, 4197.948730, 4172.820313, 4200.512695, 4191.794922, 4135.897461, 4178.974121, 4345.127930, 4199.487305, 3347.000000, 8213.000000, 8159.000000, 0.000000, 0.000000, 0.000000, -21999.000000, 813.333313, 4.000000, 4.000000, 4.000000, 4.000000, 4.000000, 4.000000, 4.000000, 4.000000, 4.000000, 4.000000, 4.000000, 4.000000, 4.000000, 4.000000, 4.000000, 4.000000
125.000000, 0.000000, 4193.333008, 4291.794922, 4195.897461, 4200.000000, 4193.846191, 4196.410156, 4188.205078, 4174.871582, 4200.000000, 4200.000000, 4137.436035, 4178.461426, 4342.563965, 4200.000000, 3531.000000, 8208.000000, 8150.000000, 0.000000, 0.000000, 0.000000, -21999.000000, 821.538452, 4.000000, 4.000000, 4.000000, 4.000000, 4.000000, 4.000000, 4.000000, 4.000000, 4.000000, 4.000000, 4.000000, 4.000000, 4.000000, 4.000000, 4.000000, 4.000000
126.000000, 0.000000, 4185.641113, 4283.076660, 4188.717773, 4203.076660, 4203.076660, 4192.820313, 4186.666504, 4174.871582, 4195.384277, 4204.615234, 4147.179199, 4178.974121, 4345.127930, 4191.281738, 3545.000000, 8208.000000, 8150.000000, 0.000000, 0.000000, 0.000000, -21999.000000, 829.230774, 4.000000, 4.000000, 4.000000, 4.000000, 4.000000, 4.000000, 4.000000, 4.000000, 4.000000, 4.000000, 4.000000, 4.000000, 4.000000, 4.000000, 4.000000, 4.000000
127.000000, 0.000000, 4192.307617, 4288.205078, 4193.333008, 4202.051270, 4220.512695, 4201.025391, 4190.769043, 4168.717773, 4196.922852, 4200.000000, 4154.871582, 4180.000000, 4347.692383, 4205.127930, 54.000000, 8208.000000, 8147.000000, 0.000000, 0.000000, 0.000000, -21999.000000, 837.435852, 4.000000, 4.000000, 4.000000, 4.000000, 4.000000, 4.000000, 4.000000, 4.000000, 4.000000, 4.000000, 4.000000, 4.000000, 4.000000, 4.000000, 4.000000, 4.000000
0.000000, 0.000000, 4186.666504, 4283.589844, 4190.256348, 4198.461426, 4212.820313, 4197.948730, 4188.205078, 4161.538574, 4191.794922, 4194.871582, 4149.743652, 4174.358887, 4344.615234, 4204.102539, 3339.000000, 8208.000000, 8147.000000, 0.000000, 0.000000, 0.000000, -21999.000000, 845.128174, 4.000000, 4.000000, 4.000000, 4.000000, 4.000000, 4.000000, 4.000000, 4.000000, 4.000000, 4.000000, 4.000000, 4.000000, 4.000000, 4.000000, 4.000000, 4.000000
1.000000, 0.000000, 4178.461426, 4282.563965, 4182.051270, 4198.974121, 4203.589844, 4191.794922, 4189.743652, 4161.538574, 4186.153809, 4192.307617, 4143.076660, 4169.230469, 4336.922852, 4191.281738, 3502.000000, 8202.000000, 8153.000000, 0.000000, 0.000000, 0.000000, -21999.000000, 852.820496, 4.000000, 4.000000, 4.000000, 4.000000, 4.000000, 4.000000, 4.000000, 4.000000, 4.000000, 4.000000, 4.000000, 4.000000, 4.000000, 4.000000, 4.000000, 4.000000
2.000000, 0.000000, 4187.179199, 4287.179199, 4187.179199, 4193.846191, 4209.743652, 4194.871582, 4195.384277, 4166.153809, 4192.307617, 4192.820313, 4149.743652, 4169.230469, 4337.436035, 4197.948730, 2767.000000, 8202.000000, 8153.000000, 0.000000, 0.000000, 0.000000, -21999.000000, 860.512817, 4.000000, 4.000000, 4.000000, 4.000000, 4.000000, 4.000000, 4.000000, 4.000000, 4.000000, 4.000000, 4.000000, 4.000000, 4.000000, 4.000000, 4.000000, 4.000000
3.000000, 0.000000, 4178.974121, 4273.846191, 4187.179199, 4186.666504, 4216.410156, 4197.436035, 4193.846191, 4177.948730, 4202.563965, 4203.076660, 4160.000000, 4171.794922, 4348.205078, 4192.307617, 2000.000000, 8205.000000, 8144.000000, 0.000000, 0.000000, 0.000000, -21999.000000, 868.717957, 4.000000, 4.000000, 4.000000, 4.000000, 4.000000, 4.000000, 4.000000, 4.000000, 4.000000, 4.000000, 4.000000, 4.000000, 4.000000, 4.000000, 4.000000, 4.000000
4.000000, 0.000000, 4177.436035, 4273.846191, 4178.461426, 4186.666504, 4202.563965, 4196.922852, 4193.333008, 4179.487305, 4200.000000, 4198.461426, 4153.846191, 4167.179199, 4345.127930, 4194.871582, 3521.000000, 8205.000000, 8144.000000, 0.000000, 0.000000, 0.000000, -21999.000000, 876.410217, 4.000000, 4.000000, 4.000000, 4.000000, 4.000000, 4.000000, 4.000000, 4.000000, 4.000000, 4.000000, 4.000000, 4.000000, 4.000000, 4.000000, 4.000000, 4.000000
5.000000, 0.000000, 4168.717773, 4270.256348, 4167.179199, 4182.563965, 4180.000000, 4192.307617, 4193.846191, 4163.589844, 4189.743652, 4173.333008, 4142.051270, 4152.307617, 4329.743652, 4188.717773, 3550.000000, 8206.000000, 8148.000000, 0.000000, 0.000000, 0.000000, -21999.000000, 884.615356, 4.000000, 4.000000, 4.000000, 4.000000, 4.000000, 4.000000, 4.000000, 4.000000, 4.000000, 4.000000, 4.000000, 4.000000, 4.000000, 4.000000, 4.000000, 4.000000
6.000000, 0.000000, 4160.000000, 4263.589844, 4164.615234, 4178.461426, 4180.512695, 4182.051270, 4189.743652, 4163.589844, 4188.205078, 4168.717773, 4142.051270, 4148.717773, 4324.102539, 4183.076660, 3052.000000, 8206.000000, 8148.000000, 0.000000, 0.000000, 0.000000, -21999.000000, 892.307678, 4.000000, 4.000000, 4.000000, 4.000000, 4.000000, 4.000000, 4.000000, 4.000000, 4.000000, 4.000000, 4.000000, 4.000000, 4.000000, 4.000000, 4.000000, 4.000000
7.000000, 0.000000, 4173.333008, 4272.307617, 4176.410156, 4184.102539, 4202.563965, 4183.076660, 4190.769043, 4178.974121, 4198.461426, 4183.589844, 4153.846191, 4160.512695, 4330.769043, 4197.948730, 3515.000000, 8201.000000, 8148.000000, 0.000000, 0.000000, 0.000000, -21999.000000, 900.000000, 4.000000, 4.000000, 4.000000, 4.000000, 4.000000, 4.000000, 4.000000, 4.000000, 4.000000, 4.000000, 4.000000, 4.000000, 4.000000, 4.000000, 4.000000, 4.000000
8.000000, 0.000000, 4168.205078, 4268.205078, 4176.922852, 4183.076660, 4208.717773, 4193.846191, 4196.410156, 4180.000000, 4203.076660, 4180.000000, 4165.641113, 4165.641113, 4340.000000, 4189.743652, 3516.000000, 8201.000000, 8148.000000, 0.000000, 0.000000, 0.000000, -21999.000000, 907.692261, 4.000000, 4.000000, 4.000000, 4.000000, 4.000000, 4.000000, 4.000000, 4.000000, 4.000000, 4.000000, 4.000000, 4.000000, 4.000000, 4.000000, 4.000000, 4.000000
9.000000, 0.000000, 4169.743652, 4267.692383, 4178.461426, 4175.384277, 4195.897461, 4188.717773, 4192.307617, 4172.307617, 4197.436035, 4169.743652, 4170.256348, 4167.179199, 4344.102539, 4195.384277, 3540.000000, 8200.000000, 8154.000000, 0.000000, 0.000000, 0.000000, -21999.000000, 915.897400, 4.000000, 4.000000, 4.000000, 4.000000, 4.000000, 4.000000, 4.000000, 4.000000, 4.000000, 4.000000, 4.000000, 4.000000, 4.000000, 4.000000, 4.000000, 4.000000
10.000000, 0.000000, 4178.974121, 4272.820313, 4190.769043, 4184.102539, 4199.487305, 4183.076660, 4187.179199, 4181.538574, 4204.102539, 4182.563965, 4177.948730, 4179.487305, 4346.153809, 4205.641113, 3536.000000, 8200.000000, 8154.000000, 0.000000, 0.000000, 0.000000, -21999.000000, 923.589722, 4.000000, 4.000000, 4.000000, 4.000000, 4.000000, 4.000000, 4.000000, 4.000000, 4.000000, 4.000000, 4.000000, 4.000000, 4.000000, 4.000000, 4.000000, 4.000000
11.000000, 0.000000, 4181.538574, 4275.384277, 4195.384277, 4194.871582, 4206.153809, 4194.871582, 4193.846191, 4191.794922, 4214.871582, 4196.410156, 4186.666504, 4189.743652, 4349.743652, 4195.384277, 1164.000000, 8199.000000, 8151.000000, 0.000000, 0.000000, 0.000000, -21999.000000, 931.282043, 4.000000, 4.000000, 4.000000, 4.000000, 4.000000, 4.000000, 4.000000, 4.000000, 4.000000, 4.000000, 4.000000, 4.000000, 4.000000, 4.000000, 4.000000, 4.000000
12.000000, 0.000000, 4187.692383, 4278.461426, 4197.436035, 4194.358887, 4191.281738, 4200.000000, 4198.974121, 4184.615234, 4208.717773, 4190.769043, 4185.641113, 4186.153809, 4347.692383, 4197.436035, 3465.000000, 8199.000000, 8151.000000, 0.000000, 0.000000, 0.000000, -21999.000000, 939.487183, 4.000000, 4.000000, 4.000000, 4.000000, 4.000000, 4.000000, 4.000000, 4.000000, 4.000000, 4.000000, 4.000000, 4.000000, 4.000000, 4.000000, 4.000000, 4.000000
13.000000, 0.000000, 4180.512695, 4272.307617, 4198.974121, 4195.897461, 4189.230469, 4194.871582, 4194.871582, 4177.948730, 4198.461426, 4183.589844, 4180.000000, 4182.051270, 4338.974121, 4191.794922, 3454.000000, 8196.000000, 8156.000000, 0.000000, 0.000000, 0.000000, -21999.000000, 947.179443, 4.000000, 4.000000, 4.000000, 4.000000, 4.000000, 4.000000, 4.000000, 4.000000, 4.000000, 4.000000, 4.000000, 4.000000, 4.000000, 4.000000, 4.000000, 4.000000
14.000000, 0.000000, 4187.692383, 4278.461426, 4205.641113, 4205.127930, 4212.820313, 4197.948730, 4194.871582, 4180.512695, 4196.410156, 4184.102539, 4179.487305, 4188.205078, 4334.358887, 4196.410156, 3536.000000, 8196.000000, 8156.000000, 0.000000, 0.000000, 0.000000, -21999.000000, 954.871765, 4.000000, 4.000000, 4.000000, 4.000000, 4.000000, 4.000000, 4.000000, 4.000000, 4.000000, 4.000000, 4.000000, 4.000000, 4.000000, 4.000000, 4.000000, 4.000000
15.000000, 0.000000, 4196.410156, 4283.589844, 4211.281738, 4210.769043, 4221.538574, 4198.974121, 4193.333008, 4183.076660, 4197.436035, 4189.743652, 4186.666504, 4191.281738, 4335.897461, 4201.025391, 1164.000000, 8208.000000, 8153.000000, 0.000000, 0.000000, 0.000000, -21999.000000, 963.076904, 4.000000, 4.000000, 4.000000, 4.000000, 4.000000, 4.000000, 4.000000, 4.000000, 4.000000, 4.000000, 4.000000, 4.000000, 4.000000, 4.000000, 4.000000, 4.000000
16.000000, 0.000000, 4189.230469, 4277.948730, 4207.692383, 4206.666504, 4204.615234, 4194.871582, 4189.743652, 4180.000000, 4195.897461, 4190.769043, 4188.717773, 4188.717773, 4333.846191, 4191.794922, 0.000000, 8208.000000, 8153.000000, 0.000000, 0.000000, 0.000000, -21999.000000, 970.769226, 4.000000, 4.000000, 4.000000, 4.000000, 4.000000, 4.000000, 4.000000, 4.000000, 4.000000, 4.000000, 4.000000, 4.000000, 4.000000, 4.000000, 4.000000, 4.000000
17.000000, 0.000000, 4191.794922, 4276.410156, 4203.076660, 4199.487305, 4196.922852, 4191.794922, 4192.307617, 4173.333008, 4189.743652, 4180.000000, 4180.000000, 4185.641113, 4324.102539, 4197.948730, 0.000000, 8203.000000, 8153.000000, 0.000000, 0.000000, 0.000000, -21999.000000, 978.974365, 4.000000, 4.000000, 4.000000, 4.000000, 4.000000, 4.000000, 4.000000, 4.000000, 4.000000, 4.000000, 4.000000, 4.000000, 4.000000, 4.000000, 4.000000, 4.000000
18.000000, 0.000000, 4182.563965, 4266.666504, 4198.974121, 4199.487305, 4206.666504, 4189.743652, 4195.384277, 4171.794922, 4187.179199, 4179.487305, 4175.897461, 4184.615234, 4317.948730, 4192.307617, 0.000000, 8203.000000, 8153.000000, 0.000000, 0.000000, 0.000000, -21999.000000, 986.666626, 4.000000, 4.000000, 4.000000, 4.000000, 4.000000, 4.000000, 4.000000, 4.000000, 4.000000, 4.000000, 4.000000, 4.000000, 4.000000, 4.000000, 4.000000, 4.000000
19.000000, 0.000000, 4184.102539, 4268.205078, 4201.025391, 4202.051270, 4206.153809, 4194.871582, 4198.974121, 4178.461426, 4191.794922, 4193.333008, 4180.512695, 4186.153809, 4314.358887, 4192.820313, 0.000000, 8201.000000, 8150.000000, 0.000000, 0.000000, 0.000000, -21999.000000, 994.871765, 4.000000, 4.000000, 4.000000, 4.000000, 4.000000, 4.000000, 4.000000, 4.000000, 4.000000, 4.000000, 4.000000, 4.000000, 4.000000, 4.000000, 4.000000, 4.000000
20.000000, 0.000000, 4185.641113, 4269.743652, 4200.512695, 4198.974121, 4190.256348, 4196.922852, 4196.922852, 4180.000000, 4192.820313, 4196.922852, 4181.538574, 4184.615234, 4307.179199, 4195.384277, 0.000000, 8201.000000, 8150.000000, 0.000000, 0.000000, 0.000000, -21998.000000, 2.564102, 4.000000, 4.000000, 4.000000, 4.000000, 4.000000, 4.000000, 4.000000, 4.000000, 4.000000, 4.000000, 4.000000, 4.000000, 4.000000, 4.000000, 4.000000, 4.000000
21.000000, 0.000000, 4174.871582, 4262.563965, 4194.871582, 4199.487305, 4190.769043, 4193.846191, 4190.769043, 4174.358887, 4192.307617, 4192.820313, 4179.487305, 4180.512695, 4300.512695, 4186.153809, 0.000000, 8198.000000, 8150.000000, 0.000000, 0.000000, 0.000000, -21998.000000, 10.256410, 4.000000, 4.000000, 4.000000, 4.000000, 4.000000, 4.000000, 4.000000, 4.000000, 4.000000, 4.000000, 4.000000, 4.000000, 4.000000, 4.000000, 4.000000, 4.000000
22.000000, 0.000000, 4187.179199, 4271.281738, 4203.589844, 4206.666504, 4210.769043, 4193.846191, 4191.794922, 4173.333008, 4192.820313, 4190.769043, 4184.102539, 4185.127930, 4298.974121, 4197.948730, 0.000000, 8198.000000, 8150.000000, 0.000000, 0.000000, 0.000000, -21998.000000, 18.461538, 4.000000, 4.000000, 4.000000, 4.000000, 4.000000, 4.000000, 4.000000, 4.000000, 4.000000, 4.000000, 4.000000, 4.000000, 4.000000, 4.000000, 4.000000, 4.000000
23.000000, 0.000000, 4186.666504, 4267.179199, 4211.281738, 4210.769043, 4216.410156, 4194.871582, 4192.307617, 4177.948730, 4192.820313, 4192.820313, 4189.743652, 4190.769043, 4298.461426, 4197.436035, 0.000000, 8196.000000, 8151.000000, 0.000000, 0.000000, 0.000000, -21998.000000, 26.666666, 4.000000, 4.000000, 4.000000, 4.000000, 4.000000, 4.000000, 4.000000, 4.000000, 4.000000, 4.000000, 4.000000, 4.000000, 4.000000, 4.000000, 4.000000, 4.000000
24.000000, 0.000000, 4185.641113, 4263.589844, 4210.256348, 4213.333008, 4204.102539, 4190.769043, 4187.179199, 4177.948730, 4192.820313, 4194.358887, 4192.820313, 4189.743652, 4293.846191, 4196.922852, 0.000000, 8196.000000, 8151.000000, 0.000000, 0.000000, 0.000000, -21998.000000, 34.358974, 4.000000, 4.000000, 4.000000, 4.000000, 4.000000, 4.000000, 4.000000, 4.000000, 4.000000, 4.000000, 4.000000, 4.000000, 4.000000, 4.000000, 4.000000, 4.000000
25.000000, 0.000000, 4192.307617, 4265.641113, 4211.281738, 4211.794922, 4201.538574, 4191.794922, 4189.230469, 4175.384277, 4195.384277, 4193.846191, 4195.384277, 4189.743652, 4290.769043, 4202.563965, 0.000000, 8191.000000, 8153.000000, 0.000000, 0.000000, 0.000000, -21998.000000, 42.051281, 4.000000, 4.000000, 4.000000, 4.000000, 4.000000, 4.000000, 4.000000, 4.000000, 4.000000, 4.000000, 4.000000, 4.000000, 4.000000, 4.000000, 4.000000, 4.000000
26.000000, 0.000000, 4176.922852, 4251.794922, 4201.025391, 4202.563965, 4203.076660, 4194.871582, 4196.922852, 4172.307617, 4195.897461, 4186.666504, 4188.717773, 4183.589844, 4283.589844, 4188.717773, 0.000000, 8191.000000, 8153.000000, 0.000000, 0.000000, 0.000000, -21998.000000, 49.743587, 4.000000, 4.000000, 4.000000, 4.000000, 4.000000, 4.000000, 4.000000, 4.000000, 4.000000, 4.000000, 4.000000, 4.000000, 4.000000, 4.000000, 4.000000, 4.000000
27.000000, 0.000000, 4176.410156, 4248.205078, 4191.794922, 4195.384277, 4198.974121, 4193.846191, 4191.281738, 4169.230469, 4192.307617, 4181.025391, 4180.512695, 4171.794922, 4272.307617, 4193.846191, 0.000000, 8188.000000, 8159.000000, 0.000000, 0.000000, 0.000000, -21998.000000, 57.948715, 4.000000, 4.000000, 4.000000, 4.000000, 4.000000, 4.000000, 4.000000, 4.000000, 4.000000, 4.000000, 4.000000, 4.000000, 4.000000, 4.000000, 4.000000, 4.000000
28.000000, 0.000000, 4180.512695, 4246.666504, 4197.436035, 4201.025391, 4196.922852, 4195.897461, 4183.076660, 4175.384277, 4194.358887, 4190.256348, 4188.205078, 4171.281738, 4271.281738, 4196.410156, 0.000000, 8188.000000, 8159.000000, 0.000000, 0.000000, 0.000000, -21998.000000, 65.641022, 4.000000, 4.000000, 4.000000, 4.000000, 4.000000, 4.000000, 4.000000, 4.000000, 4.000000, 4.000000, 4.000000, 4.000000, 4.000000, 4.000000, 4.000000, 4.000000
29.000000, 0.000000, 4178.974121, 4241.538574, 4202.563965, 4204.615234, 4192.820313, 4190.769043, 4185.127930, 4172.820313, 4191.794922, 4188.717773, 4187.692383, 4173.333008, 4264.102539, 4194.358887, 0.000000, 8182.000000, 8173.000000, 0.000000, 0.000000, 0.000000, -21998.000000, 73.846153, 4.000000, 4.000000, 4.000000, 4.000000, 4.000000, 4.000000, 4.000000, 4.000000, 4.000000, 4.000000, 4.000000, 4.000000, 4.000000, 4.000000, 4.000000, 4.000000
30.000000, 0.000000, 4175.384277, 4235.384277, 4198.461426, 4199.487305, 4193.846191, 4185.641113, 4184.102539, 4157.436035, 4181.025391, 4173.846191, 4172.307617, 4166.666504, 4250.769043, 4198.974121, 0.000000, 8182.000000, 8173.000000, 0.000000, 0.000000, 0.000000, -21998.000000, 81.538460, 4.000000, 4.000000, 4.000000, 4.000000, 4.000000, 4.000000, 4.000000, 4.000000, 4.000000, 4.000000, 4.000000, 4.000000, 4.000000, 4.000000, 4.000000, 4.000000
31.000000, 0.000000, 4169.230469, 4224.102539, 4192.307617, 4196.922852, 4203.076660, 4186.153809, 4177.948730, 4157.436035, 4179.487305, 4173.846191, 4175.384277, 4167.179199, 4250.256348, 4193.333008, 0.000000, 8191.000000, 8175.000000, 0.000000, 0.000000, 0.000000, -21998.000000, 89.743591, 4.000000, 4.000000, 4.000000, 4.000000, 4.000000, 4.000000, 4.000000, 4.000000, 4.000000, 4.000000, 4.000000, 4.000000, 4.000000, 4.000000, 4.000000, 4.000000
32.000000, 0.000000, 4178.461426, 4227.179199, 4193.333008, 4196.922852, 4202.051270, 4185.127930, 4179.487305, 4161.025391, 4175.897461, 4175.897461, 4181.538574, 4173.333008, 4246.666504, 4200.000000, 0.000000, 8191.000000, 8175.000000, 0.000000, 0.000000, 0.000000, -21998.000000, 97.435898, 4.000000, 4.000000, 4.000000, 4.000000, 4.000000, 4.000000, 4.000000, 4.000000, 4.000000, 4.000000, 4.000000, 4.000000, 4.000000, 4.000000, 4.000000, 4.000000
33.000000, 0.000000, 4173.333008, 4222.563965, 4190.769043, 4196.922852, 4194.358887, 4185.127930, 4181.538574, 4153.846191, 4167.179199, 4165.641113, 4171.281738, 4168.717773, 4235.897461, 4193.333008, 0.000000, 8194.000000, 8177.000000, 0.000000, 0.000000, 0.000000, -21998.000000, 105.128204, 4.000000, 4.000000, 4.000000, 4.000000, 4.000000, 4.000000, 4.000000, 4.000000, 4.000000, 4.000000, 4.000000, 4.000000, 4.000000, 4.000000, 4.000000, 4.000000
34.000000, 0.000000, 4173.846191, 4220.000000, 4192.820313, 4201.538574, 4199.487305, 4185.641113, 4178.461426, 4150.769043, 4165.641113, 4167.692383, 4172.820313, 4167.179199, 4243.589844, 4190.256348, 0.000000, 8194.000000, 8177.000000, 0.000000, 0.000000, 0.000000, -21998.000000, 113.333328, 4.000000, 4.000000, 4.000000, 4.000000, 4.000000, 4.000000, 4.000000, 4.000000, 4.000000, 4.000000, 4.000000, 4.000000, 4.000000, 4.000000, 4.000000, 4.000000
35.000000, 0.000000, 4188.717773, 4226.153809, 4204.615234, 4208.717773, 4204.615234, 4184.615234, 4176.410156, 4165.641113, 4182.051270, 4184.102539, 4190.769043, 4180.512695, 4260.000000, 4204.102539, 0.000000, 8196.000000, 8184.000000, 0.000000, 0.000000, 0.000000, -21998.000000, 121.025635, 4.000000, 4.000000, 4.000000, 4.000000, 4.000000, 4.000000, 4.000000, 4.000000, 4.000000, 4.000000, 4.000000, 4.000000, 4.000000, 4.000000, 4.000000, 4.000000
36.000000, 0.000000, 4179.487305, 4218.974121, 4200.512695, 4206.666504, 4191.794922, 4185.641113, 4182.563965, 4183.076660, 4200.000000, 4189.743652, 4201.538574, 4190.769043, 4257.948730, 4191.794922, 0.000000, 8196.000000, 8184.000000, 0.000000, 0.000000, 0.000000, -21998.000000, 129.230759, 4.000000, 4.000000, 4.000000, 4.000000, 4.000000, 4.000000, 4.000000, 4.000000, 4.000000, 4.000000, 4.000000, 4.000000, 4.000000, 4.000000, 4.000000, 4.000000
37.000000, 0.000000, 4181.538574, 4217.948730, 4193.846191, 4200.512695, 4186.666504, 4195.384277, 4196.410156, 4180.512695, 4198.974121, 4188.717773, 4194.871582, 4185.641113, 4249.230469, 4189.230469, 0.000000, 8201.000000, 8187.000000, 0.000000, 0.000000, 0.000000, -21998.000000, 136.923080, 4.000000, 4.000000, 4.000000, 4.000000, 4.000000, 4.000000, 4.000000, 4.000000, 4.000000, 4.000000, 4.000000, 4.000000, 4.000000, 4.000000, 4.000000, 4.000000
38.000000, 0.000000, 4184.615234, 4215.384277, 4194.871582, 4199.487305, 4200.512695, 4202.051270, 4198.974121, 4179.487305, 4197.948730, 4191.794922, 4188.205078, 4175.897461, 4249.230469, 4195.897461, 0.000000, 8201.000000, 8187.000000, 0.000000, 0.000000, 0.000000, -21998.000000, 144.615387, 4.000000, 4.000000, 4.000000, 4.000000, 4.000000, 4.000000, 4.000000, 4.000000, 4.000000, 4.000000, 4.000000, 4.000000, 4.000000, 4.000000, 4.000000, 4.000000
39.000000, 0.000000, 4177.436035, 4212.307617, 4191.794922, 4203.076660, 4209.230469, 4204.102539, 4194.871582, 4191.794922, 4208.205078, 4195.897461, 4192.307617, 4172.820313, 4248.205078, 4194.358887, 0.000000, 8215.000000, 8194.000000, 0.000000, 0.000000, 0.000000, -21998.000000, 152.820511, 4.000000, 4.000000, 4.000000, 4.000000, 4.000000, 4.000000, 4.000000, 4.000000, 4.000000, 4.000000, 4.000000, 4.000000, 4.000000, 4.000000, 4.000000, 4.000000
40.000000, 0.000000, 4174.871582, 4210.769043, 4185.641113, 4204.102539, 4203.589844, 4202.051270, 4194.358887, 4194.358887, 4212.307617, 4203.589844, 4195.384277, 4173.333008, 4243.076660, 4189.230469, 0.000000, 8215.000000, 8194.000000, 0.000000, 0.000000, 0.000000, -21998.000000, 160.512817, 4.000000, 4.000000, 4.000000, 4.000000, 4.000000, 4.000000, 4.000000, 4.000000, 4.000000, 4.000000, 4.000000, 4.000000, 4.000000, 4.000000, 4.000000, 4.000000
41.000000, 0.000000, 4168.205078, 4204.102539, 4183.589844, 4200.512695, 4198.461426, 4195.384277, 4189.230469, 4187.692383, 4207.179199, 4211.281738, 4193.333008, 4169.230469, 4244.102539, 4183.076660, 0.000000, 8219.000000, 8198.000000, 0.000000, 0.000000, 0.000000, -21998.000000, 168.717941, 4.000000, 4.000000, 4.000000, 4.000000, 4.000000, 4.000000, 4.000000, 4.000000, 4.000000, 4.000000, 4.000000, 4.000000, 4.000000, 4.000000, 4.000000, 4.000000
42.000000, 0.000000, 4174.871582, 4205.127930, 4195.897461, 4200.512695, 4199.487305, 4187.692383, 4183.076660, 4186.153809, 4202.563965, 4210.769043, 4192.820313, 4171.281738, 4246.153809, 4198.461426, 0.000000, 8219.000000, 8198.000000, 0.000000, 0.000000, 0.000000, -21998.000000, 176.410248, 4.000000, 4.000000, 4.000000, 4.000000, 4.000000, 4.000000, 4.000000, 4.000000, 4.000000, 4.000000, 4.000000, 4.000000, 4.000000, 4.000000, 4.000000, 4.000000
43.000000, 0.000000, 4176.410156, 4199.487305, 4207.692383, 4205.127930, 4195.897461, 4188.717773, 4189.743652, 4189.743652, 4201.025391, 4206.666504, 4195.384277, 4177.436035, 4246.153809, 4195.384277, 0.000000, 8219.000000, 8198.000000, 0.000000, 0.000000, 0.000000, -21998.000000, 184.102554, 4.000000, 4.000000, 4.000000, 4.000000, 4.000000, 4.000000, 4.000000, 4.000000, 4.000000, 4.000000, 4.000000, 4.000000, 4.000000, 4.000000, 4.000000, 4.000000
44.000000, 0.000000, 4174.358887, 4194.358887, 4205.641113, 4201.538574, 4176.922852, 4195.384277, 4203.076660, 4183.076660, 4195.897461, 4203.589844, 4193.333008, 4174.871582, 4242.563965, 4185.641113, 0.000000, 8219.000000, 8198.000000, 0.000000, 0.000000, 0.000000, -21998.000000, 191.794861, 4.000000, 4.000000, 4.000000, 4.000000, 4.000000, 4.000000, 4.000000, 4.000000, 4.000000, 4.000000, 4.000000, 4.000000, 4.000000, 4.000000, 4.000000, 4.000000
45.000000, 0.000000, 4181.538574, 4197.948730, 4202.051270, 4193.846191, 4164.615234, 4197.436035, 4203.076660, 4178.461426, 4195.897461, 4204.102539, 4194.358887, 4172.820313, 4242.051270, 4198.974121, 0.000000, 8220.000000, 8197.000000, 0.000000, 0.000000, 0.000000, -21998.000000, 200.000000, 4.000000, 4.000000, 4.000000, 4.000000, 4.000000, 4.000000, 4.000000, 4.000000, 4.000000, 4.000000, 4.000000, 4.000000, 4.000000, 4.000000, 4.000000, 4.000000
46.000000, 0.000000, 4177.436035, 4194.358887, 4200.000000, 4197.948730, 4189.230469, 4199.487305, 4198.461426, 4196.410156, 4210.769043, 4216.922852, 4207.692383, 4184.102539, 4255.897461, 4195.897461, 0.000000, 8220.000000, 8197.000000, 0.000000, 0.000000, 0.000000, -21998.000000, 207.692307, 4.000000, 4.000000, 4.000000, 4.000000, 4.000000, 4.000000, 4.000000, 4.000000, 4.000000, 4.000000, 4.000000, 4.000000, 4.000000, 4.000000, 4.000000, 4.000000
47.000000, 0.000000, 4187.179199, 4200.512695, 4207.179199, 4203.076660, 4204.102539, 4201.538574, 4202.563965, 4213.333008, 4225.641113, 4228.717773, 4216.922852, 4191.794922, 4264.102539, 4197.436035, 0.000000, 8222.000000, 8192.000000, 0.000000, 0.000000, 0.000000, -21998.000000, 215.384613, 4.000000, 4.000000, 4.000000, 4.000000, 4.000000, 4.000000, 4.000000, 4.000000, 4.000000, 4.000000, 4.000000, 4.000000, 4.000000, 4.000000, 4.000000, 4.000000
48.000000, 0.000000, 4185.641113, 4200.000000, 4207.692383, 4200.000000, 4187.692383, 4202.563965, 4199.487305, 4210.769043, 4225.641113, 4221.025391, 4213.333008, 4187.179199, 4253.333008, 4195.897461, 0.000000, 8222.000000, 8192.000000, 0.000000, 0.000000, 0.000000, -21998.000000, 223.076920, 4.000000, 4.000000, 4.000000, 4.000000, 4.000000, 4.000000, 4.000000, 4.000000, 4.000000, 4.000000, 4.000000, 4.000000, 4.000000, 4.000000, 4.000000, 4.000000
49.000000, 0.000000, 4171.281738, 4193.333008, 4200.512695, 4200.512695, 4189.230469, 4202.051270, 4192.820313, 4207.179199, 4220.000000, 4209.230469, 4208.205078, 4184.102539, 4244.615234, 4188.205078, 0.000000, 8218.000000, 8187.000000, 0.000000, 0.000000, 0.000000, -21998.000000, 231.282043, 4.000000, 4.000000, 4.000000, 4.000000, 4.000000, 4.000000, 4.000000, 4.000000, 4.000000, 4.000000, 4.000000, 4.000000, 4.000000, 4.000000, 4.000000, 4.000000
50.000000, 0.000000, 4182.051270, 4201.025391, 4205.641113, 4203.076660, 4200.512695, 4196.410156, 4194.871582, 4207.692383, 4213.333008, 4212.820313, 4211.281738, 4188.205078, 4246.666504, 4201.025391, 0.000000, 8218.000000, 8187.000000, 0.000000, 0.000000, 0.000000, -21998.000000, 239.487167, 4.000000, 4.000000, 4.000000, 4.000000, 4.000000, 4.000000, 4.000000, 4.000000, 4.000000, 4.000000, 4.000000, 4.000000, 4.000000, 4.000000, 4.000000, 4.000000
51.000000, 0.000000, 4175.384277, 4187.692383, 4211.281738, 4198.974121, 4191.281738, 4196.922852, 4202.051270, 4205.641113, 4211.281738, 4223.589844, 4215.384277, 4196.922852, 4245.127930, 4195.384277, 0.000000, 8217.000000, 8184.000000, 0.000000, 0.000000, 0.000000, -21998.000000, 247.179474, 4.000000, 4.000000, 4.000000, 4.000000, 4.000000, 4.000000, 4.000000, 4.000000, 4.000000, 4.000000, 4.000000, 4.000000, 4.000000, 4.000000, 4.000000, 4.000000
52.000000, 0.000000, 4176.410156, 4184.102539, 4215.384277, 4198.974121, 4182.563965, 4200.000000, 4205.641113, 4203.076660, 4211.281738, 4225.127930, 4216.922852, 4204.102539, 4247.692383, 4192.307617, 0.000000, 8217.000000, 8184.000000, 0.000000, 0.000000, 0.000000, -21998.000000, 254.871796, 4.000000, 4.000000, 4.000000, 4.000000, 4.000000, 4.000000, 4.000000, 4.000000, 4.000000, 4.000000, 4.000000, 4.000000, 4.000000, 4.000000, 4.000000, 4.000000
53.000000, 0.000000, 4200.512695, 4205.127930, 4218.974121, 4206.666504, 4192.307617, 4200.512695, 4206.153809, 4203.076660, 4216.922852, 4228.717773, 4224.615234, 4206.153809, 4267.179199, 4202.051270, 0.000000, 8219.000000, 8189.000000, 0.000000, 0.000000, 0.000000, -21998.000000, 263.076904, 4.000000, 4.000000, 4.000000, 4.000000, 4.000000, 4.000000, 4.000000, 4.000000, 4.000000, 4.000000, 4.000000, 4.000000, 4.000000, 4.000000, 4.000000, 4.000000
54.000000, 0.000000, 4196.410156, 4203.076660, 4212.820313, 4205.641113, 4190.769043, 4208.717773, 4208.205078, 4214.871582, 4230.769043, 4234.358887, 4227.179199, 4203.589844, 4270.769043, 4194.871582, 0.000000, 8219.000000, 8189.000000, 0.000000, 0.000000, 0.000000, -21998.000000, 270.769226, 4.000000, 4.000000, 4.000000, 4.000000, 4.000000, 4.000000, 4.000000, 4.000000, 4.000000, 4.000000, 4.000000, 4.000000, 4.000000, 4.000000, 4.000000, 4.000000
55.000000, 0.000000, 4184.102539, 4191.794922, 4206.153809, 4200.000000, 4174.871582, 4213.333008, 4206.666504, 4222.563965, 4227.179199, 4220.000000, 4214.358887, 4196.410156, 4248.205078, 4195.897461, 0.000000, 8214.000000, 8181.000000, 0.000000, 0.000000, 0.000000, -21998.000000, 278.461517, 4.000000, 4.000000, 4.000000, 4.000000, 4.000000, 4.000000, 4.000000, 4.000000, 4.000000, 4.000000, 4.000000, 4.000000, 4.000000, 4.000000, 4.000000, 4.000000
56.000000, 0.000000, 4168.205078, 4184.615234, 4197.948730, 4200.000000, 4185.127930, 4207.179199, 4200.512695, 4201.538574, 4202.051270, 4197.436035, 4198.974121, 4181.538574, 4232.307617, 4188.717773, 0.000000, 8214.000000, 8181.000000, 0.000000, 0.000000, 0.000000, -21998.000000, 286.666656, 4.000000, 4.000000, 4.000000, 4.000000, 4.000000, 4.000000, 4.000000, 4.000000, 4.000000, 4.000000, 4.000000, 4.000000, 4.000000, 4.000000, 4.000000, 4.000000
57.000000, 0.000000, 4160.512695, 4183.589844, 4192.307617, 4195.897461, 4206.153809, 4207.692383, 4202.563965, 4187.692383, 4193.846191, 4194.358887, 4191.794922, 4170.769043, 4227.692383, 4184.615234, 0.000000, 8216.000000, 8176.000000, 0.000000, 0.000000, 0.000000, -21998.000000, 294.358978, 4.000000, 4.000000, 4.000000, 4.000000, 4.000000, 4.000000, 4.000000, 4.000000, 4.000000, 4.000000, 4.000000, 4.000000, 4.000000, 4.000000, 4.000000, 4.000000
58.000000, 0.000000, 4161.025391, 4180.000000, 4196.410156, 4192.307617, 4206.153809, 4211.281738, 4203.589844, 4211.794922, 4217.948730, 4213.846191, 4200.000000, 4177.948730, 4231.794922, 4192.820313, 0.000000, 8216.000000, 8176.000000, 0.000000, 0.000000, 0.000000, -21998.000000, 302.051270, 4.000000, 4.000000, 4.000000, 4.000000, 4.000000, 4.000000, 4.000000, 4.000000, 4.000000, 4.000000, 4.000000, 4.000000, 4.000000, 4.000000, 4.000000, 4.000000
59.000000, 0.000000, 4159.487305, 4179.487305, 4198.461426, 4195.897461, 4200.000000, 4202.051270, 4193.846191, 4223.589844, 4227.179199, 4227.179199, 4213.333008, 4187.692383, 4248.205078, 4189.230469, 0.000000, 8209.000000, 8168.000000, 0.000000, 0.000000, 0.000000, -21998.000000, 310.256409, 4.000000, 4.000000, 4.000000, 4.000000, 4.000000, 4.000000, 4.000000, 4.000000, 4.000000, 4.000000, 4.000000, 4.000000, 4.000000, 4.000000, 4.000000, 4.000000
60.000000, 0.000000, 4175.384277, 4195.897461, 4201.025391, 4204.615234, 4202.563965, 4194.871582, 4189.743652, 4207.692383, 4210.256348, 4220.512695, 4215.384277, 4186.153809, 4260.000000, 4196.922852, 0.000000, 8209.000000, 8168.000000, 0.000000, 0.000000, 0.000000, -21998.000000, 317.948700, 4.000000, 4.000000, 4.000000, 4.000000, 4.000000, 4.000000, 4.000000, 4.000000, 4.000000, 4.000000, 4.000000, 4.000000, 4.000000, 4.000000, 4.000000, 4.000000
61.000000, 0.000000, 4177.436035, 4198.974121, 4203.076660, 4214.871582, 4202.563965, 4202.563965, 4197.948730, 4213.333008, 4214.871582, 4229.743652, 4224.102539, 4187.692383, 4268.717773, 4192.307617, 0.000000, 8206.000000, 8170.000000, 0.000000, 0.000000, 0.000000, -21998.000000, 326.153839, 4.000000, 4.000000, 4.000000, 4.000000, 4.000000, 4.000000, 4.000000, 4.000000, 4.000000, 4.000000, 4.000000, 4.000000, 4.000000, 4.000000, 4.000000, 4.000000
62.000000, 0.000000, 4174.358887, 4196.410156, 4205.641113, 4218.461426, 4201.025391, 4209.743652, 4207.692383, 4231.281738, 4234.871582, 4250.256348, 4238.461426, 4198.461426, 4276.410156, 4190.769043, 0.000000, 8206.000000, 8170.000000, 0.000000, 0.000000, 0.000000, -21998.000000, 333.846161, 4.000000, 4.000000, 4.000000, 4.000000, 4.000000, 4.000000, 4.000000, 4.000000, 4.000000, 4.000000, 4.000000, 4.000000, 4.000000, 4.000000, 4.000000, 4.000000
63.000000, 0.000000, 4175.897461, 4192.820313, 4208.205078, 4207.692383, 4201.025391, 4206.666504, 4212.307617, 4228.717773, 4233.333008, 4247.692383, 4233.846191, 4199.487305, 4266.666504, 4200.000000, 0.000000, 8193.000000, 8157.000000, 0.000000, 0.000000, 0.000000, -21998.000000, 342.051270, 4.000000, 4.000000, 4.000000, 4.000000, 4.000000, 4.000000, 4.000000, 4.000000, 4.000000, 4.000000, 4.000000, 4.000000, 4.000000, 4.000000, 4.000000, 4.000000
64.000000, 0.000000, 4162.563965, 4178.461426, 4203.076660, 4197.436035, 4185.641113, 4202.563965, 4210.256348, 4222.051270, 4222.563965, 4234.358887, 4225.127930, 4189.230469, 4254.358887, 4188.205078, 3346.000000, 8193.000000, 8157.000000, 0.000000, 0.000000, 0.000000, -21998.000000, 349.743591, 4.000000, 4.000000, 4.000000, 4.000000, 4.000000, 4.000000, 4.000000, 4.000000, 4.000000, 4.000000, 4.000000, 4.000000, 4.000000, 4.000000, 4.000000, 4.000000
65.000000, 0.000000, 4165.127930, 4182.563965, 4201.538574, 4201.025391, 4177.948730, 4207.692383, 4211.794922, 4228.205078, 4225.127930, 4234.358887, 4224.615234, 4188.205078, 4253.333008, 4193.846191, 3508.000000, 8192.000000, 8157.000000, 0.000000, 0.000000, 0.000000, -21998.000000, 357.435883, 4.000000, 4.000000, 4.000000, 4.000000, 4.000000, 4.000000, 4.000000, 4.000000, 4.000000, 4.000000, 4.000000, 4.000000, 4.000000, 4.000000, 4.000000, 4.000000
66.000000, 0.000000, 4166.666504, 4185.641113, 4202.051270, 4204.102539, 4193.846191, 4216.922852, 4217.948730, 4237.436035, 4233.333008, 4239.487305, 4224.615234, 4191.794922, 4255.384277, 4196.410156, 2777.000000, 8192.000000, 8157.000000, 0.000000, 0.000000, 0.000000, -21998.000000, 365.641022, 4.000000, 4.000000, 4.000000, 4.000000, 4.000000, 4.000000, 4.000000, 4.000000, 4.000000, 4.000000, 4.000000, 4.000000, 4.000000, 4.000000, 4.000000, 4.000000
67.000000, 0.000000, 4163.589844, 4181.538574, 4196.410156, 4201.538574, 4203.076660, 4216.410156, 4215.897461, 4232.307617, 4225.127930, 4231.281738, 4214.871582, 4188.205078, 4251.281738, 4189.743652, 2012.000000, 8193.000000, 8160.000000, 0.000000, 0.000000, 0.000000, -21998.000000, 373.333313, 4.000000, 4.000000, 4.000000, 4.000000, 4.000000, 4.000000, 4.000000, 4.000000, 4.000000, 4.000000, 4.000000, 4.000000, 4.000000, 4.000000, 4.000000, 4.000000
68.000000, 0.000000, 4166.153809, 4181.025391, 4193.333008, 4198.974121, 4197.948730, 4211.281738, 4209.743652, 4219.487305, 4213.333008, 4221.025391, 4207.692383, 4182.051270, 4247.692383, 4196.410156, 3532.000000, 8193.000000, 8160.000000, 0.000000, 0.000000, 0.000000, -21998.000000, 381.025635, 4.000000, 4.000000, 4.000000, 4.000000, 4.000000, 4.000000, 4.000000, 4.000000, 4.000000, 4.000000, 4.000000, 4.000000, 4.000000, 4.000000, 4.000000, 4.000000
69.000000, 0.000000, 4160.512695, 4174.358887, 4190.769043, 4201.025391, 4194.358887, 4209.230469, 4209.230469, 4221.538574, 4217.436035, 4219.487305, 4212.820313, 4183.076660, 4250.256348, 4190.769043, 3543.000000, 8190.000000, 8160.000000, 0.000000, 0.000000, 0.000000, -21998.000000, 389.230774, 4.000000, 4.000000, 4.000000, 4.000000, 4.000000, 4.000000, 4.000000, 4.000000, 4.000000, 4.000000, 4.000000, 4.000000, 4.000000, 4.000000, 4.000000, 4.000000
70.000000, 0.000000, 4173.333008, 4180.512695, 4194.871582, 4204.615234, 4182.563965, 4202.051270, 4212.820313, 4230.256348, 4224.615234, 4223.589844, 4218.461426, 4192.307617, 4251.281738, 4196.922852, 3057.000000, 8190.000000, 8160.000000, 0.000000, 0.000000, 0.000000, -21998.000000, 396.923065, 4.000000, 4.000000, 4.000000, 4.000000, 4.000000, 4.000000, 4.000000, 4.000000, 4.000000, 4.000000, 4.000000, 4.000000, 4.000000, 4.000000, 4.000000, 4.000000
71.000000, 0.000000, 4174.358887, 4182.563965, 4198.974121, 4205.641113, 4179.487305, 4200.000000, 4209.743652, 4232.307617, 4222.563965, 4236.922852, 4223.076660, 4200.512695, 4254.358887, 4197.436035, 3518.000000, 8191.000000, 8172.000000, 0.000000, 0.000000, 0.000000, -21998.000000, 405.128204, 4.000000, 4.000000, 4.000000, 4.000000, 4.000000, 4.000000, 4.000000, 4.000000, 4.000000, 4.000000, 4.000000, 4.000000, 4.000000, 4.000000, 4.000000, 4.000000
72.000000, 0.000000, 4166.666504, 4179.487305, 4203.076660, 4207.179199, 4198.974121, 4207.692383, 4208.717773, 4235.384277, 4222.563965, 4245.641113, 4226.666504, 4197.436035, 4257.436035, 4192.307617, 3521.000000, 8191.000000, 8172.000000, 0.000000, 0.000000, 0.000000, -21998.000000, 412.820496, 4.000000, 4.000000, 4.000000, 4.000000, 4.000000, 4.000000, 4.000000, 4.000000, 4.000000, 4.000000, 4.000000, 4.000000, 4.000000, 4.000000, 4.000000, 4.000000
73.000000, 0.000000, 4174.871582, 4182.051270, 4208.717773, 4207.692383, 4201.025391, 4209.230469, 4212.820313, 4240.000000, 4229.230469, 4238.461426, 4222.563965, 4189.743652, 4249.230469, 4203.589844, 3540.000000, 8189.000000, 8186.000000, 0.000000, 0.000000, 0.000000, -21998.000000, 420.512817, 4.000000, 4.000000, 4.000000, 4.000000, 4.000000, 4.000000, 4.000000, 4.000000, 4.000000, 4.000000, 4.000000, 4.000000, 4.000000, 4.000000, 4.000000, 4.000000
74.000000, 0.000000, 4155.897461, 4166.666504, 4201.025391, 4204.102539, 4186.153809, 4206.666504, 4214.871582, 4245.127930, 4238.461426, 4235.897461, 4213.333008, 4186.666504, 4236.410156, 4185.127930, 3542.000000, 8189.000000, 8186.000000, 0.000000, 0.000000, 0.000000, -21998.000000, 428.205109, 4.000000, 4.000000, 4.000000, 4.000000, 4.000000, 4.000000, 4.000000, 4.000000, 4.000000, 4.000000, 4.000000, 4.000000, 4.000000, 4.000000, 4.000000, 4.000000
75.000000, 0.000000, 4156.410156, 4171.794922, 4197.436035, 4202.051270, 4190.256348, 4213.333008, 4221.538574, 4250.256348, 4246.153809, 4244.615234, 4210.769043, 4187.692383, 4229.230469, 4189.230469, 1160.000000, 8180.000000, 8196.000000, 0.000000, 0.000000, 0.000000, -21998.000000, 436.410248, 4.000000, 4.000000, 4.000000, 4.000000, 4.000000, 4.000000, 4.000000, 4.000000, 4.000000, 4.000000, 4.000000, 4.000000, 4.000000, 4.000000, 4.000000, 4.000000
76.000000, 0.000000, 4166.153809, 4177.948730, 4200.000000, 4205.127930, 4201.025391, 4220.000000, 4223.076660, 4247.692383, 4250.256348, 4247.692383, 4212.820313, 4187.179199, 4228.205078, 4203.589844, 3479.000000, 8180.000000, 8196.000000, 0.000000, 0.000000, 0.000000, -21998.000000, 444.102539, 4.000000, 4.000000, 4.000000, 4.000000, 4.000000, 4.000000, 4.000000, 4.000000, 4.000000, 4.000000, 4.000000, 4.000000, 4.000000, 4.000000, 4.000000, 4.000000
77.000000, 0.000000, 4148.717773, 4159.487305, 4192.820313, 4202.051270, 4185.641113, 4217.436035, 4213.846191, 4244.615234, 4245.641113, 4237.436035, 4207.179199, 4183.589844, 4220.512695, 4185.127930, 3446.000000, 8186.000000, 8194.000000, 0.000000, 0.000000, 0.000000, -21998.000000, 452.307678, 4.000000, 4.000000, 4.000000, 4.000000, 4.000000, 4.000000, 4.000000, 4.000000, 4.000000, 4.000000, 4.000000, 4.000000, 4.000000, 4.000000, 4.000000, 4.000000
78.000000, 0.000000, 4144.102539, 4155.897461, 4190.769043, 4188.717773, 4165.127930, 4208.717773, 4212.307617, 4239.487305, 4226.666504, 4220.512695, 4194.358887, 4176.410156, 4199.487305, 4195.384277, 3542.000000, 8186.000000, 8194.000000, 0.000000, 0.000000, 0.000000, -21998.000000, 460.000000, 4.000000, 4.000000, 4.000000, 4.000000, 4.000000, 4.000000, 4.000000, 4.000000, 4.000000, 4.000000, 4.000000, 4.000000, 4.000000, 4.000000, 4.000000, 4.000000
79.000000, 0.000000, 4140.000000, 4154.871582, 4188.717773, 4184.102539, 4176.922852, 4205.641113, 4213.333008, 4233.846191, 4220.512695, 4220.512695, 4193.333008, 4171.794922, 4193.333008, 4196.410156, 1160.000000, 8191.000000, 8193.000000, 0.000000, 0.000000, 0.000000, -21998.000000, 468.205109, 4.000000, 4.000000, 4.000000, 4.000000, 4.000000, 4.000000, 4.000000, 4.000000, 4.000000, 4.000000, 4.000000, 4.000000, 4.000000, 4.000000, 4.000000, 4.000000
80.000000, 0.000000, 4146.666504, 4158.461426, 4187.692383, 4193.333008, 4194.358887, 4206.153809, 4208.717773, 4233.846191, 4228.717773, 4230.769043, 4198.461426, 4174.358887, 4201.538574, 4192.307617, 3479.000000, 8191.000000, 8193.000000, 0.000000, 0.000000, 0.000000, -21998.000000, 475.897430, 4.000000, 4.000000, 4.000000, 4.000000, 4.000000, 4.000000, 4.000000, 4.000000, 4.000000, 4.000000, 4.000000, 4.000000, 4.000000, 4.000000, 4.000000, 4.000000
81.000000, 0.000000, 4148.205078, 4156.410156, 4186.153809, 4194.358887, 4186.153809, 4203.076660, 4207.692383, 4236.410156, 4227.179199, 4223.589844, 4194.871582, 4173.333008, 4196.922852, 4196.410156, 3446.000000, 8189.000000, 8192.000000, 0.000000, 0.000000, 0.000000, -21998.000000, 483.589722, 4.000000, 4.000000, 4.000000, 4.000000, 4.000000, 4.000000, 4.000000, 4.000000, 4.000000, 4.000000, 4.000000, 4.000000, 4.000000, 4.000000, 4.000000, 4.000000
82.000000, 0.000000, 4137.948730, 4150.769043, 4180.512695, 4189.230469, 4189.743652, 4206.153809, 4212.820313, 4239.487305, 4228.717773, 4212.820313, 4193.846191, 4168.717773, 4190.256348, 4189.743652, 3542.000000, 8189.000000, 8192.000000, 0.000000, 0.000000, 0.000000, -21998.000000, 491.282043, 4.000000, 4.000000, 4.000000, 4.000000, 4.000000, 4.000000, 4.000000, 4.000000, 4.000000, 4.000000, 4.000000, 4.000000, 4.000000, 4.000000, 4.000000, 4.000000
83.000000, 0.000000, 4146.666504, 4161.538574, 4182.563965, 4186.666504, 4197.948730, 4215.384277, 4216.410156, 4234.358887, 4231.281738, 4217.436035, 4194.871582, 4171.794922, 4193.333008, 4196.922852, 1160.000000, 8197.000000, 8182.000000, 0.000000, 0.000000, 0.000000, -21998.000000, 499.487152, 4.000000, 4.000000, 4.000000, 4.000000, 4.000000, 4.000000, 4.000000, 4.000000, 4.000000, 4.000000, 4.000000, 4.000000, 4.000000, 4.000000, 4.000000, 4.000000
84.000000, 0.000000, 4142.563965, 4157.436035, 4181.538574, 4185.641113, 4181.538574, 4209.743652, 4211.281738, 4225.127930, 4221.538574, 4222.563965, 4191.794922, 4171.794922, 4192.820313, 4191.794922, 3479.000000, 8197.000000, 8182.000000, 0.000000, 0.000000, 0.000000, -21998.000000, 507.179474, 4.000000, 4.000000, 4.000000, 4.000000, 4.000000, 4.000000, 4.000000, 4.000000, 4.000000, 4.000000, 4.000000, 4.000000, 4.000000, 4.000000, 4.000000, 4.000000
85.000000, 0.000000, 4149.743652, 4162.563965, 4188.205078, 4194.358887, 4181.538574, 4199.487305, 4206.666504, 4220.000000, 4210.256348, 4222.051270, 4193.333008, 4170.769043, 4191.281738, 4197.436035, 3446.000000, 8198.000000, 8180.000000, 0.000000, 0.000000, 0.000000, -21998.000000, 514.871765, 4.000000, 4.000000, 4.000000, 4.000000, 4.000000, 4.000000, 4.000000, 4.000000, 4.000000, 4.000000, 4.000000, 4.000000, 4.000000, 4.000000, 4.000000, 4.000000
86.000000, 0.000000, 4155.897461, 4170.256348, 4197.948730, 4204.615234, 4202.051270, 4203.589844, 4213.333008, 4217.436035, 4207.179199, 4215.897461, 4199.487305, 4178.974121, 4194.871582, 4203.589844, 3542.000000, 8198.000000, 8180.000000, 0.000000, 0.000000, 0.000000, -21998.000000, 523.076904, 4.000000, 4.000000, 4.000000, 4.000000, 4.000000, 4.000000, 4.000000, 4.000000, 4.000000, 4.000000, 4.000000, 4.000000, 4.000000, 4.000000, 4.000000, 4.000000
87.000000, 0.000000, 4142.563965, 4164.102539, 4193.846191, 4199.487305, 4200.000000, 4204.102539, 4216.410156, 4212.820313, 4201.538574, 4204.615234, 4195.897461, 4185.641113, 4187.179199, 4189.743652, 1160.000000, 8197.000000, 8184.000000, 0.000000, 0.000000, 0.000000, -21998.000000, 530.769226, 4.000000, 4.000000, 4.000000, 4.000000, 4.000000, 4.000000, 4.000000, 4.000000, 4.000000, 4.000000, 4.000000, 4.000000, 4.000000, 4.000000, 4.000000, 4.000000
88.000000, 0.000000, 4151.794922, 4168.205078, 4194.871582, 4194.871582, 4188.717773, 4194.871582, 4203.589844, 4204.102539, 4190.256348, 4194.358887, 4188.205078, 4182.563965, 4176.410156, 4197.948730, 3479.000000, 8197.000000, 8184.000000, 0.000000, 0.000000, 0.000000, -21998.000000, 538.461548, 4.000000, 4.000000, 4.000000, 4.000000, 4.000000, 4.000000, 4.000000, 4.000000, 4.000000, 4.000000, 4.000000, 4.000000, 4.000000, 4.000000, 4.000000, 4.000000
89.000000, 0.000000, 4156.410156, 4170.256348, 4198.974121, 4200.000000, 4198.461426, 4196.410156, 4195.384277, 4200.000000, 4187.179199, 4192.307617, 4189.230469, 4180.512695, 4184.102539, 4197.436035, 3446.000000, 8195.000000, 8182.000000, 0.000000, 0.000000, 0.000000, -21998.000000, 546.666626, 4.000000, 4.000000, 4.000000, 4.000000, 4.000000, 4.000000, 4.000000, 4.000000, 4.000000, 4.000000, 4.000000, 4.000000, 4.000000, 4.000000, 4.000000, 4.000000
90.000000, 0.000000, 4160.000000, 4176.410156, 4200.000000, 4202.051270, 4203.076660, 4201.025391, 4198.461426, 4196.922852, 4191.281738, 4193.333008, 4188.205078, 4184.102539, 4191.794922, 4198.461426, 3542.000000, 8195.000000, 8182.000000, 0.000000, 0.000000, 0.000000, -21998.000000, 554.358948, 4.000000, 4.000000, 4.000000, 4.000000, 4.000000, 4.000000, 4.000000, 4.000000, 4.000000, 4.000000, 4.000000, 4.000000, 4.000000, 4.000000, 4.000000, 4.000000
91.000000, 0.000000, 4162.051270, 4177.436035, 4201.538574, 4200.000000, 4187.179199, 4196.410156, 4194.871582, 4193.333008, 4192.307617, 4194.871582, 4184.615234, 4185.127930, 4182.563965, 4203.589844, 1160.000000, 8203.000000, 8183.000000, 0.000000, 0.000000, 0.000000, -21998.000000, 562.564087, 4.000000, 4.000000, 4.000000, 4.000000, 4.000000, 4.000000, 4.000000, 4.000000, 4.000000, 4.000000, 4.000000, 4.000000, 4.000000, 4.000000, 4.000000, 4.000000
92.000000, 0.000000, 4150.256348, 4165.641113, 4199.487305, 4194.871582, 4181.538574, 4193.333008, 4191.281738, 4197.436035, 4191.794922, 4196.410156, 4186.666504, 4182.563965, 4179.487305, 4191.281738, 3479.000000, 8203.000000, 8183.000000, 0.000000, 0.000000, 0.000000, -21998.000000, 570.256409, 4.000000, 4.000000, 4.000000, 4.000000, 4.000000, 4.000000, 4.000000, 4.000000, 4.000000, 4.000000, 4.000000, 4.000000, 4.000000, 4.000000, 4.000000, 4.000000
93.000000, 0.000000, 4158.974121, 4174.358887, 4205.127930, 4194.871582, 4196.410156, 4196.922852, 4196.922852, 4204.102539, 4198.974121, 4195.384277, 4194.871582, 4186.666504, 4193.846191, 4200.000000, 3446.000000, 8202.000000, 8170.000000, 0.000000, 0.000000, 0.000000, -21998.000000, 578.461548, 4.000000, 4.000000, 4.000000, 4.000000, 4.000000, 4.000000, 4.000000, 4.000000, 4.000000, 4.000000, 4.000000, 4.000000, 4.000000, 4.000000, 4.000000, 4.000000
94.000000, 0.000000, 4162.051270, 4182.051270, 4210.256348, 4202.563965, 4208.205078, 4201.538574, 4199.487305, 4212.820313, 4214.871582, 4199.487305, 4205.641113, 4198.974121, 4208.717773, 4200.000000, 3542.000000, 8202.000000, 8170.000000, 0.000000, 0.000000, 0.000000, -21998.000000, 586.153809, 4.000000, 4.000000, 4.000000, 4.000000, 4.000000, 4.000000, 4.000000, 4.000000, 4.000000, 4.000000, 4.000000, 4.000000, 4.000000, 4.000000, 4.000000, 4.000000
95.000000, 0.000000, 4158.974121, 4181.538574, 4207.692383, 4205.641113, 4197.436035, 4204.102539, 4205.127930, 4216.922852, 4217.436035, 4203.589844, 4205.641113, 4202.051270, 4208.205078, 4195.897461, 1160.000000, 8197.000000, 8167.000000, 0.000000, 0.000000, 0.000000, -21998.000000, 593.846130, 4.000000, 4.000000, 4.000000, 4.000000, 4.000000, 4.000000, 4.000000, 4.000000, 4.000000, 4.000000, 4.000000, 4.000000, 4.000000, 4.000000, 4.000000, 4.000000
96.000000, 0.000000, 4162.051270, 4182.563965, 4210.256348, 4204.615234, 4192.307617, 4198.974121, 4203.076660, 4210.256348, 4207.692383, 4201.025391, 4199.487305, 4193.333008, 4202.051270, 4201.025391, 3479.000000, 8197.000000, 8167.000000, 0.000000, 0.000000, 0.000000, -21998.000000, 601.538452, 4.000000, 4.000000, 4.000000, 4.000000, 4.000000, 4.000000, 4.000000, 4.000000, 4.000000, 4.000000, 4.000000, 4.000000, 4.000000, 4.000000, 4.000000, 4.000000
97.000000, 0.000000, 4154.358887, 4180.000000, 4209.230469, 4202.051270, 4191.794922, 4193.333008, 4191.281738, 4202.563965, 4203.589844, 4195.384277, 4197.948730, 4186.666504, 4197.948730, 4190.769043, 3446.000000, 8185.000000, 8171.000000, 0.000000, 0.000000, 0.000000, -21998.000000, 609.743591, 4.000000, 4.000000, 4.000000, 4.000000, 4.000000, 4.000000, 4.000000, 4.000000, 4.000000, 4.000000, 4.000000, 4.000000, 4.000000, 4.000000, 4.000000, 4.000000
98.000000, 0.000000, 4160.512695, 4184.615234, 4207.179199, 4202.563965, 4181.538574, 4195.384277, 4194.358887, 4205.641113, 4208.205078, 4192.820313, 4199.487305, 4187.692383, 4198.461426, 4197.436035, 3542.000000, 8185.000000, 8171.000000, 0.000000, 0.000000, 0.000000, -21998.000000, 617.435852, 4.000000, 4.000000, 4.000000, 4.000000, 4.000000, 4.000000, 4.000000, 4.000000, 4.000000, 4.000000, 4.000000, 4.000000, 4.000000, 4.000000, 4.000000, 4.000000
99.000000, 0.000000, 4162.051270, 4182.051270, 4208.717773, 4208.717773, 4190.256348, 4201.025391, 4200.000000, 4219.487305, 4220.000000, 4203.589844, 4206.666504, 4193.846191, 4209.230469, 4198.461426, 1160.000000, 8189.000000, 8162.000000, 0.000000, 0.000000, 0.000000, -21998.000000, 625.640991, 4.000000, 4.000000, 4.000000, 4.000000, 4.000000, 4.000000, 4.000000, 4.000000, 4.000000, 4.000000, 4.000000, 4.000000, 4.000000, 4.000000, 4.000000, 4.000000
100.000000, 0.000000, 4159.487305, 4186.153809, 4207.179199, 4208.717773, 4205.127930, 4201.025391, 4196.410156, 4218.461426, 4220.512695, 4212.307617, 4211.281738, 4196.922852, 4215.384277, 4195.897461, 3479.000000, 8189.000000, 8162.000000, 0.000000, 0.000000, 0.000000, -21998.000000, 633.333313, 4.000000, 4.000000, 4.000000, 4.000000, 4.000000, 4.000000, 4.000000, 4.000000, 4.000000, 4.000000, 4.000000, 4.000000, 4.000000, 4.000000, 4.000000, 4.000000
101.000000, 0.000000, 4160.000000, 4190.256348, 4203.076660, 4200.000000, 4198.974121, 4193.846191, 4193.846191, 4208.717773, 4209.230469, 4205.641113, 4200.512695, 4186.666504, 4210.769043, 4202.051270, 3446.000000, 8192.000000, 8160.000000, 0.000000, 0.000000, 0.000000, -21998.000000, 641.025635, 4.000000, 4.000000, 4.000000, 4.000000, 4.000000, 4.000000, 4.000000, 4.000000, 4.000000, 4.000000, 4.000000, 4.000000, 4.000000, 4.000000, 4.000000, 4.000000
102.000000, 0.000000, 4147.692383, 4176.922852, 4197.436035, 4197.948730, 4192.307617, 4191.281738, 4193.846191, 4211.281738, 4211.281738, 4202.051270, 4192.307617, 4174.358887, 4204.615234, 4190.256348, 3542.000000, 8192.000000, 8160.000000, 0.000000, 0.000000, 0.000000, -21998.000000, 649.230774, 4.000000, 4.000000, 4.000000, 4.000000, 4.000000, 4.000000, 4.000000, 4.000000, 4.000000, 4.000000, 4.000000, 4.000000, 4.000000, 4.000000, 4.000000, 4.000000
103.000000, 0.000000, 4152.307617, 4182.051270, 4196.410156, 4198.461426, 4194.871582, 4188.205078, 4193.333008, 4215.897461, 4215.897461, 4204.102539, 4190.769043, 4174.871582, 4198.974121, 4196.410156, 1160.000000, 8198.000000, 8157.000000, 0.000000, 0.000000, 0.000000, -21998.000000, 656.923035, 4.000000, 4.000000, 4.000000, 4.000000, 4.000000, 4.000000, 4.000000, 4.000000, 4.000000, 4.000000, 4.000000, 4.000000, 4.000000, 4.000000, 4.000000, 4.000000
104.000000, 0.000000, 4149.230469, 4185.127930, 4193.333008, 4196.410156, 4191.794922, 4186.666504, 4193.846191, 4210.256348, 4207.179199, 4205.127930, 4191.281738, 4173.846191, 4203.076660, 4194.358887, 3479.000000, 8198.000000, 8157.000000, 0.000000, 0.000000, 0.000000, -21998.000000, 664.615356, 4.000000, 4.000000, 4.000000, 4.000000, 4.000000, 4.000000, 4.000000, 4.000000, 4.000000, 4.000000, 4.000000, 4.000000, 4.000000, 4.000000, 4.000000, 4.000000
105.000000, 0.000000, 4144.102539, 4181.025391, 4191.794922, 4197.436035, 4183.589844, 4193.846191, 4194.871582, 4206.153809, 4201.025391, 4205.641113, 4196.922852, 4171.281738, 4215.897461, 4187.692383, 3446.000000, 8200.000000, 8147.000000, 0.000000, 0.000000, 0.000000, -21998.000000, 672.820496, 4.000000, 4.000000, 4.000000, 4.000000, 4.000000, 4.000000, 4.000000, 4.000000, 4.000000, 4.000000, 4.000000, 4.000000, 4.000000, 4.000000, 4.000000, 4.000000
106.000000, 0.000000, 4157.948730, 4189.743652, 4198.461426, 4198.461426, 4181.538574, 4196.922852, 4194.358887, 4209.230469, 4208.205078, 4206.153809, 4206.666504, 4181.025391, 4229.230469, 4204.102539, 3542.000000, 8200.000000, 8147.000000, 0.000000, 0.000000, 0.000000, -21998.000000, 680.512817, 4.000000, 4.000000, 4.000000, 4.000000, 4.000000, 4.000000, 4.000000, 4.000000, 4.000000, 4.000000, 4.000000, 4.000000, 4.000000, 4.000000, 4.000000, 4.000000
107.000000, 0.000000, 4155.384277, 4190.256348, 4195.897461, 4197.948730, 4188.717773, 4192.307617, 4193.333008, 4214.871582, 4211.794922, 4207.692383, 4212.820313, 4190.256348, 4235.897461, 4199.487305, 1160.000000, 8204.000000, 8150.000000, 0.000000, 0.000000, 0.000000, -21998.000000, 688.717957, 4.000000, 4.000000, 4.000000, 4.000000, 4.000000, 4.000000, 4.000000, 4.000000, 4.000000, 4.000000, 4.000000, 4.000000, 4.000000, 4.000000, 4.000000, 4.000000
108.000000, 0.000000, 4159.487305, 4194.358887, 4192.307617, 4198.974121, 4200.512695, 4192.307617, 4193.333008, 4212.307617, 4200.000000, 4209.743652, 4209.230469, 4183.076660, 4229.230469, 4197.436035, 3479.000000, 8204.000000, 8150.000000, 0.000000, 0.000000, 0.000000, -21998.000000, 696.410217, 4.000000, 4.000000, 4.000000, 4.000000, 4.000000, 4.000000, 4.000000, 4.000000, 4.000000, 4.000000, 4.000000, 4.000000, 4.000000, 4.000000, 4.000000, 4.000000
109.000000, 0.000000, 4153.333008, 4187.692383, 4189.743652, 4194.871582, 4200.000000, 4200.000000, 4193.333008, 4203.589844, 4189.743652, 4208.717773, 4204.102539, 4172.820313, 4223.589844, 4194.871582, 3446.000000, 8205.000000, 8154.000000, 0.000000, 0.000000, 0.000000, -21998.000000, 704.102539, 4.000000, 4.000000, 4.000000, 4.000000, 4.000000, 4.000000, 4.000000, 4.000000, 4.000000, 4.000000, 4.000000, 4.000000, 4.000000, 4.000000, 4.000000, 4.000000
110.000000, 0.000000, 4142.051270, 4178.461426, 4188.205078, 4186.666504, 4192.307617, 4201.025391, 4200.000000, 4200.512695, 4194.871582, 4206.153809, 4201.538574, 4170.256348, 4226.153809, 4188.205078, 3542.000000, 8205.000000, 8154.000000, 0.000000, 0.000000, 0.000000, -21998.000000, 712.307678, 4.000000, 4.000000, 4.000000, 4.000000, 4.000000, 4.000000, 4.000000, 4.000000, 4.000000, 4.000000, 4.000000, 4.000000, 4.000000, 4.000000, 4.000000, 4.000000
111.000000, 0.000000, 4156.922852, 4187.179199, 4194.871582, 4191.794922, 4195.384277, 4200.512695, 4204.102539, 4210.769043, 4208.717773, 4210.769043, 4202.051270, 4174.358887, 4227.179199, 4198.461426, 1160.000000, 8196.000000, 8151.000000, 0.000000, 0.000000, 0.000000, -21998.000000, 720.000000, 4.000000, 4.000000, 4.000000, 4.000000, 4.000000, 4.000000, 4.000000, 4.000000, 4.000000, 4.000000, 4.000000, 4.000000, 4.000000, 4.000000, 4.000000, 4.000000
112.000000, 0.000000, 4157.436035, 4187.692383, 4194.358887, 4204.615234, 4197.436035, 4205.127930, 4198.974121, 4227.692383, 4220.512695, 4222.051270, 4209.230469, 4178.461426, 4230.769043, 4189.743652, 3479.000000, 8196.000000, 8151.000000, 0.000000, 0.000000, 0.000000, -21998.000000, 727.692261, 4.000000, 4.000000, 4.000000, 4.000000, 4.000000, 4.000000, 4.000000, 4.000000, 4.000000, 4.000000, 4.000000, 4.000000, 4.000000, 4.000000, 4.000000, 4.000000
113.000000, 0.000000, 4155.897461, 4188.717773, 4193.333008, 4198.974121, 4183.589844, 4203.076660, 4202.051270, 4227.179199, 4215.897461, 4220.000000, 4209.743652, 4174.871582, 4233.333008, 4193.333008, 3446.000000, 8198.000000, 8152.000000, 0.000000, 0.000000, 0.000000, -21998.000000, 735.897400, 4.000000, 4.000000, 4.000000, 4.000000, 4.000000, 4.000000, 4.000000, 4.000000, 4.000000, 4.000000, 4.000000, 4.000000, 4.000000, 4.000000, 4.000000, 4.000000
114.000000, 0.000000, 4150.769043, 4182.051270, 4191.794922, 4185.127930, 4179.487305, 4200.512695, 4207.692383, 4219.487305, 4201.025391, 4207.179199, 4203.076660, 4173.333008, 4228.717773, 4196.410156, 3542.000000, 8198.000000, 8152.000000, 0.000000, 0.000000, 0.000000, -21998.000000, 743.589722, 4.000000, 4.000000, 4.000000, 4.000000, 4.000000, 4.000000, 4.000000, 4.000000, 4.000000, 4.000000, 4.000000, 4.000000, 4.000000, 4.000000, 4.000000, 4.000000
115.000000, 0.000000, 4139.487305, 4174.871582, 4188.205078, 4183.589844, 4190.769043, 4203.589844, 4200.000000, 4227.179199, 4205.641113, 4209.230469, 4201.538574, 4180.000000, 4226.153809, 4185.641113, 1160.000000, 8202.000000, 8154.000000, 0.000000, 0.000000, 0.000000, -21998.000000, 751.794861, 4.000000, 4.000000, 4.000000, 4.000000, 4.000000, 4.000000, 4.000000, 4.000000, 4.000000, 4.000000, 4.000000, 4.000000, 4.000000, 4.000000, 4.000000, 4.000000
116.000000, 0.000000, 4149.743652, 4184.615234, 4195.897461, 4188.205078, 4200.000000, 4206.153809, 4198.461426, 4236.922852, 4223.589844, 4224.102539, 4207.179199, 4186.153809, 4229.743652, 4199.487305, 3479.000000, 8202.000000, 8154.000000, 0.000000, 0.000000, 0.000000, -21998.000000, 759.487183, 4.000000, 4.000000, 4.000000, 4.000000, 4.000000, 4.000000, 4.000000, 4.000000, 4.000000, 4.000000, 4.000000, 4.000000, 4.000000, 4.000000, 4.000000, 4.000000
117.000000, 0.000000, 4146.666504, 4182.051270, 4197.436035, 4191.794922, 4203.076660, 4211.794922, 4211.794922, 4233.333008, 4228.205078, 4222.563965, 4209.743652, 4183.076660, 4231.281738, 4195.897461, 3446.000000, 8203.000000, 8152.000000, 0.000000, 0.000000, 0.000000, -21998.000000, 767.692261, 4.000000, 4.000000, 4.000000, 4.000000, 4.000000, 4.000000, 4.000000, 4.000000, 4.000000, 4.000000, 4.000000, 4.000000, 4.000000, 4.000000, 4.000000, 4.000000
118.000000, 0.000000, 4145.127930, 4181.025391, 4193.333008, 4192.307617, 4191.794922, 4213.846191, 4212.307617, 4227.179199, 4222.563965, 4205.641113, 4207.179199, 4183.076660, 4227.179199, 4191.794922, 3542.000000, 8203.000000, 8152.000000, 0.000000, 0.000000, 0.000000, -21998.000000, 775.384583, 4.000000, 4.000000, 4.000000, 4.000000, 4.000000, 4.000000, 4.000000, 4.000000, 4.000000, 4.000000, 4.000000, 4.000000, 4.000000, 4.000000, 4.000000, 4.000000
119.000000, 0.000000, 4149.743652, 4178.461426, 4195.897461, 4187.179199, 4171.281738, 4205.127930, 4201.538574, 4233.846191, 4226.153809, 4210.256348, 4206.666504, 4186.666504, 4226.153809, 4195.897461, 1160.000000, 8202.000000, 8155.000000, 0.000000, 0.000000, 0.000000, -21998.000000, 783.076904, 4.000000, 4.000000, 4.000000, 4.000000, 4.000000, 4.000000, 4.000000, 4.000000, 4.000000, 4.000000, 4.000000, 4.000000, 4.000000, 4.000000, 4.000000, 4.000000
120.000000, 0.000000, 4145.641113, 4172.307617, 4200.512695, 4190.769043, 4177.948730, 4205.641113, 4203.589844, 4236.922852, 4228.717773, 4229.743652, 4208.717773, 4185.127930, 4228.717773, 4190.256348, 3479.000000, 8202.000000, 8155.000000, 0.000000, 0.000000, 0.000000, -21998.000000, 791.282043, 4.000000, 4.000000, 4.000000, 4.000000, 4.000000, 4.000000, 4.000000, 4.000000, 4.000000, 4.000000, 4.000000, 4.000000, 4.000000, 4.000000, 4.000000, 4.000000
121.000000, 0.000000, 4152.307617, 4182.051270, 4205.641113, 4204.102539, 4200.000000, 4214.358887, 4207.179199, 4226.666504, 4219.487305, 4226.153809, 4210.769043, 4187.179199, 4230.256348, 4201.025391, 3446.000000, 8201.000000, 8164.000000, 0.000000, 0.000000, 0.000000, -21998.000000, 798.974365, 4.000000, 4.000000, 4.000000, 4.000000, 4.000000, 4.000000, 4.000000, 4.000000, 4.000000, 4.000000, 4.000000, 4.000000, 4.000000, 4.000000, 4.000000, 4.000000
122.000000, 0.000000, 4143.076660, 4177.948730, 4198.974121, 4199.487305, 4195.897461, 4209.230469, 4198.461426, 4226.153809, 4218.461426, 4211.281738, 4207.692383, 4188.717773, 4224.615234, 4193.846191, 3542.000000, 8201.000000, 8164.000000, 0.000000, 0.000000, 0.000000, -21998.000000, 807.179443, 4.000000, 4.000000, 4.000000, 4.000000, 4.000000, 4.000000, 4.000000, 4.000000, 4.000000, 4.000000, 4.000000, 4.000000, 4.000000, 4.000000, 4.000000, 4.000000
123.000000, 0.000000, 4135.897461, 4170.769043, 4191.794922, 4184.615234, 4186.153809, 4199.487305, 4192.307617, 4229.743652, 4215.897461, 4207.692383, 4196.410156, 4179.487305, 4208.205078, 4185.641113, 1160.000000, 8199.000000, 8165.000000, 0.000000, 0.000000, 0.000000, -21998.000000, 814.871765, 4.000000, 4.000000, 4.000000, 4.000000, 4.000000, 4.000000, 4.000000, 4.000000, 4.000000, 4.000000, 4.000000, 4.000000, 4.000000, 4.000000, 4.000000, 4.000000
124.000000, 0.000000, 4140.000000, 4171.794922, 4194.871582, 4184.102539, 4186.153809, 4197.948730, 4191.794922, 4224.102539, 4207.179199, 4208.717773, 4192.307617, 4174.358887, 4201.538574, 4193.846191, 3479.000000, 8199.000000, 8165.000000, 0.000000, 0.000000, 0.000000, -21998.000000, 823.076904, 4.000000, 4.000000, 4.000000, 4.000000, 4.000000, 4.000000, 4.000000, 4.000000, 4.000000, 4.000000, 4.000000, 4.000000, 4.000000, 4.000000, 4.000000, 4.000000
125.000000, 0.000000, 4137.948730, 4168.717773, 4190.769043, 4188.205078, 4180.000000, 4200.512695, 4198.461426, 4222.563965, 4209.743652, 4212.820313, 4199.487305, 4178.461426, 4204.615234, 4191.794922, 3446.000000, 8200.000000, 8172.000000, 0.000000, 0.000000, 0.000000, -21998.000000, 830.769226, 4.000000, 4.000000, 4.000000, 4.000000, 4.000000, 4.000000, 4.000000, 4.000000, 4.000000, 4.000000, 4.000000, 4.000000, 4.000000, 4.000000, 4.000000, 4.000000
126.000000, 0.000000, 4139.487305, 4170.256348, 4183.076660, 4184.615234, 4177.436035, 4207.179199, 4210.256348, 4229.743652, 4215.384277, 4212.820313, 4196.922852, 4172.307617, 4198.461426, 4196.922852, 3542.000000, 8200.000000, 8172.000000, 0.000000, 0.000000, 0.000000, -21998.000000, 838.461548, 4.000000, 4.000000, 4.000000, 4.000000, 4.000000, 4.000000, 4.000000, 4.000000, 4.000000, 4.000000, 4.000000, 4.000000, 4.000000, 4.000000, 4.000000, 4.000000
127.000000, 0.000000, 4125.127930, 4162.563965, 4180.512695, 4181.025391, 4191.281738, 4212.307617, 4207.692383, 4238.461426, 4217.948730, 4209.230469, 4191.281738, 4165.641113, 4191.794922, 4188.717773, 54.000000, 8195.000000, 8172.000000, 0.000000, 0.000000, 0.000000, -21998.000000, 846.153809, 4.000000, 4.000000, 4.000000, 4.000000, 4.000000, 4.000000, 4.000000, 4.000000, 4.000000, 4.000000, 4.000000, 4.000000, 4.000000, 4.000000, 4.000000, 4.000000
0.000000, 0.000000, 4131.794922, 4168.717773, 4190.256348, 4184.102539, 4196.410156, 4209.743652, 4201.025391, 4238.461426, 4218.461426, 4211.794922, 4201.025391, 4176.410156, 4207.179199, 4194.358887, 3347.000000, 8195.000000, 8172.000000, 0.000000, 0.000000, 0.000000, -21998.000000, 854.358948, 4.000000, 4.000000, 4.000000, 4.000000, 4.000000, 4.000000, 4.000000, 4.000000, 4.000000, 4.000000, 4.000000, 4.000000, 4.000000, 4.000000, 4.000000, 4.000000
1.000000, 0.000000, 4144.615234, 4174.871582, 4197.948730, 4187.179199, 4186.666504, 4207.179199, 4207.179199, 4225.641113, 4209.230469, 4210.256348, 4203.589844, 4180.512695, 4204.615234, 4200.512695, 3506.000000, 8196.000000, 8170.000000, 0.000000, 0.000000, 0.000000, -21998.000000, 862.051270, 4.000000, 4.000000, 4.000000, 4.000000, 4.000000, 4.000000, 4.000000, 4.000000, 4.000000, 4.000000, 4.000000, 4.000000, 4.000000, 4.000000, 4.000000, 4.000000
2.000000, 0.000000, 4118.974121, 4153.333008, 4188.205078, 4181.025391, 4187.692383, 4206.153809, 4206.666504, 4220.000000, 4198.974121, 4194.358887, 4185.127930, 4168.205078, 4171.281738, 4177.948730, 2789.000000, 8196.000000, 8170.000000, 0.000000, 0.000000, 0.000000, -21998.000000, 869.743591, 4.000000, 4.000000, 4.000000, 4.000000, 4.000000, 4.000000, 4.000000, 4.000000, 4.000000, 4.000000, 4.000000, 4.000000, 4.000000, 4.000000, 4.000000, 4.000000
3.000000, 0.000000, 4115.384277, 4149.743652, 4182.051270, 4174.871582, 4190.769043, 4205.127930, 4197.948730, 4223.076660, 4201.025391, 4188.205078, 4180.000000, 4165.641113, 4168.205078, 4187.179199, 2026.000000, 8197.000000, 8165.000000, 0.000000, 0.000000, 0.000000, -21998.000000, 877.948669, 4.000000, 4.000000, 4.000000, 4.000000, 4.000000, 4.000000, 4.000000, 4.000000, 4.000000, 4.000000, 4.000000, 4.000000, 4.000000, 4.000000, 4.000000, 4.000000
4.000000, 0.000000, 4133.333008, 4160.000000, 4184.615234, 4183.589844, 4185.641113, 4202.051270, 4194.871582, 4222.051270, 4208.205078, 4204.615234, 4202.563965, 4174.358887, 4204.615234, 4198.461426, 3529.000000, 8197.000000, 8165.000000, 0.000000, 0.000000, 0.000000, -21998.000000, 885.640991, 4.000000, 4.000000, 4.000000, 4.000000, 4.000000, 4.000000, 4.000000, 4.000000, 4.000000, 4.000000, 4.000000, 4.000000, 4.000000, 4.000000, 4.000000, 4.000000
5.000000, 0.000000, 4147.692383, 4167.692383, 4195.384277, 4194.358887, 4190.256348, 4202.563965, 4202.563965, 4225.641113, 4214.358887, 4211.794922, 4221.025391, 4183.076660, 4226.666504, 4197.436035, 3541.000000, 8189.000000, 8163.000000, 0.000000, 0.000000, 0.000000, -21998.000000, 893.846130, 4.000000, 4.000000, 4.000000, 4.000000, 4.000000, 4.000000, 4.000000, 4.000000, 4.000000, 4.000000, 4.000000, 4.000000, 4.000000, 4.000000, 4.000000, 4.000000
6.000000, 0.000000, 4151.281738, 4165.127930, 4207.179199, 4191.281738, 4203.076660, 4207.692383, 4207.692383, 4236.922852, 4221.538574, 4212.820313, 4228.205078, 4193.333008, 4228.717773, 4202.563965, 3057.000000, 8189.000000, 8163.000000, 0.000000, 0.000000, 0.000000, -21998.000000, 901.538452, 4.000000, 4.000000, 4.000000, 4.000000, 4.000000, 4.000000, 4.000000, 4.000000, 4.000000, 4.000000, 4.000000, 4.000000, 4.000000, 4.000000, 4.000000, 4.000000
7.000000, 0.000000, 4143.076660, 4151.281738, 4203.076660, 4184.102539, 4198.461426, 4207.692383, 4202.051270, 4238.974121, 4224.615234, 4224.615234, 4235.384277, 4201.025391, 4243.076660, 4194.871582, 3511.000000, 8180.000000, 8168.000000, 0.000000, 0.000000, 0.000000, -21998.000000, 909.230774, 4.000000, 4.000000, 4.000000, 4.000000, 4.000000, 4.000000, 4.000000, 4.000000, 4.000000, 4.000000, 4.000000, 4.000000, 4.000000, 4.000000, 4.000000, 4.000000
8.000000, 0.000000, 4153.846191, 4154.358887, 4200.512695, 4184.615234, 4183.076660, 4196.922852, 4198.974121, 4239.487305, 4227.692383, 4232.820313, 4242.051270, 4202.051270, 4260.512695, 4201.538574, 3519.000000, 8180.000000, 8168.000000, 0.000000, 0.000000, 0.000000, -21998.000000, 917.435852, 4.000000, 4.000000, 4.000000, 4.000000, 4.000000, 4.000000, 4.000000, 4.000000, 4.000000, 4.000000, 4.000000, 4.000000, 4.000000, 4.000000, 4.000000, 4.000000
