title:neutral-3, recorded:15.05.18 09.59.58, timestamp started:2018-05-12T20:28:52.032863+02:00            , sampling:128, subject:Noé, labels:COUNTER INTERPOLATED AF3 F7 F3 FC5 T7 P7 O1 O2 P8 T8 FC6 F4 F8 AF4 RAW_CQ GYROX GYROY MARKER MARKER_HARDWARE SYNC TIME_STAMP_s TIME_STAMP_ms CQ_AF3 CQ_F7 CQ_F3 CQ_FC5 CQ_T7 CQ_P7 CQ_O1 CQ_O2 CQ_P8 CQ_T8 CQ_FC6 CQ_F4 CQ_F8 CQ_AF4 CQ_CMS CQ_DRL, chan:40, samples:7598, units:emotiv
24.000000, 0.000000, 4203.589844, 4227.179199, 4216.922852, 4215.897461, 4232.820313, 4218.461426, 4200.512695, 4216.922852, 4198.974121, 4158.974121, 4198.974121, 4184.102539, 4153.333008, 4203.076660, 0.000000, 8352.000000, 8085.000000, 0.000000, 0.000000, 0.000000, 24859.000000, 211.282043, 4.000000, 4.000000, 4.000000, 4.000000, 4.000000, 4.000000, 4.000000, 4.000000, 4.000000, 4.000000, 4.000000, 4.000000, 4.000000, 4.000000, 4.000000, 4.000000
25.000000, 0.000000, 4208.717773, 4240.000000, 4217.948730, 4225.127930, 4232.820313, 4218.461426, 4204.102539, 4215.897461, 4192.307617, 4166.153809, 4204.615234, 4181.538574, 4166.153809, 4227.692383, 0.000000, 8364.000000, 8065.000000, 0.000000, 0.000000, 0.000000, 24859.000000, 219.487167, 4.000000, 4.000000, 4.000000, 4.000000, 4.000000, 4.000000, 4.000000, 4.000000, 4.000000, 4.000000, 4.000000, 4.000000, 4.000000, 4.000000, 4.000000, 4.000000
26.000000, 0.000000, 4208.205078, 4263.076660, 4224.615234, 4234.358887, 4227.179199, 4215.897461, 4201.025391, 4205.641113, 4186.153809, 4172.307617, 4218.974121, 4191.794922, 4178.974121, 4255.897461, 0.000000, 8364.000000, 8065.000000, 0.000000, 0.000000, 0.000000, 24859.000000, 227.179489, 4.000000, 4.000000, 4.000000, 4.000000, 4.000000, 4.000000, 4.000000, 4.000000, 4.000000, 4.000000, 4.000000, 4.000000, 4.000000, 4.000000, 4.000000, 4.000000
27.000000, 0.000000, 4202.563965, 4264.102539, 4230.769043, 4233.333008, 4216.410156, 4213.846191, 4198.974121, 4201.538574, 4187.179199, 4169.230469, 4231.281738, 4201.025391, 4178.974121, 4270.256348, 0.000000, 8382.000000, 8039.000000, 0.000000, 0.000000, 0.000000, 24859.000000, 234.871796, 4.000000, 4.000000, 4.000000, 4.000000, 4.000000, 4.000000, 4.000000, 4.000000, 4.000000, 4.000000, 4.000000, 4.000000, 4.000000, 4.000000, 4.000000, 4.000000
28.000000, 0.000000, 4201.025391, 4255.897461, 4231.794922, 4231.281738, 4220.512695, 4215.384277, 4203.076660, 4205.127930, 4187.179199, 4168.717773, 4230.769043, 4205.641113, 4172.820313, 4277.436035, 0.000000, 8382.000000, 8039.000000, 0.000000, 0.000000, 0.000000, 24859.000000, 243.076920, 4.000000, 4.000000, 4.000000, 4.000000, 4.000000, 4.000000, 4.000000, 4.000000, 4.000000, 4.000000, 4.000000, 4.000000, 4.000000, 4.000000, 4.000000, 4.000000
29.000000, 0.000000, 4197.436035, 4263.076660, 4230.256348, 4232.820313, 4227.179199, 4216.410156, 4204.102539, 4206.666504, 4187.692383, 4167.692383, 4224.102539, 4211.281738, 4171.281738, 4281.538574, 0.000000, 8394.000000, 7991.000000, 0.000000, 0.000000, 0.000000, 24859.000000, 250.769226, 4.000000, 4.000000, 4.000000, 4.000000, 4.000000, 4.000000, 4.000000, 4.000000, 4.000000, 4.000000, 4.000000, 4.000000, 4.000000, 4.000000, 4.000000, 4.000000
30.000000, 0.000000, 4195.897461, 4270.769043, 4232.820313, 4238.974121, 4222.051270, 4215.384277, 4201.025391, 4208.717773, 4195.897461, 4171.281738, 4228.205078, 4217.436035, 4172.820313, 4285.127930, 0.000000, 8394.000000, 7991.000000, 0.000000, 0.000000, 0.000000, 24859.000000, 258.974365, 4.000000, 4.000000, 4.000000, 4.000000, 4.000000, 4.000000, 4.000000, 4.000000, 4.000000, 4.000000, 4.000000, 4.000000, 4.000000, 4.000000, 4.000000, 4.000000
31.000000, 0.000000, 4194.358887, 4268.717773, 4237.948730, 4246.153809, 4223.589844, 4216.922852, 4198.974121, 4215.384277, 4204.615234, 4184.102539, 4240.512695, 4223.589844, 4172.820313, 4285.641113, 0.000000, 8395.000000, 7972.000000, 0.000000, 0.000000, 0.000000, 24859.000000, 266.666656, 4.000000, 4.000000, 4.000000, 4.000000, 4.000000, 4.000000, 4.000000, 4.000000, 4.000000, 4.000000, 4.000000, 4.000000, 4.000000, 4.000000, 4.000000, 4.000000
32.000000, 0.000000, 4186.666504, 4256.410156, 4232.820313, 4237.436035, 4225.127930, 4217.436035, 4200.000000, 4215.384277, 4202.563965, 4186.666504, 4234.871582, 4216.922852, 4165.127930, 4275.897461, 0.000000, 8395.000000, 7972.000000, 0.000000, 0.000000, 0.000000, 24859.000000, 274.358978, 4.000000, 4.000000, 4.000000, 4.000000, 4.000000, 4.000000, 4.000000, 4.000000, 4.000000, 4.000000, 4.000000, 4.000000, 4.000000, 4.000000, 4.000000, 4.000000
33.000000, 0.000000, 4185.127930, 4238.461426, 4218.974121, 4219.487305, 4213.333008, 4215.384277, 4205.127930, 4203.589844, 4193.846191, 4180.000000, 4218.461426, 4201.538574, 4155.384277, 4258.461426, 0.000000, 8412.000000, 7941.000000, 0.000000, 0.000000, 0.000000, 24859.000000, 282.051270, 4.000000, 4.000000, 4.000000, 4.000000, 4.000000, 4.000000, 4.000000, 4.000000, 4.000000, 4.000000, 4.000000, 4.000000, 4.000000, 4.000000, 4.000000, 4.000000
34.000000, 0.000000, 4185.127930, 4231.281738, 4213.846191, 4214.871582, 4212.820313, 4217.436035, 4202.563965, 4199.487305, 4194.358887, 4184.615234, 4223.589844, 4198.974121, 4154.871582, 4250.769043, 0.000000, 8412.000000, 7941.000000, 0.000000, 0.000000, 0.000000, 24859.000000, 290.256409, 4.000000, 4.000000, 4.000000, 4.000000, 4.000000, 4.000000, 4.000000, 4.000000, 4.000000, 4.000000, 4.000000, 4.000000, 4.000000, 4.000000, 4.000000, 4.000000
35.000000, 0.000000, 4183.589844, 4225.641113, 4216.410156, 4216.410156, 4218.974121, 4211.794922, 4188.717773, 4204.615234, 4201.025391, 4190.256348, 4229.743652, 4205.127930, 4155.384277, 4246.153809, 0.000000, 8424.000000, 7932.000000, 0.000000, 0.000000, 0.000000, 24859.000000, 298.461517, 4.000000, 4.000000, 4.000000, 4.000000, 4.000000, 4.000000, 4.000000, 4.000000, 4.000000, 4.000000, 4.000000, 4.000000, 4.000000, 4.000000, 4.000000, 4.000000
36.000000, 0.000000, 4185.641113, 4213.846191, 4215.897461, 4213.846191, 4210.769043, 4204.102539, 4187.692383, 4204.102539, 4202.051270, 4185.127930, 4221.025391, 4202.563965, 4152.307617, 4235.897461, 0.000000, 8424.000000, 7932.000000, 0.000000, 0.000000, 0.000000, 24859.000000, 306.153839, 4.000000, 4.000000, 4.000000, 4.000000, 4.000000, 4.000000, 4.000000, 4.000000, 4.000000, 4.000000, 4.000000, 4.000000, 4.000000, 4.000000, 4.000000, 4.000000
37.000000, 0.000000, 4188.205078, 4214.358887, 4216.922852, 4215.384277, 4211.794922, 4211.794922, 4200.000000, 4205.127930, 4201.538574, 4189.743652, 4220.000000, 4201.538574, 4153.333008, 4234.871582, 0.000000, 8439.000000, 7933.000000, 0.000000, 0.000000, 0.000000, 24859.000000, 313.846161, 4.000000, 4.000000, 4.000000, 4.000000, 4.000000, 4.000000, 4.000000, 4.000000, 4.000000, 4.000000, 4.000000, 4.000000, 4.000000, 4.000000, 4.000000, 4.000000
38.000000, 0.000000, 4190.769043, 4217.948730, 4216.922852, 4216.922852, 4214.871582, 4221.025391, 4203.076660, 4210.256348, 4204.102539, 4205.127930, 4224.615234, 4206.666504, 4151.281738, 4234.871582, 0.000000, 8439.000000, 7933.000000, 0.000000, 0.000000, 0.000000, 24859.000000, 322.051270, 4.000000, 4.000000, 4.000000, 4.000000, 4.000000, 4.000000, 4.000000, 4.000000, 4.000000, 4.000000, 4.000000, 4.000000, 4.000000, 4.000000, 4.000000, 4.000000
39.000000, 0.000000, 4188.205078, 4201.538574, 4207.692383, 4209.743652, 4202.051270, 4218.461426, 4206.153809, 4207.692383, 4204.615234, 4206.153809, 4214.871582, 4201.025391, 4137.948730, 4221.538574, 0.000000, 8471.000000, 7944.000000, 0.000000, 0.000000, 0.000000, 24859.000000, 329.743591, 4.000000, 4.000000, 4.000000, 4.000000, 4.000000, 4.000000, 4.000000, 4.000000, 4.000000, 4.000000, 4.000000, 4.000000, 4.000000, 4.000000, 4.000000, 4.000000
40.000000, 0.000000, 4190.769043, 4181.538574, 4196.922852, 4198.461426, 4198.974121, 4217.436035, 4212.820313, 4202.563965, 4203.076660, 4196.922852, 4203.076660, 4191.281738, 4133.333008, 4208.205078, 0.000000, 8471.000000, 7944.000000, 0.000000, 0.000000, 0.000000, 24859.000000, 337.948700, 4.000000, 4.000000, 4.000000, 4.000000, 4.000000, 4.000000, 4.000000, 4.000000, 4.000000, 4.000000, 4.000000, 4.000000, 4.000000, 4.000000, 4.000000, 4.000000
41.000000, 0.000000, 4196.922852, 4180.000000, 4190.256348, 4195.384277, 4205.641113, 4217.948730, 4207.179199, 4198.974121, 4201.025391, 4202.051270, 4202.563965, 4187.692383, 4140.512695, 4211.281738, 0.000000, 8484.000000, 7953.000000, 0.000000, 0.000000, 0.000000, 24859.000000, 345.641022, 4.000000, 4.000000, 4.000000, 4.000000, 4.000000, 4.000000, 4.000000, 4.000000, 4.000000, 4.000000, 4.000000, 4.000000, 4.000000, 4.000000, 4.000000, 4.000000
42.000000, 0.000000, 4200.512695, 4182.563965, 4188.205078, 4197.948730, 4202.563965, 4214.871582, 4198.974121, 4188.717773, 4195.384277, 4211.794922, 4201.538574, 4185.641113, 4141.538574, 4222.051270, 0.000000, 8484.000000, 7953.000000, 0.000000, 0.000000, 0.000000, 24859.000000, 353.333313, 4.000000, 4.000000, 4.000000, 4.000000, 4.000000, 4.000000, 4.000000, 4.000000, 4.000000, 4.000000, 4.000000, 4.000000, 4.000000, 4.000000, 4.000000, 4.000000
43.000000, 0.000000, 4207.692383, 4180.512695, 4194.871582, 4201.538574, 4199.487305, 4216.922852, 4202.051270, 4186.153809, 4194.871582, 4213.846191, 4207.179199, 4190.769043, 4142.051270, 4232.307617, 0.000000, 8502.000000, 7963.000000, 0.000000, 0.000000, 0.000000, 24859.000000, 361.538452, 4.000000, 4.000000, 4.000000, 4.000000, 4.000000, 4.000000, 4.000000, 4.000000, 4.000000, 4.000000, 4.000000, 4.000000, 4.000000, 4.000000, 4.000000, 4.000000
44.000000, 0.000000, 4210.256348, 4182.563965, 4202.051270, 4209.230469, 4202.563965, 4214.871582, 4201.538574, 4196.922852, 4191.794922, 4213.846191, 4213.846191, 4198.461426, 4146.666504, 4241.025391, 0.000000, 8502.000000, 7963.000000, 0.000000, 0.000000, 0.000000, 24859.000000, 369.230774, 4.000000, 4.000000, 4.000000, 4.000000, 4.000000, 4.000000, 4.000000, 4.000000, 4.000000, 4.000000, 4.000000, 4.000000, 4.000000, 4.000000, 4.000000, 4.000000
45.000000, 0.000000, 4211.794922, 4187.179199, 4204.102539, 4215.384277, 4200.000000, 4205.127930, 4198.461426, 4201.025391, 4182.051270, 4213.846191, 4213.846191, 4202.563965, 4147.692383, 4246.153809, 0.000000, 8500.000000, 7965.000000, 0.000000, 0.000000, 0.000000, 24859.000000, 377.435883, 4.000000, 4.000000, 4.000000, 4.000000, 4.000000, 4.000000, 4.000000, 4.000000, 4.000000, 4.000000, 4.000000, 4.000000, 4.000000, 4.000000, 4.000000, 4.000000
46.000000, 0.000000, 4213.333008, 4190.256348, 4210.769043, 4218.461426, 4199.487305, 4203.076660, 4201.538574, 4198.461426, 4188.205078, 4218.461426, 4224.102539, 4207.692383, 4152.307617, 4254.871582, 0.000000, 8500.000000, 7965.000000, 0.000000, 0.000000, 0.000000, 24859.000000, 385.128204, 4.000000, 4.000000, 4.000000, 4.000000, 4.000000, 4.000000, 4.000000, 4.000000, 4.000000, 4.000000, 4.000000, 4.000000, 4.000000, 4.000000, 4.000000, 4.000000
47.000000, 0.000000, 4209.743652, 4187.692383, 4213.333008, 4217.436035, 4195.897461, 4203.076660, 4201.025391, 4200.000000, 4204.615234, 4230.769043, 4233.846191, 4209.230469, 4155.897461, 4258.461426, 0.000000, 8482.000000, 8008.000000, 0.000000, 0.000000, 0.000000, 24859.000000, 392.820496, 4.000000, 4.000000, 4.000000, 4.000000, 4.000000, 4.000000, 4.000000, 4.000000, 4.000000, 4.000000, 4.000000, 4.000000, 4.000000, 4.000000, 4.000000, 4.000000
48.000000, 0.000000, 4209.230469, 4175.384277, 4203.589844, 4205.641113, 4184.102539, 4200.000000, 4201.538574, 4199.487305, 4198.461426, 4234.871582, 4221.025391, 4197.436035, 4147.179199, 4249.230469, 0.000000, 8482.000000, 8008.000000, 0.000000, 0.000000, 0.000000, 24859.000000, 400.512817, 4.000000, 4.000000, 4.000000, 4.000000, 4.000000, 4.000000, 4.000000, 4.000000, 4.000000, 4.000000, 4.000000, 4.000000, 4.000000, 4.000000, 4.000000, 4.000000
49.000000, 0.000000, 4210.769043, 4166.153809, 4197.948730, 4197.436035, 4182.051270, 4206.153809, 4207.179199, 4197.436035, 4185.641113, 4224.615234, 4208.717773, 4190.256348, 4143.589844, 4242.051270, 0.000000, 8472.000000, 8027.000000, 0.000000, 0.000000, 0.000000, 24859.000000, 408.717926, 4.000000, 4.000000, 4.000000, 4.000000, 4.000000, 4.000000, 4.000000, 4.000000, 4.000000, 4.000000, 4.000000, 4.000000, 4.000000, 4.000000, 4.000000, 4.000000
50.000000, 0.000000, 4210.769043, 4175.384277, 4203.076660, 4207.692383, 4188.205078, 4216.410156, 4209.230469, 4203.076660, 4196.410156, 4225.127930, 4217.436035, 4200.512695, 4153.333008, 4247.692383, 0.000000, 8472.000000, 8027.000000, 0.000000, 0.000000, 0.000000, 24859.000000, 416.410248, 4.000000, 4.000000, 4.000000, 4.000000, 4.000000, 4.000000, 4.000000, 4.000000, 4.000000, 4.000000, 4.000000, 4.000000, 4.000000, 4.000000, 4.000000, 4.000000
51.000000, 0.000000, 4206.153809, 4186.153809, 4203.589844, 4217.948730, 4189.230469, 4217.436035, 4204.615234, 4204.102539, 4208.717773, 4235.384277, 4220.000000, 4204.102539, 4157.436035, 4252.307617, 0.000000, 8449.000000, 8038.000000, 0.000000, 0.000000, 0.000000, 24859.000000, 424.102539, 4.000000, 4.000000, 4.000000, 4.000000, 4.000000, 4.000000, 4.000000, 4.000000, 4.000000, 4.000000, 4.000000, 4.000000, 4.000000, 4.000000, 4.000000, 4.000000
52.000000, 0.000000, 4205.641113, 4184.615234, 4203.589844, 4215.897461, 4188.717773, 4213.846191, 4198.461426, 4192.820313, 4195.897461, 4231.794922, 4215.897461, 4198.974121, 4152.307617, 4252.307617, 0.000000, 8449.000000, 8038.000000, 0.000000, 0.000000, 0.000000, 24859.000000, 431.794861, 4.000000, 4.000000, 4.000000, 4.000000, 4.000000, 4.000000, 4.000000, 4.000000, 4.000000, 4.000000, 4.000000, 4.000000, 4.000000, 4.000000, 4.000000, 4.000000
53.000000, 0.000000, 4211.794922, 4184.102539, 4208.205078, 4214.871582, 4195.897461, 4216.922852, 4199.487305, 4186.153809, 4186.153809, 4228.205078, 4222.563965, 4200.512695, 4154.358887, 4260.512695, 0.000000, 8363.000000, 8088.000000, 0.000000, 0.000000, 0.000000, 24859.000000, 440.000000, 4.000000, 4.000000, 4.000000, 4.000000, 4.000000, 4.000000, 4.000000, 4.000000, 4.000000, 4.000000, 4.000000, 4.000000, 4.000000, 4.000000, 4.000000, 4.000000
54.000000, 0.000000, 4211.281738, 4181.538574, 4207.692383, 4216.410156, 4196.410156, 4226.666504, 4210.256348, 4190.256348, 4195.384277, 4237.948730, 4223.589844, 4206.153809, 4156.922852, 4264.615234, 0.000000, 8363.000000, 8088.000000, 0.000000, 0.000000, 0.000000, 24859.000000, 448.205109, 4.000000, 4.000000, 4.000000, 4.000000, 4.000000, 4.000000, 4.000000, 4.000000, 4.000000, 4.000000, 4.000000, 4.000000, 4.000000, 4.000000, 4.000000, 4.000000
55.000000, 0.000000, 4202.563965, 4173.333008, 4198.461426, 4212.820313, 4193.333008, 4227.179199, 4213.846191, 4190.256348, 4194.871582, 4232.820313, 4214.871582, 4201.025391, 4154.358887, 4253.333008, 0.000000, 8313.000000, 8088.000000, 0.000000, 0.000000, 0.000000, 24859.000000, 455.897430, 4.000000, 4.000000, 4.000000, 4.000000, 4.000000, 4.000000, 4.000000, 4.000000, 4.000000, 4.000000, 4.000000, 4.000000, 4.000000, 4.000000, 4.000000, 4.000000
56.000000, 0.000000, 4201.025391, 4167.692383, 4191.794922, 4206.153809, 4189.743652, 4217.948730, 4207.179199, 4185.127930, 4181.025391, 4214.358887, 4212.307617, 4190.769043, 4157.436035, 4246.666504, 0.000000, 8313.000000, 8088.000000, 0.000000, 0.000000, 0.000000, 24859.000000, 464.102539, 4.000000, 4.000000, 4.000000, 4.000000, 4.000000, 4.000000, 4.000000, 4.000000, 4.000000, 4.000000, 4.000000, 4.000000, 4.000000, 4.000000, 4.000000, 4.000000
57.000000, 0.000000, 4202.563965, 4169.230469, 4193.846191, 4202.563965, 4180.000000, 4214.871582, 4205.641113, 4185.641113, 4180.000000, 4217.948730, 4213.846191, 4193.333008, 4167.692383, 4255.384277, 0.000000, 8210.000000, 8071.000000, 0.000000, 0.000000, 0.000000, 24859.000000, 471.794861, 4.000000, 4.000000, 4.000000, 4.000000, 4.000000, 4.000000, 4.000000, 4.000000, 4.000000, 4.000000, 4.000000, 4.000000, 4.000000, 4.000000, 4.000000, 4.000000
58.000000, 0.000000, 4203.589844, 4180.512695, 4201.025391, 4209.230469, 4178.974121, 4219.487305, 4208.717773, 4188.205078, 4189.743652, 4234.358887, 4216.922852, 4202.051270, 4178.461426, 4265.641113, 0.000000, 8210.000000, 8071.000000, 0.000000, 0.000000, 0.000000, 24859.000000, 480.000000, 4.000000, 4.000000, 4.000000, 4.000000, 4.000000, 4.000000, 4.000000, 4.000000, 4.000000, 4.000000, 4.000000, 4.000000, 4.000000, 4.000000, 4.000000, 4.000000
59.000000, 0.000000, 4202.051270, 4187.179199, 4204.615234, 4213.846191, 4186.666504, 4216.922852, 4202.563965, 4181.025391, 4187.692383, 4236.410156, 4221.538574, 4202.563965, 4183.076660, 4264.615234, 0.000000, 8146.000000, 8074.000000, 0.000000, 0.000000, 0.000000, 24859.000000, 487.692291, 4.000000, 4.000000, 4.000000, 4.000000, 4.000000, 4.000000, 4.000000, 4.000000, 4.000000, 4.000000, 4.000000, 4.000000, 4.000000, 4.000000, 4.000000, 4.000000
60.000000, 0.000000, 4197.948730, 4180.000000, 4198.974121, 4206.153809, 4188.205078, 4211.281738, 4197.436035, 4172.820313, 4182.563965, 4227.179199, 4220.000000, 4195.384277, 4182.563965, 4258.461426, 0.000000, 8146.000000, 8074.000000, 0.000000, 0.000000, 0.000000, 24859.000000, 495.897430, 4.000000, 4.000000, 4.000000, 4.000000, 4.000000, 4.000000, 4.000000, 4.000000, 4.000000, 4.000000, 4.000000, 4.000000, 4.000000, 4.000000, 4.000000, 4.000000
61.000000, 0.000000, 4199.487305, 4167.692383, 4189.230469, 4198.974121, 4181.025391, 4214.871582, 4200.512695, 4169.743652, 4184.615234, 4227.179199, 4217.436035, 4191.281738, 4183.076660, 4252.307617, 0.000000, 8093.000000, 8071.000000, 0.000000, 0.000000, 0.000000, 24859.000000, 503.589722, 4.000000, 4.000000, 4.000000, 4.000000, 4.000000, 4.000000, 4.000000, 4.000000, 4.000000, 4.000000, 4.000000, 4.000000, 4.000000, 4.000000, 4.000000, 4.000000
62.000000, 0.000000, 4200.512695, 4160.512695, 4184.102539, 4197.948730, 4174.358887, 4213.333008, 4201.025391, 4171.281738, 4180.512695, 4234.871582, 4217.948730, 4190.769043, 4190.256348, 4250.769043, 0.000000, 8093.000000, 8071.000000, 0.000000, 0.000000, 0.000000, 24859.000000, 511.282043, 4.000000, 4.000000, 4.000000, 4.000000, 4.000000, 4.000000, 4.000000, 4.000000, 4.000000, 4.000000, 4.000000, 4.000000, 4.000000, 4.000000, 4.000000, 4.000000
63.000000, 0.000000, 4207.692383, 4163.076660, 4189.743652, 4196.922852, 4169.743652, 4202.563965, 4199.487305, 4176.922852, 4175.384277, 4232.820313, 4219.487305, 4195.384277, 4198.461426, 4255.897461, 0.000000, 7990.000000, 8051.000000, 0.000000, 0.000000, 0.000000, 24859.000000, 518.974365, 4.000000, 4.000000, 4.000000, 4.000000, 4.000000, 4.000000, 4.000000, 4.000000, 4.000000, 4.000000, 4.000000, 4.000000, 4.000000, 4.000000, 4.000000, 4.000000
64.000000, 0.000000, 4217.948730, 4170.769043, 4202.051270, 4199.487305, 4171.794922, 4197.948730, 4198.461426, 4182.563965, 4184.102539, 4230.256348, 4224.615234, 4203.589844, 4203.589844, 4264.102539, 3568.000000, 7990.000000, 8051.000000, 0.000000, 0.000000, 0.000000, 24859.000000, 527.179504, 4.000000, 4.000000, 4.000000, 4.000000, 4.000000, 4.000000, 4.000000, 4.000000, 4.000000, 4.000000, 4.000000, 4.000000, 4.000000, 4.000000, 4.000000, 4.000000
65.000000, 0.000000, 4218.461426, 4172.307617, 4202.051270, 4202.563965, 4184.102539, 4202.051270, 4201.538574, 4184.615234, 4193.333008, 4240.512695, 4229.230469, 4201.025391, 4209.230469, 4265.641113, 3574.000000, 7939.000000, 8039.000000, 0.000000, 0.000000, 0.000000, 24859.000000, 534.871765, 4.000000, 4.000000, 4.000000, 4.000000, 4.000000, 4.000000, 4.000000, 4.000000, 4.000000, 4.000000, 4.000000, 4.000000, 4.000000, 4.000000, 4.000000, 4.000000
66.000000, 0.000000, 4218.461426, 4169.743652, 4191.794922, 4199.487305, 4185.641113, 4203.076660, 4201.538574, 4185.127930, 4193.846191, 4251.281738, 4229.230469, 4188.717773, 4215.897461, 4257.948730, 1555.000000, 7939.000000, 8039.000000, 0.000000, 0.000000, 0.000000, 24859.000000, 542.564087, 4.000000, 4.000000, 4.000000, 4.000000, 4.000000, 4.000000, 4.000000, 4.000000, 4.000000, 4.000000, 4.000000, 4.000000, 4.000000, 4.000000, 4.000000, 4.000000
67.000000, 0.000000, 4218.461426, 4169.230469, 4188.205078, 4196.410156, 4170.256348, 4206.666504, 4201.538574, 4189.230469, 4197.948730, 4249.743652, 4229.230469, 4184.102539, 4220.000000, 4250.256348, 3580.000000, 7862.000000, 8033.000000, 0.000000, 0.000000, 0.000000, 24859.000000, 550.769226, 4.000000, 4.000000, 4.000000, 4.000000, 4.000000, 4.000000, 4.000000, 4.000000, 4.000000, 4.000000, 4.000000, 4.000000, 4.000000, 4.000000, 4.000000, 4.000000
68.000000, 0.000000, 4218.974121, 4168.717773, 4189.230469, 4192.820313, 4166.666504, 4215.897461, 4212.307617, 4191.281738, 4202.051270, 4247.179199, 4229.743652, 4188.205078, 4222.563965, 4249.230469, 3318.000000, 7862.000000, 8033.000000, 0.000000, 0.000000, 0.000000, 24859.000000, 558.461548, 4.000000, 4.000000, 4.000000, 4.000000, 4.000000, 4.000000, 4.000000, 4.000000, 4.000000, 4.000000, 4.000000, 4.000000, 4.000000, 4.000000, 4.000000, 4.000000
69.000000, 0.000000, 4218.461426, 4167.692383, 4186.666504, 4191.794922, 4183.589844, 4214.871582, 4215.897461, 4188.205078, 4198.461426, 4252.307617, 4228.205078, 4188.717773, 4228.205078, 4247.692383, 3596.000000, 7852.000000, 8049.000000, 0.000000, 0.000000, 0.000000, 24859.000000, 566.153809, 4.000000, 4.000000, 4.000000, 4.000000, 4.000000, 4.000000, 4.000000, 4.000000, 4.000000, 4.000000, 4.000000, 4.000000, 4.000000, 4.000000, 4.000000, 4.000000
70.000000, 0.000000, 4218.461426, 4167.692383, 4188.205078, 4198.461426, 4184.615234, 4204.615234, 4203.589844, 4187.179199, 4198.974121, 4263.589844, 4229.230469, 4186.666504, 4235.897461, 4246.153809, 3066.000000, 7852.000000, 8049.000000, 0.000000, 0.000000, 0.000000, 24859.000000, 574.358948, 4.000000, 4.000000, 4.000000, 4.000000, 4.000000, 4.000000, 4.000000, 4.000000, 4.000000, 4.000000, 4.000000, 4.000000, 4.000000, 4.000000, 4.000000, 4.000000
71.000000, 0.000000, 4220.000000, 4162.563965, 4191.794922, 4202.051270, 4169.743652, 4202.051270, 4200.512695, 4188.717773, 4201.538574, 4266.666504, 4231.281738, 4193.333008, 4243.076660, 4244.615234, 3096.000000, 7853.000000, 8075.000000, 0.000000, 0.000000, 0.000000, 24859.000000, 582.051270, 4.000000, 4.000000, 4.000000, 4.000000, 4.000000, 4.000000, 4.000000, 4.000000, 4.000000, 4.000000, 4.000000, 4.000000, 4.000000, 4.000000, 4.000000, 4.000000
72.000000, 0.000000, 4215.384277, 4158.461426, 4187.692383, 4197.948730, 4168.717773, 4204.102539, 4202.051270, 4187.179199, 4196.922852, 4261.538574, 4225.127930, 4196.922852, 4244.615234, 4241.538574, 3547.000000, 7853.000000, 8075.000000, 0.000000, 0.000000, 0.000000, 24859.000000, 589.743591, 4.000000, 4.000000, 4.000000, 4.000000, 4.000000, 4.000000, 4.000000, 4.000000, 4.000000, 4.000000, 4.000000, 4.000000, 4.000000, 4.000000, 4.000000, 4.000000
73.000000, 0.000000, 4214.358887, 4164.102539, 4184.615234, 4196.922852, 4170.256348, 4200.512695, 4192.820313, 4184.615234, 4197.436035, 4264.615234, 4218.974121, 4193.846191, 4248.205078, 4243.589844, 3559.000000, 7887.000000, 8079.000000, 0.000000, 0.000000, 0.000000, 24859.000000, 597.948730, 4.000000, 4.000000, 4.000000, 4.000000, 4.000000, 4.000000, 4.000000, 4.000000, 4.000000, 4.000000, 4.000000, 4.000000, 4.000000, 4.000000, 4.000000, 4.000000
74.000000, 0.000000, 4216.922852, 4172.307617, 4187.692383, 4202.051270, 4164.615234, 4196.410156, 4191.794922, 4183.076660, 4201.025391, 4268.205078, 4219.487305, 4192.307617, 4253.846191, 4248.717773, 2704.000000, 7887.000000, 8079.000000, 0.000000, 0.000000, 0.000000, 24859.000000, 605.640991, 4.000000, 4.000000, 4.000000, 4.000000, 4.000000, 4.000000, 4.000000, 4.000000, 4.000000, 4.000000, 4.000000, 4.000000, 4.000000, 4.000000, 4.000000, 4.000000
75.000000, 0.000000, 4210.256348, 4171.281738, 4187.692383, 4200.512695, 4170.256348, 4198.974121, 4197.948730, 4173.333008, 4188.205078, 4254.871582, 4208.717773, 4188.205078, 4249.230469, 4237.948730, 3541.000000, 7915.000000, 8074.000000, 0.000000, 0.000000, 0.000000, 24859.000000, 613.846130, 4.000000, 4.000000, 4.000000, 4.000000, 4.000000, 4.000000, 4.000000, 4.000000, 4.000000, 4.000000, 4.000000, 4.000000, 4.000000, 4.000000, 4.000000, 4.000000
76.000000, 0.000000, 4206.666504, 4164.615234, 4188.205078, 4198.461426, 4174.358887, 4200.000000, 4191.281738, 4165.641113, 4172.820313, 4243.589844, 4196.410156, 4185.641113, 4248.205078, 4229.230469, 3545.000000, 7915.000000, 8074.000000, 0.000000, 0.000000, 0.000000, 24859.000000, 621.538452, 4.000000, 4.000000, 4.000000, 4.000000, 4.000000, 4.000000, 4.000000, 4.000000, 4.000000, 4.000000, 4.000000, 4.000000, 4.000000, 4.000000, 4.000000, 4.000000
77.000000, 0.000000, 4207.692383, 4169.230469, 4199.487305, 4207.692383, 4168.205078, 4197.436035, 4189.230469, 4175.384277, 4180.512695, 4254.358887, 4208.717773, 4194.871582, 4261.025391, 4238.974121, 3545.000000, 8004.000000, 8059.000000, 0.000000, 0.000000, 0.000000, 24859.000000, 629.230774, 4.000000, 4.000000, 4.000000, 4.000000, 4.000000, 4.000000, 4.000000, 4.000000, 4.000000, 4.000000, 4.000000, 4.000000, 4.000000, 4.000000, 4.000000, 4.000000
78.000000, 0.000000, 4207.179199, 4177.948730, 4206.666504, 4214.358887, 4171.281738, 4200.512695, 4197.948730, 4185.127930, 4191.281738, 4265.641113, 4216.922852, 4200.000000, 4268.205078, 4241.538574, 2704.000000, 8004.000000, 8059.000000, 0.000000, 0.000000, 0.000000, 24859.000000, 636.923035, 4.000000, 4.000000, 4.000000, 4.000000, 4.000000, 4.000000, 4.000000, 4.000000, 4.000000, 4.000000, 4.000000, 4.000000, 4.000000, 4.000000, 4.000000, 4.000000
79.000000, 0.000000, 4202.051270, 4167.179199, 4196.410156, 4205.127930, 4174.358887, 4204.102539, 4201.025391, 4180.512695, 4185.127930, 4261.538574, 4199.487305, 4187.692383, 4262.051270, 4227.179199, 3541.000000, 8068.000000, 8056.000000, 0.000000, 0.000000, 0.000000, 24859.000000, 645.128174, 4.000000, 4.000000, 4.000000, 4.000000, 4.000000, 4.000000, 4.000000, 4.000000, 4.000000, 4.000000, 4.000000, 4.000000, 4.000000, 4.000000, 4.000000, 4.000000
80.000000, 0.000000, 4197.948730, 4156.922852, 4185.127930, 4195.897461, 4169.230469, 4204.615234, 4201.025391, 4180.000000, 4183.076660, 4260.512695, 4197.436035, 4187.692383, 4262.051270, 4225.127930, 3545.000000, 8068.000000, 8056.000000, 0.000000, 0.000000, 0.000000, 24859.000000, 652.820496, 4.000000, 4.000000, 4.000000, 4.000000, 4.000000, 4.000000, 4.000000, 4.000000, 4.000000, 4.000000, 4.000000, 4.000000, 4.000000, 4.000000, 4.000000, 4.000000
81.000000, 0.000000, 4201.538574, 4160.512695, 4190.769043, 4199.487305, 4167.692383, 4207.179199, 4204.615234, 4189.230469, 4198.974121, 4267.179199, 4215.897461, 4201.538574, 4265.127930, 4234.871582, 3545.000000, 8174.000000, 8023.000000, 0.000000, 0.000000, 0.000000, 24859.000000, 661.025635, 4.000000, 4.000000, 4.000000, 4.000000, 4.000000, 4.000000, 4.000000, 4.000000, 4.000000, 4.000000, 4.000000, 4.000000, 4.000000, 4.000000, 4.000000, 4.000000
82.000000, 0.000000, 4203.076660, 4163.076660, 4201.025391, 4203.076660, 4169.743652, 4207.179199, 4202.051270, 4190.769043, 4204.615234, 4268.205078, 4215.384277, 4203.589844, 4263.076660, 4232.820313, 2704.000000, 8174.000000, 8023.000000, 0.000000, 0.000000, 0.000000, 24859.000000, 668.717957, 4.000000, 4.000000, 4.000000, 4.000000, 4.000000, 4.000000, 4.000000, 4.000000, 4.000000, 4.000000, 4.000000, 4.000000, 4.000000, 4.000000, 4.000000, 4.000000
83.000000, 0.000000, 4203.076660, 4155.897461, 4198.974121, 4201.025391, 4168.717773, 4203.589844, 4200.512695, 4185.641113, 4190.256348, 4263.589844, 4201.025391, 4202.051270, 4259.487305, 4222.051270, 3541.000000, 8171.000000, 8015.000000, 0.000000, 0.000000, 0.000000, 24859.000000, 676.923035, 4.000000, 4.000000, 4.000000, 4.000000, 4.000000, 4.000000, 4.000000, 4.000000, 4.000000, 4.000000, 4.000000, 4.000000, 4.000000, 4.000000, 4.000000, 4.000000
84.000000, 0.000000, 4202.563965, 4150.256348, 4188.717773, 4195.384277, 4167.692383, 4203.589844, 4208.205078, 4187.692383, 4185.127930, 4257.436035, 4193.846191, 4196.922852, 4257.436035, 4216.410156, 3545.000000, 8171.000000, 8015.000000, 0.000000, 0.000000, 0.000000, 24859.000000, 684.615356, 4.000000, 4.000000, 4.000000, 4.000000, 4.000000, 4.000000, 4.000000, 4.000000, 4.000000, 4.000000, 4.000000, 4.000000, 4.000000, 4.000000, 4.000000, 4.000000
85.000000, 0.000000, 4200.000000, 4153.333008, 4187.692383, 4188.717773, 4168.205078, 4206.666504, 4211.281738, 4196.922852, 4198.461426, 4261.538574, 4199.487305, 4188.205078, 4256.410156, 4216.410156, 3545.000000, 8136.000000, 8009.000000, 0.000000, 0.000000, 0.000000, 24859.000000, 692.820496, 4.000000, 4.000000, 4.000000, 4.000000, 4.000000, 4.000000, 4.000000, 4.000000, 4.000000, 4.000000, 4.000000, 4.000000, 4.000000, 4.000000, 4.000000, 4.000000
86.000000, 0.000000, 4202.051270, 4155.384277, 4189.230469, 4185.641113, 4167.692383, 4204.615234, 4204.615234, 4200.512695, 4205.641113, 4274.358887, 4209.743652, 4186.153809, 4261.025391, 4216.410156, 2704.000000, 8136.000000, 8009.000000, 0.000000, 0.000000, 0.000000, 24859.000000, 700.512817, 4.000000, 4.000000, 4.000000, 4.000000, 4.000000, 4.000000, 4.000000, 4.000000, 4.000000, 4.000000, 4.000000, 4.000000, 4.000000, 4.000000, 4.000000, 4.000000
87.000000, 0.000000, 4204.102539, 4147.179199, 4185.127930, 4186.153809, 4168.717773, 4200.000000, 4198.461426, 4197.948730, 4198.974121, 4274.358887, 4213.846191, 4190.256348, 4263.589844, 4215.384277, 3541.000000, 8093.000000, 8014.000000, 0.000000, 0.000000, 0.000000, 24859.000000, 708.205139, 4.000000, 4.000000, 4.000000, 4.000000, 4.000000, 4.000000, 4.000000, 4.000000, 4.000000, 4.000000, 4.000000, 4.000000, 4.000000, 4.000000, 4.000000, 4.000000
88.000000, 0.000000, 4206.666504, 4141.538574, 4181.538574, 4183.589844, 4168.205078, 4202.051270, 4202.051270, 4197.436035, 4200.000000, 4262.563965, 4214.358887, 4190.769043, 4256.922852, 4215.897461, 3545.000000, 8093.000000, 8014.000000, 0.000000, 0.000000, 0.000000, 24859.000000, 715.897400, 4.000000, 4.000000, 4.000000, 4.000000, 4.000000, 4.000000, 4.000000, 4.000000, 4.000000, 4.000000, 4.000000, 4.000000, 4.000000, 4.000000, 4.000000, 4.000000
89.000000, 0.000000, 4210.256348, 4143.589844, 4182.051270, 4180.000000, 4166.666504, 4200.000000, 4198.974121, 4191.281738, 4200.512695, 4259.487305, 4212.307617, 4188.717773, 4248.205078, 4214.358887, 3545.000000, 8083.000000, 8013.000000, 0.000000, 0.000000, 0.000000, 24859.000000, 724.102539, 4.000000, 4.000000, 4.000000, 4.000000, 4.000000, 4.000000, 4.000000, 4.000000, 4.000000, 4.000000, 4.000000, 4.000000, 4.000000, 4.000000, 4.000000, 4.000000
90.000000, 0.000000, 4211.281738, 4142.051270, 4183.076660, 4182.051270, 4168.717773, 4191.281738, 4185.641113, 4181.538574, 4188.717773, 4262.563965, 4204.615234, 4186.666504, 4247.179199, 4211.281738, 2704.000000, 8083.000000, 8013.000000, 0.000000, 0.000000, 0.000000, 24859.000000, 731.794861, 4.000000, 4.000000, 4.000000, 4.000000, 4.000000, 4.000000, 4.000000, 4.000000, 4.000000, 4.000000, 4.000000, 4.000000, 4.000000, 4.000000, 4.000000, 4.000000
91.000000, 0.000000, 4214.871582, 4144.102539, 4187.692383, 4186.666504, 4170.769043, 4193.333008, 4188.717773, 4184.102539, 4184.615234, 4264.615234, 4203.589844, 4187.692383, 4250.769043, 4214.871582, 3541.000000, 8075.000000, 8008.000000, 0.000000, 0.000000, 0.000000, 24859.000000, 740.000000, 4.000000, 4.000000, 4.000000, 4.000000, 4.000000, 4.000000, 4.000000, 4.000000, 4.000000, 4.000000, 4.000000, 4.000000, 4.000000, 4.000000, 4.000000, 4.000000
92.000000, 0.000000, 4212.307617, 4151.281738, 4189.743652, 4187.692383, 4164.102539, 4202.563965, 4202.051270, 4184.615234, 4186.153809, 4259.487305, 4203.589844, 4182.051270, 4247.179199, 4213.846191, 3545.000000, 8075.000000, 8008.000000, 0.000000, 0.000000, 0.000000, 24859.000000, 747.692261, 4.000000, 4.000000, 4.000000, 4.000000, 4.000000, 4.000000, 4.000000, 4.000000, 4.000000, 4.000000, 4.000000, 4.000000, 4.000000, 4.000000, 4.000000, 4.000000
93.000000, 0.000000, 4211.281738, 4152.820313, 4185.127930, 4188.717773, 4164.102539, 4204.102539, 4204.615234, 4182.051270, 4187.179199, 4256.410156, 4193.333008, 4174.358887, 4245.127930, 4203.589844, 3545.000000, 8078.000000, 8001.000000, 0.000000, 0.000000, 0.000000, 24859.000000, 755.897400, 4.000000, 4.000000, 4.000000, 4.000000, 4.000000, 4.000000, 4.000000, 4.000000, 4.000000, 4.000000, 4.000000, 4.000000, 4.000000, 4.000000, 4.000000, 4.000000
94.000000, 0.000000, 4212.307617, 4149.743652, 4186.153809, 4190.769043, 4181.025391, 4206.153809, 4209.230469, 4191.794922, 4193.846191, 4258.974121, 4188.717773, 4177.436035, 4247.692383, 4201.025391, 2704.000000, 8078.000000, 8001.000000, 0.000000, 0.000000, 0.000000, 24859.000000, 763.589722, 4.000000, 4.000000, 4.000000, 4.000000, 4.000000, 4.000000, 4.000000, 4.000000, 4.000000, 4.000000, 4.000000, 4.000000, 4.000000, 4.000000, 4.000000, 4.000000
95.000000, 0.000000, 4204.615234, 4143.589844, 4184.615234, 4185.127930, 4182.563965, 4210.256348, 4216.922852, 4195.384277, 4188.717773, 4246.666504, 4186.666504, 4178.974121, 4238.461426, 4201.025391, 3541.000000, 8086.000000, 7994.000000, 0.000000, 0.000000, 0.000000, 24859.000000, 771.282043, 4.000000, 4.000000, 4.000000, 4.000000, 4.000000, 4.000000, 4.000000, 4.000000, 4.000000, 4.000000, 4.000000, 4.000000, 4.000000, 4.000000, 4.000000, 4.000000
96.000000, 0.000000, 4202.563965, 4134.871582, 4173.846191, 4178.461426, 4169.743652, 4206.666504, 4210.256348, 4187.179199, 4167.179199, 4231.794922, 4174.871582, 4169.743652, 4227.692383, 4193.333008, 3545.000000, 8086.000000, 7994.000000, 0.000000, 0.000000, 0.000000, 24859.000000, 778.974365, 4.000000, 4.000000, 4.000000, 4.000000, 4.000000, 4.000000, 4.000000, 4.000000, 4.000000, 4.000000, 4.000000, 4.000000, 4.000000, 4.000000, 4.000000, 4.000000
97.000000, 0.000000, 4207.179199, 4135.897461, 4173.333008, 4181.538574, 4166.666504, 4196.922852, 4194.358887, 4181.025391, 4162.051270, 4237.948730, 4171.794922, 4166.666504, 4231.794922, 4196.410156, 3545.000000, 8060.000000, 7966.000000, 0.000000, 0.000000, 0.000000, 24859.000000, 787.179443, 4.000000, 4.000000, 4.000000, 4.000000, 4.000000, 4.000000, 4.000000, 4.000000, 4.000000, 4.000000, 4.000000, 4.000000, 4.000000, 4.000000, 4.000000, 4.000000
98.000000, 0.000000, 4208.717773, 4148.717773, 4184.102539, 4185.127930, 4170.256348, 4188.205078, 4186.666504, 4172.307617, 4176.922852, 4246.666504, 4184.102539, 4175.384277, 4242.563965, 4209.743652, 2704.000000, 8060.000000, 7966.000000, 0.000000, 0.000000, 0.000000, 24859.000000, 794.871765, 4.000000, 4.000000, 4.000000, 4.000000, 4.000000, 4.000000, 4.000000, 4.000000, 4.000000, 4.000000, 4.000000, 4.000000, 4.000000, 4.000000, 4.000000, 4.000000
99.000000, 0.000000, 4211.794922, 4161.025391, 4189.230469, 4187.692383, 4171.281738, 4187.179199, 4186.153809, 4170.256348, 4185.127930, 4248.717773, 4194.358887, 4184.102539, 4248.717773, 4217.436035, 3541.000000, 8037.000000, 7973.000000, 0.000000, 0.000000, 0.000000, 24859.000000, 802.564087, 4.000000, 4.000000, 4.000000, 4.000000, 4.000000, 4.000000, 4.000000, 4.000000, 4.000000, 4.000000, 4.000000, 4.000000, 4.000000, 4.000000, 4.000000, 4.000000
100.000000, 0.000000, 4205.127930, 4167.179199, 4188.717773, 4190.256348, 4173.333008, 4189.743652, 4186.153809, 4182.563965, 4184.102539, 4257.436035, 4201.538574, 4186.153809, 4247.692383, 4222.563965, 3545.000000, 8037.000000, 7973.000000, 0.000000, 0.000000, 0.000000, 24859.000000, 810.769226, 4.000000, 4.000000, 4.000000, 4.000000, 4.000000, 4.000000, 4.000000, 4.000000, 4.000000, 4.000000, 4.000000, 4.000000, 4.000000, 4.000000, 4.000000, 4.000000
101.000000, 0.000000, 4199.487305, 4170.769043, 4189.230469, 4189.230469, 4173.333008, 4186.666504, 4184.615234, 4187.179199, 4185.127930, 4263.076660, 4211.794922, 4189.230469, 4247.179199, 4228.717773, 3545.000000, 8011.000000, 8014.000000, 0.000000, 0.000000, 0.000000, 24859.000000, 818.461548, 4.000000, 4.000000, 4.000000, 4.000000, 4.000000, 4.000000, 4.000000, 4.000000, 4.000000, 4.000000, 4.000000, 4.000000, 4.000000, 4.000000, 4.000000, 4.000000
102.000000, 0.000000, 4204.615234, 4170.256348, 4193.333008, 4187.179199, 4170.769043, 4188.717773, 4190.769043, 4182.563965, 4195.897461, 4266.666504, 4216.922852, 4200.512695, 4249.230469, 4234.358887, 2704.000000, 8011.000000, 8014.000000, 0.000000, 0.000000, 0.000000, 24859.000000, 826.153809, 4.000000, 4.000000, 4.000000, 4.000000, 4.000000, 4.000000, 4.000000, 4.000000, 4.000000, 4.000000, 4.000000, 4.000000, 4.000000, 4.000000, 4.000000, 4.000000
103.000000, 0.000000, 4202.051270, 4163.076660, 4191.281738, 4186.666504, 4170.769043, 4198.974121, 4202.051270, 4186.153809, 4205.641113, 4270.769043, 4209.743652, 4207.179199, 4242.051270, 4232.820313, 3541.000000, 8019.000000, 8037.000000, 0.000000, 0.000000, 0.000000, 24859.000000, 833.846130, 4.000000, 4.000000, 4.000000, 4.000000, 4.000000, 4.000000, 4.000000, 4.000000, 4.000000, 4.000000, 4.000000, 4.000000, 4.000000, 4.000000, 4.000000, 4.000000
104.000000, 0.000000, 4196.410156, 4160.000000, 4183.589844, 4183.589844, 4169.230469, 4200.512695, 4200.512695, 4188.205078, 4196.410156, 4265.127930, 4196.922852, 4197.948730, 4230.256348, 4223.076660, 3545.000000, 8019.000000, 8037.000000, 0.000000, 0.000000, 0.000000, 24859.000000, 842.051270, 4.000000, 4.000000, 4.000000, 4.000000, 4.000000, 4.000000, 4.000000, 4.000000, 4.000000, 4.000000, 4.000000, 4.000000, 4.000000, 4.000000, 4.000000, 4.000000
105.000000, 0.000000, 4200.512695, 4168.205078, 4184.615234, 4183.589844, 4173.333008, 4200.512695, 4197.436035, 4192.820313, 4196.410156, 4262.051270, 4197.948730, 4198.461426, 4232.307617, 4225.127930, 3545.000000, 8115.000000, 8070.000000, 0.000000, 0.000000, 0.000000, 24859.000000, 849.743591, 4.000000, 4.000000, 4.000000, 4.000000, 4.000000, 4.000000, 4.000000, 4.000000, 4.000000, 4.000000, 4.000000, 4.000000, 4.000000, 4.000000, 4.000000, 4.000000
106.000000, 0.000000, 4202.051270, 4171.281738, 4191.281738, 4188.205078, 4174.871582, 4202.051270, 4205.127930, 4197.948730, 4204.615234, 4267.179199, 4201.538574, 4204.102539, 4237.436035, 4230.769043, 2704.000000, 8115.000000, 8070.000000, 0.000000, 0.000000, 0.000000, 24859.000000, 857.948669, 4.000000, 4.000000, 4.000000, 4.000000, 4.000000, 4.000000, 4.000000, 4.000000, 4.000000, 4.000000, 4.000000, 4.000000, 4.000000, 4.000000, 4.000000, 4.000000
107.000000, 0.000000, 4194.871582, 4162.051270, 4186.666504, 4185.127930, 4165.127930, 4190.769043, 4202.051270, 4184.615234, 4191.281738, 4261.538574, 4185.641113, 4190.256348, 4226.666504, 4215.897461, 3541.000000, 8210.000000, 8086.000000, 0.000000, 0.000000, 0.000000, 24859.000000, 865.640991, 4.000000, 4.000000, 4.000000, 4.000000, 4.000000, 4.000000, 4.000000, 4.000000, 4.000000, 4.000000, 4.000000, 4.000000, 4.000000, 4.000000, 4.000000, 4.000000
108.000000, 0.000000, 4194.871582, 4162.563965, 4182.051270, 4183.076660, 4171.281738, 4191.281738, 4189.743652, 4174.871582, 4177.948730, 4255.897461, 4172.307617, 4180.000000, 4217.436035, 4202.051270, 3545.000000, 8210.000000, 8086.000000, 0.000000, 0.000000, 0.000000, 24859.000000, 873.333313, 4.000000, 4.000000, 4.000000, 4.000000, 4.000000, 4.000000, 4.000000, 4.000000, 4.000000, 4.000000, 4.000000, 4.000000, 4.000000, 4.000000, 4.000000, 4.000000
109.000000, 0.000000, 4201.025391, 4173.333008, 4187.692383, 4193.333008, 4188.717773, 4200.512695, 4187.692383, 4180.512695, 4181.538574, 4265.641113, 4174.358887, 4188.205078, 4223.076660, 4208.205078, 3545.000000, 8318.000000, 8106.000000, 0.000000, 0.000000, 0.000000, 24859.000000, 881.538452, 4.000000, 4.000000, 4.000000, 4.000000, 4.000000, 4.000000, 4.000000, 4.000000, 4.000000, 4.000000, 4.000000, 4.000000, 4.000000, 4.000000, 4.000000, 4.000000
110.000000, 0.000000, 4196.410156, 4175.384277, 4184.102539, 4197.436035, 4186.153809, 4193.333008, 4185.641113, 4175.384277, 4175.384277, 4266.666504, 4169.230469, 4183.589844, 4223.076660, 4207.692383, 2704.000000, 8318.000000, 8106.000000, 0.000000, 0.000000, 0.000000, 24859.000000, 889.230774, 4.000000, 4.000000, 4.000000, 4.000000, 4.000000, 4.000000, 4.000000, 4.000000, 4.000000, 4.000000, 4.000000, 4.000000, 4.000000, 4.000000, 4.000000, 4.000000
111.000000, 0.000000, 4191.281738, 4169.230469, 4172.307617, 4188.717773, 4175.897461, 4190.769043, 4182.563965, 4165.127930, 4165.127930, 4252.307617, 4152.307617, 4165.641113, 4210.769043, 4192.820313, 3541.000000, 8531.000000, 8147.000000, 0.000000, 0.000000, 0.000000, 24859.000000, 896.923035, 4.000000, 4.000000, 4.000000, 4.000000, 4.000000, 4.000000, 4.000000, 4.000000, 4.000000, 4.000000, 4.000000, 4.000000, 4.000000, 4.000000, 4.000000, 4.000000
112.000000, 0.000000, 4190.769043, 4168.205078, 4173.846191, 4186.666504, 4182.563965, 4204.615234, 4194.358887, 4174.871582, 4168.717773, 4246.666504, 4142.051270, 4166.153809, 4201.025391, 4186.666504, 3545.000000, 8531.000000, 8147.000000, 0.000000, 0.000000, 0.000000, 24859.000000, 904.615356, 4.000000, 4.000000, 4.000000, 4.000000, 4.000000, 4.000000, 4.000000, 4.000000, 4.000000, 4.000000, 4.000000, 4.000000, 4.000000, 4.000000, 4.000000, 4.000000
113.000000, 0.000000, 4189.743652, 4170.256348, 4182.051270, 4191.281738, 4187.179199, 4207.179199, 4201.538574, 4183.589844, 4175.897461, 4246.666504, 4135.897461, 4170.769043, 4201.025391, 4184.102539, 3545.000000, 8621.000000, 8163.000000, 0.000000, 0.000000, 0.000000, 24859.000000, 912.820496, 4.000000, 4.000000, 4.000000, 4.000000, 4.000000, 4.000000, 4.000000, 4.000000, 4.000000, 4.000000, 4.000000, 4.000000, 4.000000, 4.000000, 4.000000, 4.000000
114.000000, 0.000000, 4192.820313, 4168.205078, 4184.102539, 4193.846191, 4184.615234, 4199.487305, 4193.846191, 4182.563965, 4182.563965, 4245.127930, 4138.461426, 4166.666504, 4206.153809, 4183.076660, 2704.000000, 8621.000000, 8163.000000, 0.000000, 0.000000, 0.000000, 24859.000000, 920.512817, 4.000000, 4.000000, 4.000000, 4.000000, 4.000000, 4.000000, 4.000000, 4.000000, 4.000000, 4.000000, 4.000000, 4.000000, 4.000000, 4.000000, 4.000000, 4.000000
115.000000, 0.000000, 4191.794922, 4172.820313, 4185.641113, 4200.512695, 4186.666504, 4202.563965, 4192.307617, 4183.589844, 4180.000000, 4255.384277, 4152.307617, 4174.871582, 4214.871582, 4192.307617, 3541.000000, 8758.000000, 8182.000000, 0.000000, 0.000000, 0.000000, 24859.000000, 928.205078, 4.000000, 4.000000, 4.000000, 4.000000, 4.000000, 4.000000, 4.000000, 4.000000, 4.000000, 4.000000, 4.000000, 4.000000, 4.000000, 4.000000, 4.000000, 4.000000
116.000000, 0.000000, 4190.256348, 4186.153809, 4187.179199, 4206.153809, 4187.179199, 4203.076660, 4193.846191, 4178.974121, 4171.794922, 4269.230469, 4156.410156, 4185.127930, 4219.487305, 4201.025391, 3545.000000, 8758.000000, 8182.000000, 0.000000, 0.000000, 0.000000, 24859.000000, 935.897400, 4.000000, 4.000000, 4.000000, 4.000000, 4.000000, 4.000000, 4.000000, 4.000000, 4.000000, 4.000000, 4.000000, 4.000000, 4.000000, 4.000000, 4.000000, 4.000000
117.000000, 0.000000, 4194.358887, 4187.179199, 4185.127930, 4202.563965, 4184.615234, 4196.410156, 4186.153809, 4175.384277, 4178.974121, 4267.692383, 4155.897461, 4183.076660, 4214.358887, 4199.487305, 3545.000000, 8791.000000, 8181.000000, 0.000000, 0.000000, 0.000000, 24859.000000, 944.102539, 4.000000, 4.000000, 4.000000, 4.000000, 4.000000, 4.000000, 4.000000, 4.000000, 4.000000, 4.000000, 4.000000, 4.000000, 4.000000, 4.000000, 4.000000, 4.000000
118.000000, 0.000000, 4191.794922, 4171.794922, 4185.641113, 4200.000000, 4188.205078, 4196.410156, 4184.615234, 4183.076660, 4192.307617, 4265.127930, 4165.127930, 4184.102539, 4211.281738, 4195.897461, 2704.000000, 8791.000000, 8181.000000, 0.000000, 0.000000, 0.000000, 24859.000000, 951.794861, 4.000000, 4.000000, 4.000000, 4.000000, 4.000000, 4.000000, 4.000000, 4.000000, 4.000000, 4.000000, 4.000000, 4.000000, 4.000000, 4.000000, 4.000000, 4.000000
119.000000, 0.000000, 4190.769043, 4167.179199, 4184.102539, 4196.922852, 4190.769043, 4199.487305, 4186.666504, 4184.102539, 4184.615234, 4268.205078, 4170.769043, 4186.153809, 4213.846191, 4200.512695, 3541.000000, 8799.000000, 8182.000000, 0.000000, 0.000000, 0.000000, 24859.000000, 960.000000, 4.000000, 4.000000, 4.000000, 4.000000, 4.000000, 4.000000, 4.000000, 4.000000, 4.000000, 4.000000, 4.000000, 4.000000, 4.000000, 4.000000, 4.000000, 4.000000
120.000000, 0.000000, 4196.410156, 4185.641113, 4183.589844, 4196.922852, 4185.127930, 4198.461426, 4182.051270, 4175.897461, 4173.846191, 4263.076660, 4175.384277, 4189.230469, 4218.461426, 4218.461426, 3545.000000, 8799.000000, 8182.000000, 0.000000, 0.000000, 0.000000, 24859.000000, 968.205078, 4.000000, 4.000000, 4.000000, 4.000000, 4.000000, 4.000000, 4.000000, 4.000000, 4.000000, 4.000000, 4.000000, 4.000000, 4.000000, 4.000000, 4.000000, 4.000000
121.000000, 0.000000, 4202.051270, 4203.076660, 4195.384277, 4207.692383, 4187.692383, 4198.974121, 4185.641113, 4181.025391, 4181.025391, 4262.051270, 4193.846191, 4206.666504, 4223.589844, 4241.025391, 3545.000000, 8750.000000, 8176.000000, 0.000000, 0.000000, 0.000000, 24859.000000, 975.897400, 4.000000, 4.000000, 4.000000, 4.000000, 4.000000, 4.000000, 4.000000, 4.000000, 4.000000, 4.000000, 4.000000, 4.000000, 4.000000, 4.000000, 4.000000, 4.000000
122.000000, 0.000000, 4202.563965, 4205.127930, 4207.179199, 4212.820313, 4196.410156, 4201.538574, 4191.794922, 4184.102539, 4188.205078, 4276.410156, 4208.205078, 4222.051270, 4224.615234, 4254.871582, 2704.000000, 8750.000000, 8176.000000, 0.000000, 0.000000, 0.000000, 24859.000000, 984.102539, 4.000000, 4.000000, 4.000000, 4.000000, 4.000000, 4.000000, 4.000000, 4.000000, 4.000000, 4.000000, 4.000000, 4.000000, 4.000000, 4.000000, 4.000000, 4.000000
123.000000, 0.000000, 4195.897461, 4204.615234, 4204.102539, 4206.153809, 4194.358887, 4197.436035, 4188.205078, 4173.846191, 4184.615234, 4280.000000, 4206.666504, 4215.384277, 4220.512695, 4257.436035, 3541.000000, 8705.000000, 8175.000000, 0.000000, 0.000000, 0.000000, 24859.000000, 991.794861, 4.000000, 4.000000, 4.000000, 4.000000, 4.000000, 4.000000, 4.000000, 4.000000, 4.000000, 4.000000, 4.000000, 4.000000, 4.000000, 4.000000, 4.000000, 4.000000
124.000000, 0.000000, 4195.384277, 4198.461426, 4197.436035, 4196.410156, 4184.615234, 4191.281738, 4185.127930, 4175.384277, 4177.436035, 4264.102539, 4202.051270, 4209.743652, 4212.820313, 4254.358887, 3545.000000, 8705.000000, 8175.000000, 0.000000, 0.000000, 0.000000, 24859.000000, 999.487183, 4.000000, 4.000000, 4.000000, 4.000000, 4.000000, 4.000000, 4.000000, 4.000000, 4.000000, 4.000000, 4.000000, 4.000000, 4.000000, 4.000000, 4.000000, 4.000000
125.000000, 0.000000, 4197.948730, 4186.153809, 4196.922852, 4191.794922, 4183.076660, 4194.871582, 4186.666504, 4183.076660, 4183.076660, 4257.948730, 4205.641113, 4214.871582, 4209.230469, 4249.230469, 3545.000000, 8664.000000, 8155.000000, 0.000000, 0.000000, 0.000000, 24860.000000, 7.692307, 4.000000, 4.000000, 4.000000, 4.000000, 4.000000, 4.000000, 4.000000, 4.000000, 4.000000, 4.000000, 4.000000, 4.000000, 4.000000, 4.000000, 4.000000, 4.000000
126.000000, 0.000000, 4197.948730, 4185.641113, 4197.948730, 4192.307617, 4184.615234, 4198.461426, 4187.179199, 4178.461426, 4196.410156, 4270.256348, 4212.820313, 4214.358887, 4208.717773, 4250.256348, 2704.000000, 8664.000000, 8155.000000, 0.000000, 0.000000, 0.000000, 24860.000000, 15.384615, 4.000000, 4.000000, 4.000000, 4.000000, 4.000000, 4.000000, 4.000000, 4.000000, 4.000000, 4.000000, 4.000000, 4.000000, 4.000000, 4.000000, 4.000000, 4.000000
127.000000, 0.000000, 4200.000000, 4183.076660, 4197.436035, 4192.307617, 4180.000000, 4190.769043, 4177.948730, 4169.230469, 4191.794922, 4262.563965, 4208.205078, 4204.615234, 4204.102539, 4247.692383, 56.000000, 8664.000000, 8161.000000, 0.000000, 0.000000, 0.000000, 24860.000000, 23.589743, 4.000000, 4.000000, 4.000000, 4.000000, 4.000000, 4.000000, 4.000000, 4.000000, 4.000000, 4.000000, 4.000000, 4.000000, 4.000000, 4.000000, 4.000000, 4.000000
0.000000, 0.000000, 4202.051270, 4174.358887, 4198.461426, 4193.333008, 4180.512695, 4183.589844, 4170.256348, 4168.717773, 4178.461426, 4252.820313, 4198.461426, 4199.487305, 4199.487305, 4236.922852, 3561.000000, 8664.000000, 8161.000000, 0.000000, 0.000000, 0.000000, 24860.000000, 31.282051, 4.000000, 4.000000, 4.000000, 4.000000, 4.000000, 4.000000, 4.000000, 4.000000, 4.000000, 4.000000, 4.000000, 4.000000, 4.000000, 4.000000, 4.000000, 4.000000
1.000000, 0.000000, 4208.205078, 4175.897461, 4200.512695, 4199.487305, 4186.666504, 4188.717773, 4178.974121, 4169.230469, 4179.487305, 4272.820313, 4200.512695, 4203.076660, 4200.000000, 4233.846191, 3574.000000, 8643.000000, 8160.000000, 0.000000, 0.000000, 0.000000, 24860.000000, 38.974358, 4.000000, 4.000000, 4.000000, 4.000000, 4.000000, 4.000000, 4.000000, 4.000000, 4.000000, 4.000000, 4.000000, 4.000000, 4.000000, 4.000000, 4.000000, 4.000000
2.000000, 0.000000, 4208.717773, 4177.436035, 4198.974121, 4198.974121, 4185.127930, 4197.436035, 4191.794922, 4168.717773, 4176.410156, 4275.384277, 4197.436035, 4201.025391, 4200.000000, 4235.897461, 1697.000000, 8643.000000, 8160.000000, 0.000000, 0.000000, 0.000000, 24860.000000, 47.179485, 4.000000, 4.000000, 4.000000, 4.000000, 4.000000, 4.000000, 4.000000, 4.000000, 4.000000, 4.000000, 4.000000, 4.000000, 4.000000, 4.000000, 4.000000, 4.000000
3.000000, 0.000000, 4202.563965, 4169.743652, 4194.871582, 4186.666504, 4181.025391, 4195.897461, 4188.205078, 4176.410156, 4166.153809, 4249.230469, 4186.153809, 4193.333008, 4195.897461, 4231.281738, 3581.000000, 8627.000000, 8134.000000, 0.000000, 0.000000, 0.000000, 24860.000000, 54.871792, 4.000000, 4.000000, 4.000000, 4.000000, 4.000000, 4.000000, 4.000000, 4.000000, 4.000000, 4.000000, 4.000000, 4.000000, 4.000000, 4.000000, 4.000000, 4.000000
4.000000, 0.000000, 4206.153809, 4168.717773, 4198.461426, 4186.153809, 4184.102539, 4188.717773, 4182.051270, 4184.102539, 4175.384277, 4248.717773, 4190.256348, 4197.436035, 4198.974121, 4228.717773, 3321.000000, 8627.000000, 8134.000000, 0.000000, 0.000000, 0.000000, 24860.000000, 63.076923, 4.000000, 4.000000, 4.000000, 4.000000, 4.000000, 4.000000, 4.000000, 4.000000, 4.000000, 4.000000, 4.000000, 4.000000, 4.000000, 4.000000, 4.000000, 4.000000
5.000000, 0.000000, 4205.127930, 4174.358887, 4204.615234, 4192.820313, 4182.051270, 4191.281738, 4187.179199, 4187.179199, 4189.230469, 4266.666504, 4205.127930, 4211.794922, 4203.589844, 4238.461426, 3606.000000, 8585.000000, 8114.000000, 0.000000, 0.000000, 0.000000, 24860.000000, 70.769226, 4.000000, 4.000000, 4.000000, 4.000000, 4.000000, 4.000000, 4.000000, 4.000000, 4.000000, 4.000000, 4.000000, 4.000000, 4.000000, 4.000000, 4.000000, 4.000000
6.000000, 0.000000, 4195.384277, 4171.794922, 4202.051270, 4189.743652, 4174.871582, 4200.512695, 4190.769043, 4188.205078, 4186.666504, 4264.615234, 4206.153809, 4214.358887, 4203.589844, 4244.102539, 3221.000000, 8585.000000, 8114.000000, 0.000000, 0.000000, 0.000000, 24860.000000, 78.974358, 4.000000, 4.000000, 4.000000, 4.000000, 4.000000, 4.000000, 4.000000, 4.000000, 4.000000, 4.000000, 4.000000, 4.000000, 4.000000, 4.000000, 4.000000, 4.000000
7.000000, 0.000000, 4189.743652, 4168.205078, 4200.000000, 4186.666504, 4180.000000, 4202.051270, 4185.641113, 4185.127930, 4183.076660, 4262.051270, 4199.487305, 4203.076660, 4200.512695, 4234.358887, 3120.000000, 8438.000000, 8101.000000, 0.000000, 0.000000, 0.000000, 24860.000000, 86.666664, 4.000000, 4.000000, 4.000000, 4.000000, 4.000000, 4.000000, 4.000000, 4.000000, 4.000000, 4.000000, 4.000000, 4.000000, 4.000000, 4.000000, 4.000000, 4.000000
8.000000, 0.000000, 4186.666504, 4169.230469, 4200.512695, 4187.692383, 4188.717773, 4197.436035, 4183.589844, 4182.563965, 4184.102539, 4266.666504, 4198.974121, 4200.000000, 4198.461426, 4229.230469, 3676.000000, 8438.000000, 8101.000000, 0.000000, 0.000000, 0.000000, 24860.000000, 94.358971, 4.000000, 4.000000, 4.000000, 4.000000, 4.000000, 4.000000, 4.000000, 4.000000, 4.000000, 4.000000, 4.000000, 4.000000, 4.000000, 4.000000, 4.000000, 4.000000
9.000000, 0.000000, 4185.641113, 4166.153809, 4194.871582, 4186.153809, 4184.615234, 4200.000000, 4195.384277, 4186.666504, 4185.641113, 4266.666504, 4205.127930, 4200.512695, 4203.076660, 4235.897461, 3553.000000, 8351.000000, 8102.000000, 0.000000, 0.000000, 0.000000, 24860.000000, 102.564102, 4.000000, 4.000000, 4.000000, 4.000000, 4.000000, 4.000000, 4.000000, 4.000000, 4.000000, 4.000000, 4.000000, 4.000000, 4.000000, 4.000000, 4.000000, 4.000000
10.000000, 0.000000, 4182.563965, 4158.461426, 4185.641113, 4181.538574, 4172.820313, 4204.102539, 4200.512695, 4185.127930, 4187.179199, 4262.563965, 4211.281738, 4192.307617, 4204.615234, 4234.871582, 2700.000000, 8351.000000, 8102.000000, 0.000000, 0.000000, 0.000000, 24860.000000, 110.256409, 4.000000, 4.000000, 4.000000, 4.000000, 4.000000, 4.000000, 4.000000, 4.000000, 4.000000, 4.000000, 4.000000, 4.000000, 4.000000, 4.000000, 4.000000, 4.000000
11.000000, 0.000000, 4179.487305, 4152.820313, 4184.102539, 4178.974121, 4168.717773, 4201.025391, 4189.230469, 4175.384277, 4183.589844, 4258.461426, 4210.769043, 4190.769043, 4200.000000, 4230.769043, 3537.000000, 8151.000000, 8096.000000, 0.000000, 0.000000, 0.000000, 24860.000000, 117.948715, 4.000000, 4.000000, 4.000000, 4.000000, 4.000000, 4.000000, 4.000000, 4.000000, 4.000000, 4.000000, 4.000000, 4.000000, 4.000000, 4.000000, 4.000000, 4.000000
12.000000, 0.000000, 4184.615234, 4158.974121, 4195.384277, 4184.615234, 4180.000000, 4201.538574, 4188.717773, 4178.974121, 4185.127930, 4261.538574, 4217.948730, 4205.127930, 4209.743652, 4245.127930, 3542.000000, 8151.000000, 8096.000000, 0.000000, 0.000000, 0.000000, 24860.000000, 125.641022, 4.000000, 4.000000, 4.000000, 4.000000, 4.000000, 4.000000, 4.000000, 4.000000, 4.000000, 4.000000, 4.000000, 4.000000, 4.000000, 4.000000, 4.000000, 4.000000
13.000000, 0.000000, 4185.641113, 4161.538574, 4202.563965, 4190.256348, 4185.641113, 4209.230469, 4201.025391, 4189.743652, 4188.717773, 4261.538574, 4227.692383, 4211.281738, 4216.922852, 4250.769043, 3541.000000, 8052.000000, 8095.000000, 0.000000, 0.000000, 0.000000, 24860.000000, 133.846146, 4.000000, 4.000000, 4.000000, 4.000000, 4.000000, 4.000000, 4.000000, 4.000000, 4.000000, 4.000000, 4.000000, 4.000000, 4.000000, 4.000000, 4.000000, 4.000000
14.000000, 0.000000, 4181.025391, 4148.717773, 4197.948730, 4181.025391, 4175.384277, 4208.205078, 4197.948730, 4187.692383, 4184.615234, 4249.743652, 4212.307617, 4202.051270, 4201.025391, 4231.281738, 2700.000000, 8052.000000, 8095.000000, 0.000000, 0.000000, 0.000000, 24860.000000, 141.538452, 4.000000, 4.000000, 4.000000, 4.000000, 4.000000, 4.000000, 4.000000, 4.000000, 4.000000, 4.000000, 4.000000, 4.000000, 4.000000, 4.000000, 4.000000, 4.000000
15.000000, 0.000000, 4183.076660, 4146.666504, 4197.436035, 4177.948730, 4173.333008, 4200.000000, 4184.102539, 4183.076660, 4181.025391, 4245.641113, 4198.461426, 4197.948730, 4198.461426, 4222.051270, 3537.000000, 7955.000000, 8092.000000, 0.000000, 0.000000, 0.000000, 24860.000000, 149.230759, 4.000000, 4.000000, 4.000000, 4.000000, 4.000000, 4.000000, 4.000000, 4.000000, 4.000000, 4.000000, 4.000000, 4.000000, 4.000000, 4.000000, 4.000000, 4.000000
16.000000, 0.000000, 4190.769043, 4154.358887, 4198.461426, 4182.563965, 4185.641113, 4200.512695, 4185.127930, 4189.743652, 4182.563965, 4251.281738, 4211.281738, 4201.538574, 4216.410156, 4231.794922, 0.000000, 7955.000000, 8092.000000, 0.000000, 0.000000, 0.000000, 24860.000000, 157.435898, 4.000000, 4.000000, 4.000000, 4.000000, 4.000000, 4.000000, 4.000000, 4.000000, 4.000000, 4.000000, 4.000000, 4.000000, 4.000000, 4.000000, 4.000000, 4.000000
17.000000, 0.000000, 4192.820313, 4149.743652, 4188.717773, 4176.410156, 4189.230469, 4205.127930, 4194.358887, 4201.025391, 4186.153809, 4249.743652, 4222.563965, 4201.538574, 4224.102539, 4234.871582, 0.000000, 7825.000000, 8083.000000, 0.000000, 0.000000, 0.000000, 24860.000000, 165.128204, 4.000000, 4.000000, 4.000000, 4.000000, 4.000000, 4.000000, 4.000000, 4.000000, 4.000000, 4.000000, 4.000000, 4.000000, 4.000000, 4.000000, 4.000000, 4.000000
18.000000, 0.000000, 4190.769043, 4134.871582, 4181.025391, 4166.666504, 4178.974121, 4204.615234, 4200.000000, 4203.589844, 4191.794922, 4246.666504, 4215.384277, 4198.461426, 4222.563965, 4228.205078, 0.000000, 7825.000000, 8083.000000, 0.000000, 0.000000, 0.000000, 24860.000000, 172.820511, 4.000000, 4.000000, 4.000000, 4.000000, 4.000000, 4.000000, 4.000000, 4.000000, 4.000000, 4.000000, 4.000000, 4.000000, 4.000000, 4.000000, 4.000000, 4.000000
19.000000, 0.000000, 4198.974121, 4130.769043, 4189.743652, 4166.153809, 4175.384277, 4203.589844, 4201.538574, 4200.000000, 4196.922852, 4255.384277, 4218.974121, 4203.589844, 4232.820313, 4234.871582, 0.000000, 7781.000000, 8084.000000, 0.000000, 0.000000, 0.000000, 24860.000000, 181.025635, 4.000000, 4.000000, 4.000000, 4.000000, 4.000000, 4.000000, 4.000000, 4.000000, 4.000000, 4.000000, 4.000000, 4.000000, 4.000000, 4.000000, 4.000000, 4.000000
20.000000, 0.000000, 4204.102539, 4136.410156, 4203.589844, 4172.307617, 4183.589844, 4205.127930, 4197.436035, 4200.512695, 4207.692383, 4272.820313, 4240.000000, 4217.436035, 4249.230469, 4252.307617, 0.000000, 7781.000000, 8084.000000, 0.000000, 0.000000, 0.000000, 24860.000000, 188.717941, 4.000000, 4.000000, 4.000000, 4.000000, 4.000000, 4.000000, 4.000000, 4.000000, 4.000000, 4.000000, 4.000000, 4.000000, 4.000000, 4.000000, 4.000000, 4.000000
21.000000, 0.000000, 4197.948730, 4128.717773, 4202.051270, 4174.871582, 4186.666504, 4208.717773, 4200.000000, 4206.666504, 4217.436035, 4282.051270, 4245.641113, 4222.051270, 4252.820313, 4253.333008, 0.000000, 7759.000000, 8086.000000, 0.000000, 0.000000, 0.000000, 24860.000000, 196.923065, 4.000000, 4.000000, 4.000000, 4.000000, 4.000000, 4.000000, 4.000000, 4.000000, 4.000000, 4.000000, 4.000000, 4.000000, 4.000000, 4.000000, 4.000000, 4.000000
22.000000, 0.000000, 4189.743652, 4112.307617, 4187.692383, 4166.666504, 4174.871582, 4209.743652, 4202.051270, 4201.538574, 4203.589844, 4272.307617, 4229.230469, 4211.281738, 4240.512695, 4236.922852, 0.000000, 7759.000000, 8086.000000, 0.000000, 0.000000, 0.000000, 24860.000000, 204.615387, 4.000000, 4.000000, 4.000000, 4.000000, 4.000000, 4.000000, 4.000000, 4.000000, 4.000000, 4.000000, 4.000000, 4.000000, 4.000000, 4.000000, 4.000000, 4.000000
23.000000, 0.000000, 4187.692383, 4107.692383, 4179.487305, 4156.410156, 4165.641113, 4198.461426, 4189.743652, 4187.692383, 4182.051270, 4257.436035, 4213.846191, 4198.974121, 4230.769043, 4227.179199, 0.000000, 7763.000000, 8089.000000, 0.000000, 0.000000, 0.000000, 24860.000000, 212.820511, 4.000000, 4.000000, 4.000000, 4.000000, 4.000000, 4.000000, 4.000000, 4.000000, 4.000000, 4.000000, 4.000000, 4.000000, 4.000000, 4.000000, 4.000000, 4.000000
24.000000, 0.000000, 4198.461426, 4117.948730, 4185.127930, 4164.102539, 4172.307617, 4193.846191, 4184.102539, 4189.743652, 4187.692383, 4259.487305, 4215.384277, 4204.102539, 4239.487305, 4233.846191, 0.000000, 7763.000000, 8089.000000, 0.000000, 0.000000, 0.000000, 24860.000000, 220.512817, 4.000000, 4.000000, 4.000000, 4.000000, 4.000000, 4.000000, 4.000000, 4.000000, 4.000000, 4.000000, 4.000000, 4.000000, 4.000000, 4.000000, 4.000000, 4.000000
25.000000, 0.000000, 4202.563965, 4128.205078, 4196.410156, 4181.025391, 4184.102539, 4207.179199, 4199.487305, 4202.051270, 4204.102539, 4277.436035, 4226.666504, 4217.436035, 4249.743652, 4243.589844, 0.000000, 7769.000000, 8089.000000, 0.000000, 0.000000, 0.000000, 24860.000000, 228.205124, 4.000000, 4.000000, 4.000000, 4.000000, 4.000000, 4.000000, 4.000000, 4.000000, 4.000000, 4.000000, 4.000000, 4.000000, 4.000000, 4.000000, 4.000000, 4.000000
26.000000, 0.000000, 4200.512695, 4133.846191, 4204.102539, 4188.205078, 4188.717773, 4209.230469, 4203.076660, 4200.512695, 4200.512695, 4283.589844, 4228.717773, 4221.025391, 4248.717773, 4247.179199, 0.000000, 7769.000000, 8089.000000, 0.000000, 0.000000, 0.000000, 24860.000000, 236.410248, 4.000000, 4.000000, 4.000000, 4.000000, 4.000000, 4.000000, 4.000000, 4.000000, 4.000000, 4.000000, 4.000000, 4.000000, 4.000000, 4.000000, 4.000000, 4.000000
27.000000, 0.000000, 4205.641113, 4137.948730, 4203.076660, 4186.153809, 4187.179199, 4200.000000, 4192.820313, 4196.922852, 4195.897461, 4274.871582, 4220.512695, 4220.000000, 4247.179199, 4246.153809, 0.000000, 7799.000000, 8095.000000, 0.000000, 0.000000, 0.000000, 24860.000000, 244.615372, 4.000000, 4.000000, 4.000000, 4.000000, 4.000000, 4.000000, 4.000000, 4.000000, 4.000000, 4.000000, 4.000000, 4.000000, 4.000000, 4.000000, 4.000000, 4.000000
28.000000, 1.000000, 4206.666504, 4140.000000, 4202.563965, 4187.692383, 4189.743652, 4205.127930, 4196.410156, 4197.948730, 4198.974121, 4274.358887, 4216.410156, 4217.436035, 4245.641113, 4243.589844, 0.000000, 7799.000000, 8095.000000, 0.000000, 0.000000, 0.000000, 24860.000000, 252.307693, 4.000000, 4.000000, 4.000000, 4.000000, 4.000000, 4.000000, 4.000000, 4.000000, 4.000000, 4.000000, 4.000000, 4.000000, 4.000000, 4.000000, 4.000000, 4.000000
29.000000, 1.000000, 4207.179199, 4142.051270, 4202.051270, 4189.230469, 4192.820313, 4210.769043, 4200.000000, 4198.461426, 4202.563965, 4273.846191, 4211.794922, 4215.384277, 4244.615234, 4241.025391, 0.000000, 7799.000000, 8095.000000, 0.000000, 0.000000, 0.000000, 24860.000000, 260.000000, 4.000000, 4.000000, 4.000000, 4.000000, 4.000000, 4.000000, 4.000000, 4.000000, 4.000000, 4.000000, 4.000000, 4.000000, 4.000000, 4.000000, 4.000000, 4.000000
30.000000, 1.000000, 4208.205078, 4144.102539, 4201.538574, 4190.769043, 4195.897461, 4215.897461, 4204.102539, 4199.487305, 4205.641113, 4273.333008, 4207.692383, 4212.820313, 4243.076660, 4237.948730, 0.000000, 7799.000000, 8095.000000, 0.000000, 0.000000, 0.000000, 24860.000000, 268.205109, 4.000000, 4.000000, 4.000000, 4.000000, 4.000000, 4.000000, 4.000000, 4.000000, 4.000000, 4.000000, 4.000000, 4.000000, 4.000000, 4.000000, 4.000000, 4.000000
31.000000, 1.000000, 4209.230469, 4146.153809, 4201.025391, 4191.794922, 4198.974121, 4221.538574, 4207.692383, 4200.000000, 4209.230469, 4272.820313, 4203.589844, 4210.769043, 4241.538574, 4235.384277, 0.000000, 7799.000000, 8095.000000, 0.000000, 0.000000, 0.000000, 24860.000000, 275.897430, 4.000000, 4.000000, 4.000000, 4.000000, 4.000000, 4.000000, 4.000000, 4.000000, 4.000000, 4.000000, 4.000000, 4.000000, 4.000000, 4.000000, 4.000000, 4.000000
32.000000, 1.000000, 4210.256348, 4148.205078, 4200.512695, 4193.333008, 4201.538574, 4226.666504, 4211.281738, 4201.025391, 4212.307617, 4272.307617, 4199.487305, 4208.205078, 4240.000000, 4232.820313, 0.000000, 7799.000000, 8095.000000, 0.000000, 0.000000, 0.000000, 24860.000000, 283.589722, 4.000000, 4.000000, 4.000000, 4.000000, 4.000000, 4.000000, 4.000000, 4.000000, 4.000000, 4.000000, 4.000000, 4.000000, 4.000000, 4.000000, 4.000000, 4.000000
33.000000, 0.000000, 4211.281738, 4150.769043, 4200.000000, 4195.384277, 4205.127930, 4232.820313, 4215.384277, 4202.051270, 4216.410156, 4271.281738, 4194.358887, 4205.641113, 4238.461426, 4229.743652, 0.000000, 7799.000000, 8095.000000, 0.000000, 0.000000, 0.000000, 24860.000000, 291.794861, 4.000000, 4.000000, 4.000000, 4.000000, 4.000000, 4.000000, 4.000000, 4.000000, 4.000000, 4.000000, 4.000000, 4.000000, 4.000000, 4.000000, 4.000000, 4.000000
34.000000, 0.000000, 4208.205078, 4134.358887, 4182.051270, 4183.076660, 4198.974121, 4224.615234, 4215.384277, 4199.487305, 4206.153809, 4260.512695, 4175.384277, 4185.641113, 4228.205078, 4208.717773, 0.000000, 7799.000000, 8095.000000, 0.000000, 0.000000, 0.000000, 24860.000000, 299.487183, 4.000000, 4.000000, 4.000000, 4.000000, 4.000000, 4.000000, 4.000000, 4.000000, 4.000000, 4.000000, 4.000000, 4.000000, 4.000000, 4.000000, 4.000000, 4.000000
35.000000, 0.000000, 4208.205078, 4124.102539, 4168.205078, 4176.410156, 4182.051270, 4214.358887, 4210.256348, 4200.000000, 4200.000000, 4265.127930, 4165.127930, 4179.487305, 4229.230469, 4197.436035, 0.000000, 8072.000000, 8183.000000, 0.000000, 0.000000, 0.000000, 24860.000000, 307.179474, 4.000000, 4.000000, 4.000000, 4.000000, 4.000000, 4.000000, 4.000000, 4.000000, 4.000000, 4.000000, 4.000000, 4.000000, 4.000000, 4.000000, 4.000000, 4.000000
36.000000, 0.000000, 4208.717773, 4126.666504, 4169.743652, 4176.410156, 4177.436035, 4207.179199, 4200.512695, 4199.487305, 4202.563965, 4263.589844, 4164.102539, 4180.512695, 4229.743652, 4195.384277, 0.000000, 8072.000000, 8183.000000, 0.000000, 0.000000, 0.000000, 24860.000000, 315.384613, 4.000000, 4.000000, 4.000000, 4.000000, 4.000000, 4.000000, 4.000000, 4.000000, 4.000000, 4.000000, 4.000000, 4.000000, 4.000000, 4.000000, 4.000000, 4.000000
37.000000, 0.000000, 4215.384277, 4139.487305, 4179.487305, 4182.563965, 4198.974121, 4210.256348, 4195.897461, 4199.487305, 4207.692383, 4258.974121, 4178.461426, 4187.179199, 4235.384277, 4201.025391, 0.000000, 8058.000000, 8189.000000, 0.000000, 0.000000, 0.000000, 24860.000000, 323.076904, 4.000000, 4.000000, 4.000000, 4.000000, 4.000000, 4.000000, 4.000000, 4.000000, 4.000000, 4.000000, 4.000000, 4.000000, 4.000000, 4.000000, 4.000000, 4.000000
38.000000, 0.000000, 4217.436035, 4151.281738, 4187.179199, 4192.307617, 4208.717773, 4217.948730, 4198.974121, 4206.153809, 4205.641113, 4264.102539, 4198.461426, 4200.000000, 4247.692383, 4212.307617, 0.000000, 8058.000000, 8189.000000, 0.000000, 0.000000, 0.000000, 24860.000000, 330.769226, 4.000000, 4.000000, 4.000000, 4.000000, 4.000000, 4.000000, 4.000000, 4.000000, 4.000000, 4.000000, 4.000000, 4.000000, 4.000000, 4.000000, 4.000000, 4.000000
39.000000, 0.000000, 4214.871582, 4160.512695, 4190.769043, 4197.948730, 4203.076660, 4220.512695, 4202.051270, 4215.384277, 4212.307617, 4271.281738, 4198.974121, 4204.615234, 4247.692383, 4217.948730, 0.000000, 8042.000000, 8203.000000, 0.000000, 0.000000, 0.000000, 24860.000000, 338.974365, 4.000000, 4.000000, 4.000000, 4.000000, 4.000000, 4.000000, 4.000000, 4.000000, 4.000000, 4.000000, 4.000000, 4.000000, 4.000000, 4.000000, 4.000000, 4.000000
40.000000, 0.000000, 4214.871582, 4168.717773, 4194.358887, 4199.487305, 4210.256348, 4218.974121, 4199.487305, 4214.871582, 4220.000000, 4263.076660, 4189.743652, 4198.461426, 4238.461426, 4216.410156, 0.000000, 8042.000000, 8203.000000, 0.000000, 0.000000, 0.000000, 24860.000000, 346.666656, 4.000000, 4.000000, 4.000000, 4.000000, 4.000000, 4.000000, 4.000000, 4.000000, 4.000000, 4.000000, 4.000000, 4.000000, 4.000000, 4.000000, 4.000000, 4.000000
41.000000, 0.000000, 4214.358887, 4167.692383, 4197.436035, 4196.410156, 4210.256348, 4218.974121, 4200.512695, 4216.410156, 4207.692383, 4252.307617, 4190.769043, 4194.358887, 4235.897461, 4215.384277, 0.000000, 8046.000000, 8208.000000, 0.000000, 0.000000, 0.000000, 24860.000000, 354.358978, 4.000000, 4.000000, 4.000000, 4.000000, 4.000000, 4.000000, 4.000000, 4.000000, 4.000000, 4.000000, 4.000000, 4.000000, 4.000000, 4.000000, 4.000000, 4.000000
42.000000, 0.000000, 4212.307617, 4161.538574, 4194.358887, 4193.846191, 4200.000000, 4213.333008, 4200.000000, 4223.076660, 4198.461426, 4250.769043, 4190.256348, 4194.358887, 4234.871582, 4213.846191, 0.000000, 8046.000000, 8208.000000, 0.000000, 0.000000, 0.000000, 24860.000000, 362.051270, 4.000000, 4.000000, 4.000000, 4.000000, 4.000000, 4.000000, 4.000000, 4.000000, 4.000000, 4.000000, 4.000000, 4.000000, 4.000000, 4.000000, 4.000000, 4.000000
43.000000, 0.000000, 4207.692383, 4156.410156, 4187.692383, 4189.230469, 4200.000000, 4207.179199, 4199.487305, 4214.358887, 4202.051270, 4245.641113, 4176.410156, 4189.743652, 4230.769043, 4204.615234, 0.000000, 8057.000000, 8218.000000, 0.000000, 0.000000, 0.000000, 24860.000000, 369.743591, 4.000000, 4.000000, 4.000000, 4.000000, 4.000000, 4.000000, 4.000000, 4.000000, 4.000000, 4.000000, 4.000000, 4.000000, 4.000000, 4.000000, 4.000000, 4.000000
44.000000, 0.000000, 4208.717773, 4150.256348, 4182.563965, 4182.563965, 4194.358887, 4205.127930, 4201.025391, 4194.871582, 4192.820313, 4237.948730, 4166.666504, 4184.102539, 4228.717773, 4197.436035, 0.000000, 8057.000000, 8218.000000, 0.000000, 0.000000, 0.000000, 24860.000000, 377.948700, 4.000000, 4.000000, 4.000000, 4.000000, 4.000000, 4.000000, 4.000000, 4.000000, 4.000000, 4.000000, 4.000000, 4.000000, 4.000000, 4.000000, 4.000000, 4.000000
45.000000, 0.000000, 4215.897461, 4159.487305, 4185.127930, 4190.256348, 4184.615234, 4202.563965, 4195.897461, 4190.769043, 4182.563965, 4237.436035, 4173.333008, 4181.538574, 4230.769043, 4200.512695, 0.000000, 8077.000000, 8213.000000, 0.000000, 0.000000, 0.000000, 24860.000000, 385.641022, 4.000000, 4.000000, 4.000000, 4.000000, 4.000000, 4.000000, 4.000000, 4.000000, 4.000000, 4.000000, 4.000000, 4.000000, 4.000000, 4.000000, 4.000000, 4.000000
46.000000, 0.000000, 4216.410156, 4179.487305, 4189.230469, 4202.563965, 4194.871582, 4201.025391, 4186.666504, 4198.461426, 4190.256348, 4235.897461, 4168.205078, 4176.922852, 4230.256348, 4203.589844, 0.000000, 8077.000000, 8213.000000, 0.000000, 0.000000, 0.000000, 24860.000000, 393.333313, 4.000000, 4.000000, 4.000000, 4.000000, 4.000000, 4.000000, 4.000000, 4.000000, 4.000000, 4.000000, 4.000000, 4.000000, 4.000000, 4.000000, 4.000000, 4.000000
47.000000, 0.000000, 4217.436035, 4183.076660, 4190.256348, 4202.051270, 4206.153809, 4200.512695, 4182.051270, 4196.410156, 4195.384277, 4229.743652, 4152.307617, 4171.281738, 4229.743652, 4201.538574, 0.000000, 8063.000000, 8197.000000, 0.000000, 0.000000, 0.000000, 24860.000000, 401.025635, 4.000000, 4.000000, 4.000000, 4.000000, 4.000000, 4.000000, 4.000000, 4.000000, 4.000000, 4.000000, 4.000000, 4.000000, 4.000000, 4.000000, 4.000000, 4.000000
48.000000, 0.000000, 4216.922852, 4180.000000, 4189.230469, 4200.000000, 4200.000000, 4200.000000, 4182.051270, 4188.205078, 4197.948730, 4227.692383, 4155.384277, 4176.410156, 4230.769043, 4201.538574, 0.000000, 8063.000000, 8197.000000, 0.000000, 0.000000, 0.000000, 24860.000000, 408.717926, 4.000000, 4.000000, 4.000000, 4.000000, 4.000000, 4.000000, 4.000000, 4.000000, 4.000000, 4.000000, 4.000000, 4.000000, 4.000000, 4.000000, 4.000000, 4.000000
49.000000, 0.000000, 4215.384277, 4184.102539, 4188.205078, 4202.563965, 4202.051270, 4200.512695, 4182.051270, 4186.666504, 4198.974121, 4230.256348, 4167.179199, 4184.102539, 4230.769043, 4205.641113, 0.000000, 8050.000000, 8189.000000, 0.000000, 0.000000, 0.000000, 24860.000000, 416.923065, 4.000000, 4.000000, 4.000000, 4.000000, 4.000000, 4.000000, 4.000000, 4.000000, 4.000000, 4.000000, 4.000000, 4.000000, 4.000000, 4.000000, 4.000000, 4.000000
50.000000, 0.000000, 4217.436035, 4187.179199, 4192.307617, 4203.076660, 4206.666504, 4202.563965, 4184.102539, 4185.641113, 4188.717773, 4232.820313, 4172.820313, 4184.615234, 4238.461426, 4213.333008, 0.000000, 8050.000000, 8189.000000, 0.000000, 0.000000, 0.000000, 24860.000000, 424.615387, 4.000000, 4.000000, 4.000000, 4.000000, 4.000000, 4.000000, 4.000000, 4.000000, 4.000000, 4.000000, 4.000000, 4.000000, 4.000000, 4.000000, 4.000000, 4.000000
51.000000, 0.000000, 4217.948730, 4193.333008, 4201.538574, 4208.205078, 4198.461426, 4202.051270, 4187.692383, 4185.127930, 4189.743652, 4233.846191, 4181.538574, 4185.641113, 4246.666504, 4221.025391, 0.000000, 8009.000000, 8200.000000, 0.000000, 0.000000, 0.000000, 24860.000000, 432.307678, 4.000000, 4.000000, 4.000000, 4.000000, 4.000000, 4.000000, 4.000000, 4.000000, 4.000000, 4.000000, 4.000000, 4.000000, 4.000000, 4.000000, 4.000000, 4.000000
52.000000, 0.000000, 4218.461426, 4198.974121, 4205.641113, 4211.281738, 4196.922852, 4199.487305, 4188.717773, 4198.461426, 4209.743652, 4234.358887, 4190.769043, 4190.769043, 4243.076660, 4222.051270, 0.000000, 8009.000000, 8200.000000, 0.000000, 0.000000, 0.000000, 24860.000000, 440.000000, 4.000000, 4.000000, 4.000000, 4.000000, 4.000000, 4.000000, 4.000000, 4.000000, 4.000000, 4.000000, 4.000000, 4.000000, 4.000000, 4.000000, 4.000000, 4.000000
53.000000, 0.000000, 4213.333008, 4192.820313, 4199.487305, 4206.666504, 4199.487305, 4200.000000, 4187.179199, 4200.000000, 4205.127930, 4234.871582, 4184.102539, 4191.281738, 4231.794922, 4219.487305, 0.000000, 7996.000000, 8205.000000, 0.000000, 0.000000, 0.000000, 24860.000000, 447.692291, 4.000000, 4.000000, 4.000000, 4.000000, 4.000000, 4.000000, 4.000000, 4.000000, 4.000000, 4.000000, 4.000000, 4.000000, 4.000000, 4.000000, 4.000000, 4.000000
54.000000, 0.000000, 4205.641113, 4186.153809, 4190.769043, 4202.051270, 4191.281738, 4201.538574, 4184.102539, 4182.563965, 4181.538574, 4223.076660, 4171.794922, 4184.102539, 4224.615234, 4212.820313, 0.000000, 7996.000000, 8205.000000, 0.000000, 0.000000, 0.000000, 24860.000000, 455.384613, 4.000000, 4.000000, 4.000000, 4.000000, 4.000000, 4.000000, 4.000000, 4.000000, 4.000000, 4.000000, 4.000000, 4.000000, 4.000000, 4.000000, 4.000000, 4.000000
55.000000, 0.000000, 4204.102539, 4190.769043, 4186.666504, 4201.538574, 4185.127930, 4203.076660, 4185.127930, 4189.743652, 4188.717773, 4213.333008, 4171.281738, 4181.025391, 4226.153809, 4210.256348, 0.000000, 8003.000000, 8195.000000, 0.000000, 0.000000, 0.000000, 24860.000000, 463.589722, 4.000000, 4.000000, 4.000000, 4.000000, 4.000000, 4.000000, 4.000000, 4.000000, 4.000000, 4.000000, 4.000000, 4.000000, 4.000000, 4.000000, 4.000000, 4.000000
56.000000, 0.000000, 4210.769043, 4184.615234, 4189.743652, 4205.127930, 4181.025391, 4202.051270, 4187.692383, 4203.589844, 4198.974121, 4224.102539, 4175.384277, 4188.717773, 4228.205078, 4216.410156, 0.000000, 8003.000000, 8195.000000, 0.000000, 0.000000, 0.000000, 24860.000000, 471.282043, 4.000000, 4.000000, 4.000000, 4.000000, 4.000000, 4.000000, 4.000000, 4.000000, 4.000000, 4.000000, 4.000000, 4.000000, 4.000000, 4.000000, 4.000000, 4.000000
57.000000, 0.000000, 4213.333008, 4176.410156, 4192.820313, 4205.127930, 4173.846191, 4200.000000, 4186.666504, 4189.743652, 4183.589844, 4230.769043, 4170.256348, 4186.666504, 4222.563965, 4215.897461, 0.000000, 8009.000000, 8197.000000, 0.000000, 0.000000, 0.000000, 24860.000000, 478.974335, 4.000000, 4.000000, 4.000000, 4.000000, 4.000000, 4.000000, 4.000000, 4.000000, 4.000000, 4.000000, 4.000000, 4.000000, 4.000000, 4.000000, 4.000000, 4.000000
58.000000, 0.000000, 4202.563965, 4188.205078, 4187.179199, 4201.538574, 4177.948730, 4200.512695, 4185.641113, 4174.871582, 4169.743652, 4216.922852, 4157.948730, 4171.281738, 4213.333008, 4204.102539, 0.000000, 8009.000000, 8197.000000, 0.000000, 0.000000, 0.000000, 24860.000000, 486.666656, 4.000000, 4.000000, 4.000000, 4.000000, 4.000000, 4.000000, 4.000000, 4.000000, 4.000000, 4.000000, 4.000000, 4.000000, 4.000000, 4.000000, 4.000000, 4.000000
59.000000, 0.000000, 4198.974121, 4196.922852, 4178.974121, 4201.025391, 4183.589844, 4202.051270, 4187.692383, 4179.487305, 4172.820313, 4211.794922, 4151.794922, 4166.153809, 4209.230469, 4193.846191, 0.000000, 8033.000000, 8224.000000, 0.000000, 0.000000, 0.000000, 24860.000000, 494.358948, 4.000000, 4.000000, 4.000000, 4.000000, 4.000000, 4.000000, 4.000000, 4.000000, 4.000000, 4.000000, 4.000000, 4.000000, 4.000000, 4.000000, 4.000000, 4.000000
60.000000, 0.000000, 4204.615234, 4187.179199, 4171.281738, 4197.948730, 4173.846191, 4202.563965, 4189.743652, 4186.666504, 4179.487305, 4215.384277, 4148.717773, 4165.641113, 4205.127930, 4187.692383, 0.000000, 8033.000000, 8224.000000, 0.000000, 0.000000, 0.000000, 24860.000000, 502.051270, 4.000000, 4.000000, 4.000000, 4.000000, 4.000000, 4.000000, 4.000000, 4.000000, 4.000000, 4.000000, 4.000000, 4.000000, 4.000000, 4.000000, 4.000000, 4.000000
61.000000, 0.000000, 4201.025391, 4176.410156, 4167.179199, 4185.127930, 4166.153809, 4200.000000, 4187.179199, 4186.153809, 4184.615234, 4205.641113, 4138.461426, 4160.000000, 4198.461426, 4181.025391, 0.000000, 8036.000000, 8224.000000, 0.000000, 0.000000, 0.000000, 24860.000000, 510.256409, 4.000000, 4.000000, 4.000000, 4.000000, 4.000000, 4.000000, 4.000000, 4.000000, 4.000000, 4.000000, 4.000000, 4.000000, 4.000000, 4.000000, 4.000000, 4.000000
62.000000, 0.000000, 4202.051270, 4177.436035, 4166.153809, 4180.512695, 4168.205078, 4196.922852, 4187.179199, 4181.025391, 4183.076660, 4196.922852, 4134.871582, 4162.051270, 4200.512695, 4180.512695, 0.000000, 8036.000000, 8224.000000, 0.000000, 0.000000, 0.000000, 24860.000000, 517.948730, 4.000000, 4.000000, 4.000000, 4.000000, 4.000000, 4.000000, 4.000000, 4.000000, 4.000000, 4.000000, 4.000000, 4.000000, 4.000000, 4.000000, 4.000000, 4.000000
63.000000, 0.000000, 4204.615234, 4182.563965, 4169.230469, 4187.179199, 4168.717773, 4197.948730, 4185.641113, 4179.487305, 4173.846191, 4204.102539, 4140.512695, 4169.743652, 4203.076660, 4185.127930, 0.000000, 8029.000000, 8211.000000, 0.000000, 0.000000, 0.000000, 24860.000000, 525.640991, 4.000000, 4.000000, 4.000000, 4.000000, 4.000000, 4.000000, 4.000000, 4.000000, 4.000000, 4.000000, 4.000000, 4.000000, 4.000000, 4.000000, 4.000000, 4.000000
64.000000, 0.000000, 4201.025391, 4190.769043, 4175.384277, 4188.205078, 4169.743652, 4194.871582, 4180.000000, 4183.589844, 4169.743652, 4205.127930, 4139.487305, 4167.692383, 4201.025391, 4185.127930, 3562.000000, 8029.000000, 8211.000000, 0.000000, 0.000000, 0.000000, 24860.000000, 533.333313, 4.000000, 4.000000, 4.000000, 4.000000, 4.000000, 4.000000, 4.000000, 4.000000, 4.000000, 4.000000, 4.000000, 4.000000, 4.000000, 4.000000, 4.000000, 4.000000
65.000000, 0.000000, 4201.025391, 4198.974121, 4182.051270, 4190.769043, 4166.666504, 4185.641113, 4178.974121, 4182.563965, 4170.256348, 4197.948730, 4136.410156, 4166.153809, 4200.000000, 4184.102539, 3574.000000, 7991.000000, 8202.000000, 0.000000, 0.000000, 0.000000, 24860.000000, 541.025635, 4.000000, 4.000000, 4.000000, 4.000000, 4.000000, 4.000000, 4.000000, 4.000000, 4.000000, 4.000000, 4.000000, 4.000000, 4.000000, 4.000000, 4.000000, 4.000000
66.000000, 0.000000, 4202.051270, 4202.051270, 4190.256348, 4201.538574, 4167.692383, 4188.717773, 4183.076660, 4183.589844, 4173.846191, 4197.948730, 4147.179199, 4175.384277, 4202.563965, 4190.256348, 1726.000000, 7991.000000, 8202.000000, 0.000000, 0.000000, 0.000000, 24860.000000, 549.230774, 4.000000, 4.000000, 4.000000, 4.000000, 4.000000, 4.000000, 4.000000, 4.000000, 4.000000, 4.000000, 4.000000, 4.000000, 4.000000, 4.000000, 4.000000, 4.000000
67.000000, 0.000000, 4205.127930, 4204.615234, 4201.538574, 4206.666504, 4178.974121, 4200.512695, 4185.127930, 4188.717773, 4176.922852, 4204.615234, 4159.487305, 4185.127930, 4205.127930, 4201.025391, 3578.000000, 7968.000000, 8224.000000, 0.000000, 0.000000, 0.000000, 24860.000000, 556.923035, 4.000000, 4.000000, 4.000000, 4.000000, 4.000000, 4.000000, 4.000000, 4.000000, 4.000000, 4.000000, 4.000000, 4.000000, 4.000000, 4.000000, 4.000000, 4.000000
68.000000, 0.000000, 4204.615234, 4203.076660, 4203.076660, 4203.076660, 4177.436035, 4203.076660, 4188.205078, 4187.692383, 4174.871582, 4201.538574, 4158.974121, 4187.179199, 4202.563965, 4203.076660, 3323.000000, 7968.000000, 8224.000000, 0.000000, 0.000000, 0.000000, 24860.000000, 564.615356, 4.000000, 4.000000, 4.000000, 4.000000, 4.000000, 4.000000, 4.000000, 4.000000, 4.000000, 4.000000, 4.000000, 4.000000, 4.000000, 4.000000, 4.000000, 4.000000
69.000000, 0.000000, 4201.538574, 4197.948730, 4196.410156, 4197.436035, 4167.692383, 4193.333008, 4185.641113, 4183.076660, 4166.666504, 4187.692383, 4152.820313, 4182.563965, 4196.922852, 4194.871582, 3601.000000, 7972.000000, 8265.000000, 0.000000, 0.000000, 0.000000, 24860.000000, 572.307678, 4.000000, 4.000000, 4.000000, 4.000000, 4.000000, 4.000000, 4.000000, 4.000000, 4.000000, 4.000000, 4.000000, 4.000000, 4.000000, 4.000000, 4.000000, 4.000000
70.000000, 0.000000, 4206.666504, 4196.922852, 4203.076660, 4200.512695, 4172.307617, 4187.692383, 4177.436035, 4182.051270, 4164.615234, 4184.615234, 4155.897461, 4183.076660, 4199.487305, 4197.436035, 3094.000000, 7972.000000, 8265.000000, 0.000000, 0.000000, 0.000000, 24860.000000, 580.000000, 4.000000, 4.000000, 4.000000, 4.000000, 4.000000, 4.000000, 4.000000, 4.000000, 4.000000, 4.000000, 4.000000, 4.000000, 4.000000, 4.000000, 4.000000, 4.000000
71.000000, 0.000000, 4208.205078, 4202.563965, 4213.846191, 4207.692383, 4176.410156, 4193.846191, 4180.000000, 4188.205078, 4177.948730, 4198.974121, 4169.230469, 4185.641113, 4207.179199, 4208.205078, 3136.000000, 7980.000000, 8270.000000, 0.000000, 0.000000, 0.000000, 24860.000000, 588.205139, 4.000000, 4.000000, 4.000000, 4.000000, 4.000000, 4.000000, 4.000000, 4.000000, 4.000000, 4.000000, 4.000000, 4.000000, 4.000000, 4.000000, 4.000000, 4.000000
72.000000, 0.000000, 4205.127930, 4204.102539, 4207.692383, 4205.641113, 4169.743652, 4196.922852, 4188.717773, 4191.794922, 4187.692383, 4203.589844, 4171.794922, 4184.615234, 4207.692383, 4208.205078, 3556.000000, 7980.000000, 8270.000000, 0.000000, 0.000000, 0.000000, 24860.000000, 595.897400, 4.000000, 4.000000, 4.000000, 4.000000, 4.000000, 4.000000, 4.000000, 4.000000, 4.000000, 4.000000, 4.000000, 4.000000, 4.000000, 4.000000, 4.000000, 4.000000
73.000000, 0.000000, 4204.102539, 4200.000000, 4199.487305, 4200.000000, 4171.794922, 4189.230469, 4182.051270, 4182.051270, 4178.461426, 4191.281738, 4160.000000, 4182.563965, 4203.076660, 4202.563965, 3548.000000, 7987.000000, 8280.000000, 0.000000, 0.000000, 0.000000, 24860.000000, 603.589722, 4.000000, 4.000000, 4.000000, 4.000000, 4.000000, 4.000000, 4.000000, 4.000000, 4.000000, 4.000000, 4.000000, 4.000000, 4.000000, 4.000000, 4.000000, 4.000000
74.000000, 0.000000, 4204.615234, 4200.512695, 4202.051270, 4207.692383, 4173.846191, 4184.102539, 4170.256348, 4173.846191, 4167.692383, 4185.641113, 4159.487305, 4183.076660, 4202.563965, 4202.563965, 2697.000000, 7987.000000, 8280.000000, 0.000000, 0.000000, 0.000000, 24860.000000, 611.282043, 4.000000, 4.000000, 4.000000, 4.000000, 4.000000, 4.000000, 4.000000, 4.000000, 4.000000, 4.000000, 4.000000, 4.000000, 4.000000, 4.000000, 4.000000, 4.000000
75.000000, 0.000000, 4208.205078, 4201.538574, 4205.127930, 4218.461426, 4169.230469, 4185.641113, 4169.230469, 4179.487305, 4174.871582, 4191.281738, 4170.769043, 4185.127930, 4209.743652, 4207.179199, 3540.000000, 8007.000000, 8307.000000, 0.000000, 0.000000, 0.000000, 24860.000000, 618.974365, 4.000000, 4.000000, 4.000000, 4.000000, 4.000000, 4.000000, 4.000000, 4.000000, 4.000000, 4.000000, 4.000000, 4.000000, 4.000000, 4.000000, 4.000000, 4.000000
76.000000, 0.000000, 4205.641113, 4201.538574, 4205.127930, 4217.436035, 4175.384277, 4185.127930, 4170.256348, 4189.230469, 4184.102539, 4198.974121, 4174.871582, 4187.692383, 4215.384277, 4210.769043, 3544.000000, 8007.000000, 8307.000000, 0.000000, 0.000000, 0.000000, 24860.000000, 626.666626, 4.000000, 4.000000, 4.000000, 4.000000, 4.000000, 4.000000, 4.000000, 4.000000, 4.000000, 4.000000, 4.000000, 4.000000, 4.000000, 4.000000, 4.000000, 4.000000
77.000000, 0.000000, 4200.512695, 4199.487305, 4206.153809, 4214.871582, 4187.179199, 4192.820313, 4170.256348, 4186.666504, 4178.461426, 4199.487305, 4173.333008, 4187.692383, 4210.769043, 4208.205078, 3542.000000, 8014.000000, 8312.000000, 0.000000, 0.000000, 0.000000, 24860.000000, 634.871765, 4.000000, 4.000000, 4.000000, 4.000000, 4.000000, 4.000000, 4.000000, 4.000000, 4.000000, 4.000000, 4.000000, 4.000000, 4.000000, 4.000000, 4.000000, 4.000000
78.000000, 0.000000, 4199.487305, 4191.794922, 4197.436035, 4215.897461, 4189.743652, 4195.897461, 4171.794922, 4171.794922, 4168.205078, 4188.717773, 4165.127930, 4179.487305, 4201.025391, 4194.358887, 2697.000000, 8014.000000, 8312.000000, 0.000000, 0.000000, 0.000000, 24860.000000, 642.564087, 4.000000, 4.000000, 4.000000, 4.000000, 4.000000, 4.000000, 4.000000, 4.000000, 4.000000, 4.000000, 4.000000, 4.000000, 4.000000, 4.000000, 4.000000, 4.000000
79.000000, 0.000000, 4198.461426, 4184.102539, 4191.281738, 4211.281738, 4186.153809, 4185.641113, 4171.794922, 4161.025391, 4166.666504, 4181.538574, 4155.897461, 4168.717773, 4198.974121, 4186.153809, 3540.000000, 8022.000000, 8313.000000, 0.000000, 0.000000, 0.000000, 24860.000000, 650.256409, 4.000000, 4.000000, 4.000000, 4.000000, 4.000000, 4.000000, 4.000000, 4.000000, 4.000000, 4.000000, 4.000000, 4.000000, 4.000000, 4.000000, 4.000000, 4.000000
80.000000, 0.000000, 4201.025391, 4185.127930, 4200.512695, 4209.230469, 4186.666504, 4190.769043, 4171.794922, 4166.153809, 4171.281738, 4183.076660, 4162.051270, 4168.717773, 4202.051270, 4194.358887, 3544.000000, 8022.000000, 8313.000000, 0.000000, 0.000000, 0.000000, 24860.000000, 657.948730, 4.000000, 4.000000, 4.000000, 4.000000, 4.000000, 4.000000, 4.000000, 4.000000, 4.000000, 4.000000, 4.000000, 4.000000, 4.000000, 4.000000, 4.000000, 4.000000
81.000000, 0.000000, 4200.512695, 4187.692383, 4198.461426, 4210.769043, 4187.179199, 4198.461426, 4173.333008, 4172.820313, 4171.794922, 4185.127930, 4171.794922, 4172.820313, 4203.589844, 4197.948730, 3542.000000, 8033.000000, 8317.000000, 0.000000, 0.000000, 0.000000, 24860.000000, 665.640991, 4.000000, 4.000000, 4.000000, 4.000000, 4.000000, 4.000000, 4.000000, 4.000000, 4.000000, 4.000000, 4.000000, 4.000000, 4.000000, 4.000000, 4.000000, 4.000000
82.000000, 0.000000, 4198.974121, 4186.666504, 4184.615234, 4205.127930, 4186.666504, 4187.692383, 4171.281738, 4167.692383, 4171.281738, 4185.127930, 4171.794922, 4170.256348, 4204.102539, 4191.794922, 2697.000000, 8033.000000, 8317.000000, 0.000000, 0.000000, 0.000000, 24860.000000, 673.333313, 4.000000, 4.000000, 4.000000, 4.000000, 4.000000, 4.000000, 4.000000, 4.000000, 4.000000, 4.000000, 4.000000, 4.000000, 4.000000, 4.000000, 4.000000, 4.000000
83.000000, 0.000000, 4198.974121, 4186.153809, 4189.743652, 4198.461426, 4192.307617, 4187.692383, 4173.846191, 4168.205078, 4173.333008, 4183.076660, 4176.922852, 4167.179199, 4201.538574, 4191.281738, 3540.000000, 8037.000000, 8316.000000, 0.000000, 0.000000, 0.000000, 24860.000000, 681.538452, 4.000000, 4.000000, 4.000000, 4.000000, 4.000000, 4.000000, 4.000000, 4.000000, 4.000000, 4.000000, 4.000000, 4.000000, 4.000000, 4.000000, 4.000000, 4.000000
84.000000, 0.000000, 4198.461426, 4189.743652, 4203.589844, 4202.563965, 4202.051270, 4200.000000, 4183.076660, 4188.205078, 4184.615234, 4186.666504, 4191.281738, 4173.846191, 4202.051270, 4202.051270, 3544.000000, 8037.000000, 8316.000000, 0.000000, 0.000000, 0.000000, 24860.000000, 689.230774, 4.000000, 4.000000, 4.000000, 4.000000, 4.000000, 4.000000, 4.000000, 4.000000, 4.000000, 4.000000, 4.000000, 4.000000, 4.000000, 4.000000, 4.000000, 4.000000
85.000000, 0.000000, 4200.512695, 4191.794922, 4204.615234, 4205.127930, 4199.487305, 4195.384277, 4185.641113, 4203.076660, 4196.410156, 4202.051270, 4201.025391, 4184.102539, 4205.127930, 4205.641113, 3542.000000, 8054.000000, 8321.000000, 0.000000, 0.000000, 0.000000, 24860.000000, 696.923035, 4.000000, 4.000000, 4.000000, 4.000000, 4.000000, 4.000000, 4.000000, 4.000000, 4.000000, 4.000000, 4.000000, 4.000000, 4.000000, 4.000000, 4.000000, 4.000000
86.000000, 0.000000, 4197.436035, 4187.692383, 4201.538574, 4200.000000, 4189.230469, 4185.641113, 4182.051270, 4193.333008, 4192.820313, 4202.563965, 4199.487305, 4185.127930, 4201.538574, 4200.512695, 2697.000000, 8054.000000, 8321.000000, 0.000000, 0.000000, 0.000000, 24860.000000, 704.615356, 4.000000, 4.000000, 4.000000, 4.000000, 4.000000, 4.000000, 4.000000, 4.000000, 4.000000, 4.000000, 4.000000, 4.000000, 4.000000, 4.000000, 4.000000, 4.000000
87.000000, 0.000000, 4195.897461, 4189.743652, 4202.563965, 4198.461426, 4189.230469, 4187.692383, 4179.487305, 4180.000000, 4187.179199, 4190.256348, 4198.974121, 4182.051270, 4197.948730, 4206.153809, 3540.000000, 8066.000000, 8319.000000, 0.000000, 0.000000, 0.000000, 24860.000000, 712.307678, 4.000000, 4.000000, 4.000000, 4.000000, 4.000000, 4.000000, 4.000000, 4.000000, 4.000000, 4.000000, 4.000000, 4.000000, 4.000000, 4.000000, 4.000000, 4.000000
88.000000, 0.000000, 4200.000000, 4199.487305, 4210.256348, 4203.589844, 4197.436035, 4193.333008, 4180.512695, 4194.358887, 4199.487305, 4204.102539, 4208.717773, 4191.281738, 4197.948730, 4217.948730, 3544.000000, 8066.000000, 8319.000000, 0.000000, 0.000000, 0.000000, 24860.000000, 720.000000, 4.000000, 4.000000, 4.000000, 4.000000, 4.000000, 4.000000, 4.000000, 4.000000, 4.000000, 4.000000, 4.000000, 4.000000, 4.000000, 4.000000, 4.000000, 4.000000
89.000000, 0.000000, 4195.384277, 4199.487305, 4216.922852, 4207.179199, 4202.051270, 4200.000000, 4184.615234, 4213.333008, 4211.281738, 4222.051270, 4212.307617, 4200.512695, 4192.307617, 4218.974121, 3542.000000, 8092.000000, 8337.000000, 0.000000, 0.000000, 0.000000, 24860.000000, 728.205139, 4.000000, 4.000000, 4.000000, 4.000000, 4.000000, 4.000000, 4.000000, 4.000000, 4.000000, 4.000000, 4.000000, 4.000000, 4.000000, 4.000000, 4.000000, 4.000000
90.000000, 0.000000, 4190.256348, 4189.743652, 4211.794922, 4203.589844, 4202.051270, 4200.512695, 4189.743652, 4207.179199, 4205.127930, 4209.743652, 4203.076660, 4195.897461, 4182.563965, 4211.794922, 2697.000000, 8092.000000, 8337.000000, 0.000000, 0.000000, 0.000000, 24860.000000, 735.897400, 4.000000, 4.000000, 4.000000, 4.000000, 4.000000, 4.000000, 4.000000, 4.000000, 4.000000, 4.000000, 4.000000, 4.000000, 4.000000, 4.000000, 4.000000, 4.000000
91.000000, 0.000000, 4187.179199, 4189.743652, 4200.000000, 4201.538574, 4201.025391, 4199.487305, 4186.153809, 4195.897461, 4200.512695, 4197.436035, 4201.538574, 4185.641113, 4182.563965, 4208.717773, 3540.000000, 8110.000000, 8341.000000, 0.000000, 0.000000, 0.000000, 24860.000000, 743.589722, 4.000000, 4.000000, 4.000000, 4.000000, 4.000000, 4.000000, 4.000000, 4.000000, 4.000000, 4.000000, 4.000000, 4.000000, 4.000000, 4.000000, 4.000000, 4.000000
92.000000, 0.000000, 4188.717773, 4197.436035, 4198.974121, 4204.615234, 4203.076660, 4195.897461, 4183.076660, 4200.000000, 4203.589844, 4202.563965, 4205.127930, 4185.127930, 4181.025391, 4212.307617, 3544.000000, 8110.000000, 8341.000000, 0.000000, 0.000000, 0.000000, 24860.000000, 751.282043, 4.000000, 4.000000, 4.000000, 4.000000, 4.000000, 4.000000, 4.000000, 4.000000, 4.000000, 4.000000, 4.000000, 4.000000, 4.000000, 4.000000, 4.000000, 4.000000
93.000000, 0.000000, 4192.820313, 4203.589844, 4211.794922, 4207.179199, 4204.102539, 4186.666504, 4184.102539, 4201.025391, 4205.641113, 4207.692383, 4206.153809, 4192.307617, 4175.897461, 4217.436035, 3542.000000, 8125.000000, 8334.000000, 0.000000, 0.000000, 0.000000, 24860.000000, 758.974365, 4.000000, 4.000000, 4.000000, 4.000000, 4.000000, 4.000000, 4.000000, 4.000000, 4.000000, 4.000000, 4.000000, 4.000000, 4.000000, 4.000000, 4.000000, 4.000000
94.000000, 0.000000, 4187.179199, 4201.025391, 4216.922852, 4205.127930, 4200.000000, 4188.205078, 4182.051270, 4191.794922, 4203.076660, 4200.512695, 4204.102539, 4192.307617, 4170.769043, 4215.897461, 2697.000000, 8125.000000, 8334.000000, 0.000000, 0.000000, 0.000000, 24860.000000, 766.666626, 4.000000, 4.000000, 4.000000, 4.000000, 4.000000, 4.000000, 4.000000, 4.000000, 4.000000, 4.000000, 4.000000, 4.000000, 4.000000, 4.000000, 4.000000, 4.000000
95.000000, 0.000000, 4182.051270, 4192.820313, 4203.589844, 4200.512695, 4201.538574, 4202.051270, 4186.153809, 4192.820313, 4196.410156, 4185.641113, 4195.384277, 4183.589844, 4162.563965, 4203.589844, 3540.000000, 8131.000000, 8328.000000, 0.000000, 0.000000, 0.000000, 24860.000000, 774.871765, 4.000000, 4.000000, 4.000000, 4.000000, 4.000000, 4.000000, 4.000000, 4.000000, 4.000000, 4.000000, 4.000000, 4.000000, 4.000000, 4.000000, 4.000000, 4.000000
96.000000, 0.000000, 4182.563965, 4192.307617, 4197.948730, 4199.487305, 4205.641113, 4206.153809, 4196.922852, 4207.692383, 4203.076660, 4188.205078, 4193.846191, 4183.076660, 4160.000000, 4197.948730, 3544.000000, 8131.000000, 8328.000000, 0.000000, 0.000000, 0.000000, 24860.000000, 782.564087, 4.000000, 4.000000, 4.000000, 4.000000, 4.000000, 4.000000, 4.000000, 4.000000, 4.000000, 4.000000, 4.000000, 4.000000, 4.000000, 4.000000, 4.000000, 4.000000
97.000000, 0.000000, 4183.589844, 4198.461426, 4206.666504, 4200.512695, 4201.538574, 4203.076660, 4196.410156, 4213.333008, 4216.922852, 4200.000000, 4195.384277, 4187.692383, 4162.051270, 4199.487305, 3542.000000, 8133.000000, 8318.000000, 0.000000, 0.000000, 0.000000, 24860.000000, 790.256409, 4.000000, 4.000000, 4.000000, 4.000000, 4.000000, 4.000000, 4.000000, 4.000000, 4.000000, 4.000000, 4.000000, 4.000000, 4.000000, 4.000000, 4.000000, 4.000000
98.000000, 0.000000, 4185.641113, 4197.436035, 4206.153809, 4200.000000, 4198.974121, 4200.512695, 4187.179199, 4205.127930, 4217.948730, 4193.333008, 4191.281738, 4184.615234, 4161.538574, 4199.487305, 2697.000000, 8133.000000, 8318.000000, 0.000000, 0.000000, 0.000000, 24860.000000, 797.948669, 4.000000, 4.000000, 4.000000, 4.000000, 4.000000, 4.000000, 4.000000, 4.000000, 4.000000, 4.000000, 4.000000, 4.000000, 4.000000, 4.000000, 4.000000, 4.000000
99.000000, 0.000000, 4186.666504, 4201.025391, 4208.205078, 4203.589844, 4201.538574, 4192.307617, 4185.641113, 4199.487305, 4212.820313, 4186.666504, 4195.897461, 4188.205078, 4166.153809, 4204.615234, 3540.000000, 8144.000000, 8310.000000, 0.000000, 0.000000, 0.000000, 24860.000000, 805.640991, 4.000000, 4.000000, 4.000000, 4.000000, 4.000000, 4.000000, 4.000000, 4.000000, 4.000000, 4.000000, 4.000000, 4.000000, 4.000000, 4.000000, 4.000000, 4.000000
100.000000, 0.000000, 4189.743652, 4212.307617, 4216.922852, 4209.743652, 4204.615234, 4185.127930, 4186.666504, 4201.538574, 4209.230469, 4197.436035, 4205.127930, 4197.436035, 4174.358887, 4213.846191, 3544.000000, 8144.000000, 8310.000000, 0.000000, 0.000000, 0.000000, 24860.000000, 813.333313, 4.000000, 4.000000, 4.000000, 4.000000, 4.000000, 4.000000, 4.000000, 4.000000, 4.000000, 4.000000, 4.000000, 4.000000, 4.000000, 4.000000, 4.000000, 4.000000
101.000000, 0.000000, 4192.307617, 4212.820313, 4218.461426, 4212.820313, 4208.205078, 4184.102539, 4182.051270, 4200.000000, 4207.692383, 4203.589844, 4207.179199, 4199.487305, 4170.769043, 4216.922852, 3542.000000, 8150.000000, 8318.000000, 0.000000, 0.000000, 0.000000, 24860.000000, 821.538452, 4.000000, 4.000000, 4.000000, 4.000000, 4.000000, 4.000000, 4.000000, 4.000000, 4.000000, 4.000000, 4.000000, 4.000000, 4.000000, 4.000000, 4.000000, 4.000000
102.000000, 0.000000, 4193.846191, 4211.794922, 4224.615234, 4216.922852, 4208.717773, 4187.179199, 4182.563965, 4199.487305, 4215.384277, 4201.025391, 4211.281738, 4207.179199, 4165.641113, 4224.615234, 2697.000000, 8150.000000, 8318.000000, 0.000000, 0.000000, 0.000000, 24860.000000, 829.230774, 4.000000, 4.000000, 4.000000, 4.000000, 4.000000, 4.000000, 4.000000, 4.000000, 4.000000, 4.000000, 4.000000, 4.000000, 4.000000, 4.000000, 4.000000, 4.000000
103.000000, 0.000000, 4191.794922, 4212.307617, 4230.769043, 4213.846191, 4203.076660, 4187.692383, 4185.641113, 4200.000000, 4219.487305, 4200.000000, 4217.436035, 4217.436035, 4169.230469, 4231.794922, 3540.000000, 8172.000000, 8320.000000, 0.000000, 0.000000, 0.000000, 24860.000000, 836.923035, 4.000000, 4.000000, 4.000000, 4.000000, 4.000000, 4.000000, 4.000000, 4.000000, 4.000000, 4.000000, 4.000000, 4.000000, 4.000000, 4.000000, 4.000000, 4.000000
104.000000, 0.000000, 4186.666504, 4205.641113, 4222.563965, 4204.615234, 4199.487305, 4182.051270, 4181.025391, 4193.333008, 4207.692383, 4190.256348, 4215.384277, 4214.358887, 4165.641113, 4226.153809, 3544.000000, 8172.000000, 8320.000000, 0.000000, 0.000000, 0.000000, 24860.000000, 844.615356, 4.000000, 4.000000, 4.000000, 4.000000, 4.000000, 4.000000, 4.000000, 4.000000, 4.000000, 4.000000, 4.000000, 4.000000, 4.000000, 4.000000, 4.000000, 4.000000
105.000000, 0.000000, 4190.769043, 4201.025391, 4217.436035, 4207.692383, 4202.563965, 4182.563965, 4182.051270, 4187.179199, 4198.461426, 4182.563965, 4213.846191, 4208.205078, 4159.487305, 4220.512695, 3542.000000, 8183.000000, 8316.000000, 0.000000, 0.000000, 0.000000, 24860.000000, 852.307678, 4.000000, 4.000000, 4.000000, 4.000000, 4.000000, 4.000000, 4.000000, 4.000000, 4.000000, 4.000000, 4.000000, 4.000000, 4.000000, 4.000000, 4.000000, 4.000000
106.000000, 0.000000, 4192.307617, 4202.051270, 4220.000000, 4214.358887, 4206.153809, 4191.281738, 4188.717773, 4188.717773, 4203.589844, 4189.743652, 4211.794922, 4208.205078, 4156.410156, 4220.000000, 2697.000000, 8183.000000, 8316.000000, 1.000000, 2.000000, 0.000000, 24860.000000, 860.512817, 4.000000, 4.000000, 4.000000, 4.000000, 4.000000, 4.000000, 4.000000, 4.000000, 4.000000, 4.000000, 4.000000, 4.000000, 4.000000, 4.000000, 4.000000, 4.000000
107.000000, 0.000000, 4186.153809, 4201.538574, 4220.000000, 4206.153809, 4199.487305, 4188.717773, 4184.102539, 4187.692383, 4203.589844, 4186.666504, 4205.641113, 4205.641113, 4155.384277, 4217.948730, 3540.000000, 8198.000000, 8308.000000, 0.000000, 0.000000, 0.000000, 24860.000000, 868.205078, 4.000000, 4.000000, 4.000000, 4.000000, 4.000000, 4.000000, 4.000000, 4.000000, 4.000000, 4.000000, 4.000000, 4.000000, 4.000000, 4.000000, 4.000000, 4.000000
108.000000, 0.000000, 4186.666504, 4198.461426, 4215.384277, 4197.948730, 4190.256348, 4181.025391, 4179.487305, 4184.102539, 4189.743652, 4170.256348, 4201.538574, 4198.461426, 4155.384277, 4211.794922, 3544.000000, 8198.000000, 8308.000000, 0.000000, 0.000000, 0.000000, 24860.000000, 875.897400, 4.000000, 4.000000, 4.000000, 4.000000, 4.000000, 4.000000, 4.000000, 4.000000, 4.000000, 4.000000, 4.000000, 4.000000, 4.000000, 4.000000, 4.000000, 4.000000
109.000000, 0.000000, 4184.615234, 4197.436035, 4205.127930, 4198.461426, 4188.205078, 4183.589844, 4178.461426, 4181.025391, 4181.538574, 4171.281738, 4197.948730, 4190.256348, 4153.333008, 4204.102539, 3542.000000, 8213.000000, 8283.000000, 0.000000, 0.000000, 0.000000, 24860.000000, 883.589722, 4.000000, 4.000000, 4.000000, 4.000000, 4.000000, 4.000000, 4.000000, 4.000000, 4.000000, 4.000000, 4.000000, 4.000000, 4.000000, 4.000000, 4.000000, 4.000000
110.000000, 0.000000, 4184.615234, 4198.974121, 4203.589844, 4198.974121, 4191.794922, 4186.666504, 4177.436035, 4179.487305, 4189.743652, 4185.641113, 4196.410156, 4189.743652, 4151.794922, 4201.025391, 2697.000000, 8213.000000, 8283.000000, 0.000000, 0.000000, 0.000000, 24860.000000, 891.282043, 4.000000, 4.000000, 4.000000, 4.000000, 4.000000, 4.000000, 4.000000, 4.000000, 4.000000, 4.000000, 4.000000, 4.000000, 4.000000, 4.000000, 4.000000, 4.000000
111.000000, 0.000000, 4189.743652, 4204.615234, 4214.358887, 4203.589844, 4195.897461, 4181.025391, 4180.000000, 4183.076660, 4201.538574, 4186.153809, 4200.000000, 4196.922852, 4152.307617, 4205.641113, 3540.000000, 8219.000000, 8272.000000, 0.000000, 0.000000, 0.000000, 24860.000000, 899.487183, 4.000000, 4.000000, 4.000000, 4.000000, 4.000000, 4.000000, 4.000000, 4.000000, 4.000000, 4.000000, 4.000000, 4.000000, 4.000000, 4.000000, 4.000000, 4.000000
112.000000, 0.000000, 4188.205078, 4203.589844, 4211.794922, 4203.076660, 4200.512695, 4185.127930, 4186.153809, 4188.205078, 4201.025391, 4181.025391, 4203.589844, 4199.487305, 4152.820313, 4205.641113, 3544.000000, 8219.000000, 8272.000000, 0.000000, 0.000000, 0.000000, 24860.000000, 907.179443, 4.000000, 4.000000, 4.000000, 4.000000, 4.000000, 4.000000, 4.000000, 4.000000, 4.000000, 4.000000, 4.000000, 4.000000, 4.000000, 4.000000, 4.000000, 4.000000
113.000000, 0.000000, 4187.179199, 4201.538574, 4206.153809, 4196.922852, 4200.512695, 4196.410156, 4186.153809, 4188.205078, 4198.974121, 4181.538574, 4203.589844, 4197.436035, 4153.333008, 4201.538574, 3542.000000, 8224.000000, 8245.000000, 0.000000, 0.000000, 0.000000, 24860.000000, 914.871765, 4.000000, 4.000000, 4.000000, 4.000000, 4.000000, 4.000000, 4.000000, 4.000000, 4.000000, 4.000000, 4.000000, 4.000000, 4.000000, 4.000000, 4.000000, 4.000000
114.000000, 0.000000, 4188.205078, 4208.205078, 4211.281738, 4198.974121, 4197.948730, 4199.487305, 4184.615234, 4187.692383, 4206.666504, 4180.000000, 4202.563965, 4197.948730, 4156.922852, 4204.102539, 2697.000000, 8224.000000, 8245.000000, 0.000000, 0.000000, 0.000000, 24860.000000, 922.564087, 4.000000, 4.000000, 4.000000, 4.000000, 4.000000, 4.000000, 4.000000, 4.000000, 4.000000, 4.000000, 4.000000, 4.000000, 4.000000, 4.000000, 4.000000, 4.000000
115.000000, 0.000000, 4188.205078, 4207.692383, 4207.179199, 4201.538574, 4200.512695, 4198.974121, 4190.769043, 4186.666504, 4208.205078, 4181.538574, 4203.076660, 4193.846191, 4152.307617, 4205.127930, 3540.000000, 8226.000000, 8231.000000, 0.000000, 0.000000, 0.000000, 24860.000000, 930.256409, 4.000000, 4.000000, 4.000000, 4.000000, 4.000000, 4.000000, 4.000000, 4.000000, 4.000000, 4.000000, 4.000000, 4.000000, 4.000000, 4.000000, 4.000000, 4.000000
116.000000, 0.000000, 4189.230469, 4201.538574, 4198.974121, 4197.948730, 4201.025391, 4191.794922, 4188.205078, 4183.076660, 4197.948730, 4186.153809, 4198.974121, 4186.666504, 4143.589844, 4202.563965, 3544.000000, 8226.000000, 8231.000000, 0.000000, 0.000000, 0.000000, 24860.000000, 937.948669, 4.000000, 4.000000, 4.000000, 4.000000, 4.000000, 4.000000, 4.000000, 4.000000, 4.000000, 4.000000, 4.000000, 4.000000, 4.000000, 4.000000, 4.000000, 4.000000
117.000000, 0.000000, 4191.794922, 4202.051270, 4200.000000, 4196.922852, 4193.846191, 4184.615234, 4181.025391, 4181.025391, 4192.820313, 4176.410156, 4191.281738, 4183.589844, 4147.179199, 4199.487305, 3542.000000, 8230.000000, 8223.000000, 0.000000, 0.000000, 0.000000, 24860.000000, 946.153809, 4.000000, 4.000000, 4.000000, 4.000000, 4.000000, 4.000000, 4.000000, 4.000000, 4.000000, 4.000000, 4.000000, 4.000000, 4.000000, 4.000000, 4.000000, 4.000000
118.000000, 0.000000, 4196.410156, 4202.563965, 4204.615234, 4196.922852, 4191.281738, 4191.281738, 4186.666504, 4186.153809, 4198.461426, 4167.179199, 4191.794922, 4185.641113, 4154.871582, 4196.410156, 2697.000000, 8230.000000, 8223.000000, 0.000000, 0.000000, 0.000000, 24860.000000, 953.846130, 4.000000, 4.000000, 4.000000, 4.000000, 4.000000, 4.000000, 4.000000, 4.000000, 4.000000, 4.000000, 4.000000, 4.000000, 4.000000, 4.000000, 4.000000, 4.000000
119.000000, 0.000000, 4197.948730, 4206.153809, 4213.333008, 4199.487305, 4198.461426, 4203.076660, 4197.436035, 4198.974121, 4207.692383, 4179.487305, 4202.563965, 4194.358887, 4155.384277, 4204.102539, 3540.000000, 8234.000000, 8221.000000, 0.000000, 0.000000, 0.000000, 24860.000000, 961.538452, 4.000000, 4.000000, 4.000000, 4.000000, 4.000000, 4.000000, 4.000000, 4.000000, 4.000000, 4.000000, 4.000000, 4.000000, 4.000000, 4.000000, 4.000000, 4.000000
120.000000, 0.000000, 4199.487305, 4215.897461, 4222.051270, 4208.205078, 4205.641113, 4203.589844, 4204.102539, 4211.281738, 4217.948730, 4191.281738, 4212.307617, 4203.589844, 4157.948730, 4217.948730, 3544.000000, 8234.000000, 8221.000000, 0.000000, 0.000000, 0.000000, 24860.000000, 969.230774, 4.000000, 4.000000, 4.000000, 4.000000, 4.000000, 4.000000, 4.000000, 4.000000, 4.000000, 4.000000, 4.000000, 4.000000, 4.000000, 4.000000, 4.000000, 4.000000
121.000000, 0.000000, 4196.410156, 4217.436035, 4219.487305, 4209.743652, 4201.538574, 4200.000000, 4202.563965, 4215.384277, 4221.025391, 4193.333008, 4209.230469, 4202.563965, 4161.538574, 4220.000000, 3542.000000, 8236.000000, 8219.000000, 0.000000, 0.000000, 0.000000, 24860.000000, 976.923035, 4.000000, 4.000000, 4.000000, 4.000000, 4.000000, 4.000000, 4.000000, 4.000000, 4.000000, 4.000000, 4.000000, 4.000000, 4.000000, 4.000000, 4.000000, 4.000000
122.000000, 0.000000, 4190.769043, 4209.230469, 4213.846191, 4203.076660, 4195.897461, 4200.512695, 4198.974121, 4215.384277, 4218.974121, 4197.436035, 4203.076660, 4198.974121, 4160.000000, 4215.897461, 2697.000000, 8236.000000, 8219.000000, 0.000000, 0.000000, 0.000000, 24860.000000, 984.615356, 4.000000, 4.000000, 4.000000, 4.000000, 4.000000, 4.000000, 4.000000, 4.000000, 4.000000, 4.000000, 4.000000, 4.000000, 4.000000, 4.000000, 4.000000, 4.000000
123.000000, 0.000000, 4196.410156, 4208.205078, 4213.846191, 4201.025391, 4204.615234, 4201.025391, 4198.974121, 4213.333008, 4220.000000, 4195.897461, 4203.076660, 4204.102539, 4158.974121, 4215.897461, 3540.000000, 8248.000000, 8204.000000, 0.000000, 0.000000, 0.000000, 24860.000000, 992.820496, 4.000000, 4.000000, 4.000000, 4.000000, 4.000000, 4.000000, 4.000000, 4.000000, 4.000000, 4.000000, 4.000000, 4.000000, 4.000000, 4.000000, 4.000000, 4.000000
124.000000, 0.000000, 4198.461426, 4211.794922, 4207.179199, 4205.641113, 4217.948730, 4202.563965, 4196.922852, 4205.127930, 4213.333008, 4181.538574, 4200.000000, 4200.512695, 4157.436035, 4210.256348, 3544.000000, 8248.000000, 8204.000000, 0.000000, 0.000000, 0.000000, 24861.000000, 0.512820, 4.000000, 4.000000, 4.000000, 4.000000, 4.000000, 4.000000, 4.000000, 4.000000, 4.000000, 4.000000, 4.000000, 4.000000, 4.000000, 4.000000, 4.000000, 4.000000
125.000000, 0.000000, 4190.769043, 4195.384277, 4194.871582, 4195.897461, 4209.230469, 4197.436035, 4188.205078, 4198.461426, 4202.051270, 4166.666504, 4188.717773, 4185.641113, 4152.820313, 4200.000000, 3542.000000, 8250.000000, 8194.000000, 0.000000, 0.000000, 0.000000, 24861.000000, 8.205128, 4.000000, 4.000000, 4.000000, 4.000000, 4.000000, 4.000000, 4.000000, 4.000000, 4.000000, 4.000000, 4.000000, 4.000000, 4.000000, 4.000000, 4.000000, 4.000000
126.000000, 0.000000, 4191.281738, 4173.333008, 4190.769043, 4180.000000, 4190.256348, 4189.230469, 4184.102539, 4202.051270, 4201.538574, 4164.615234, 4182.563965, 4182.563965, 4152.307617, 4195.897461, 2697.000000, 8250.000000, 8194.000000, 0.000000, 0.000000, 0.000000, 24861.000000, 15.897435, 4.000000, 4.000000, 4.000000, 4.000000, 4.000000, 4.000000, 4.000000, 4.000000, 4.000000, 4.000000, 4.000000, 4.000000, 4.000000, 4.000000, 4.000000, 4.000000
127.000000, 0.000000, 4197.436035, 4189.230469, 4197.436035, 4187.692383, 4191.794922, 4185.127930, 4183.076660, 4204.615234, 4202.563965, 4171.794922, 4185.641113, 4187.179199, 4155.384277, 4199.487305, 56.000000, 8266.000000, 8197.000000, 0.000000, 0.000000, 0.000000, 24861.000000, 23.589743, 4.000000, 4.000000, 4.000000, 4.000000, 4.000000, 4.000000, 4.000000, 4.000000, 4.000000, 4.000000, 4.000000, 4.000000, 4.000000, 4.000000, 4.000000, 4.000000
0.000000, 0.000000, 4201.025391, 4222.051270, 4201.025391, 4205.127930, 4203.589844, 4187.179199, 4180.000000, 4202.051270, 4199.487305, 4176.922852, 4186.153809, 4184.615234, 4157.948730, 4204.102539, 3562.000000, 8266.000000, 8197.000000, 0.000000, 0.000000, 0.000000, 24861.000000, 31.794870, 4.000000, 4.000000, 4.000000, 4.000000, 4.000000, 4.000000, 4.000000, 4.000000, 4.000000, 4.000000, 4.000000, 4.000000, 4.000000, 4.000000, 4.000000, 4.000000
1.000000, 0.000000, 4196.410156, 4229.230469, 4197.436035, 4202.563965, 4207.179199, 4194.358887, 4183.076660, 4200.000000, 4200.512695, 4168.205078, 4181.538574, 4183.076660, 4155.384277, 4199.487305, 3574.000000, 8274.000000, 8198.000000, 0.000000, 0.000000, 0.000000, 24861.000000, 39.487179, 4.000000, 4.000000, 4.000000, 4.000000, 4.000000, 4.000000, 4.000000, 4.000000, 4.000000, 4.000000, 4.000000, 4.000000, 4.000000, 4.000000, 4.000000, 4.000000
2.000000, 0.000000, 4195.897461, 4230.256348, 4198.461426, 4197.436035, 4211.281738, 4201.025391, 4187.179199, 4192.820313, 4199.487305, 4157.948730, 4174.871582, 4182.563965, 4151.281738, 4187.692383, 1727.000000, 8274.000000, 8198.000000, 0.000000, 0.000000, 0.000000, 24861.000000, 47.179485, 4.000000, 4.000000, 4.000000, 4.000000, 4.000000, 4.000000, 4.000000, 4.000000, 4.000000, 4.000000, 4.000000, 4.000000, 4.000000, 4.000000, 4.000000, 4.000000
3.000000, 0.000000, 4200.000000, 4245.641113, 4202.563965, 4210.769043, 4217.948730, 4202.563965, 4184.102539, 4183.589844, 4190.256348, 4158.461426, 4171.794922, 4177.948730, 4153.846191, 4185.127930, 3576.000000, 8281.000000, 8198.000000, 0.000000, 0.000000, 0.000000, 24861.000000, 54.871792, 4.000000, 4.000000, 4.000000, 4.000000, 4.000000, 4.000000, 4.000000, 4.000000, 4.000000, 4.000000, 4.000000, 4.000000, 4.000000, 4.000000, 4.000000, 4.000000
4.000000, 0.000000, 4193.333008, 4254.871582, 4197.436035, 4216.410156, 4213.333008, 4196.410156, 4178.461426, 4181.538574, 4183.589844, 4157.948730, 4167.179199, 4173.846191, 4152.820313, 4184.102539, 3324.000000, 8281.000000, 8198.000000, 0.000000, 0.000000, 0.000000, 24861.000000, 62.564102, 4.000000, 4.000000, 4.000000, 4.000000, 4.000000, 4.000000, 4.000000, 4.000000, 4.000000, 4.000000, 4.000000, 4.000000, 4.000000, 4.000000, 4.000000, 4.000000
5.000000, 0.000000, 4190.256348, 4242.563965, 4183.589844, 4204.615234, 4204.102539, 4188.717773, 4178.974121, 4179.487305, 4182.051270, 4150.769043, 4155.897461, 4163.589844, 4145.641113, 4172.820313, 3602.000000, 8296.000000, 8204.000000, 0.000000, 0.000000, 0.000000, 24861.000000, 70.256409, 4.000000, 4.000000, 4.000000, 4.000000, 4.000000, 4.000000, 4.000000, 4.000000, 4.000000, 4.000000, 4.000000, 4.000000, 4.000000, 4.000000, 4.000000, 4.000000
6.000000, 0.000000, 4198.461426, 4230.769043, 4182.051270, 4201.538574, 4204.102539, 4190.769043, 4185.127930, 4180.000000, 4184.615234, 4149.230469, 4152.307617, 4156.410156, 4147.692383, 4165.127930, 3081.000000, 8296.000000, 8204.000000, 0.000000, 0.000000, 0.000000, 24861.000000, 78.461540, 4.000000, 4.000000, 4.000000, 4.000000, 4.000000, 4.000000, 4.000000, 4.000000, 4.000000, 4.000000, 4.000000, 4.000000, 4.000000, 4.000000, 4.000000, 4.000000
7.000000, 0.000000, 4203.076660, 4235.897461, 4195.384277, 4209.743652, 4205.641113, 4193.333008, 4189.743652, 4185.127930, 4188.205078, 4159.487305, 4158.461426, 4166.153809, 4155.384277, 4170.256348, 3207.000000, 8307.000000, 8209.000000, 0.000000, 0.000000, 0.000000, 24861.000000, 86.153847, 4.000000, 4.000000, 4.000000, 4.000000, 4.000000, 4.000000, 4.000000, 4.000000, 4.000000, 4.000000, 4.000000, 4.000000, 4.000000, 4.000000, 4.000000, 4.000000
8.000000, 0.000000, 4201.538574, 4242.051270, 4197.948730, 4214.358887, 4202.051270, 4186.666504, 4184.615234, 4183.076660, 4183.589844, 4157.948730, 4156.410156, 4167.692383, 4156.922852, 4172.307617, 3549.000000, 8307.000000, 8209.000000, 0.000000, 0.000000, 0.000000, 24861.000000, 93.846153, 4.000000, 4.000000, 4.000000, 4.000000, 4.000000, 4.000000, 4.000000, 4.000000, 4.000000, 4.000000, 4.000000, 4.000000, 4.000000, 4.000000, 4.000000, 4.000000
9.000000, 0.000000, 4197.436035, 4233.846191, 4192.820313, 4215.384277, 4200.512695, 4183.589844, 4183.589844, 4180.512695, 4179.487305, 4149.230469, 4154.871582, 4160.000000, 4155.384277, 4168.717773, 3564.000000, 8316.000000, 8197.000000, 0.000000, 0.000000, 0.000000, 24861.000000, 101.538460, 4.000000, 4.000000, 4.000000, 4.000000, 4.000000, 4.000000, 4.000000, 4.000000, 4.000000, 4.000000, 4.000000, 4.000000, 4.000000, 4.000000, 4.000000, 4.000000
10.000000, 0.000000, 4201.538574, 4228.717773, 4197.436035, 4213.333008, 4203.076660, 4190.769043, 4193.846191, 4187.179199, 4187.179199, 4158.461426, 4163.589844, 4167.692383, 4158.974121, 4171.794922, 2702.000000, 8316.000000, 8197.000000, 0.000000, 0.000000, 0.000000, 24861.000000, 109.230766, 4.000000, 4.000000, 4.000000, 4.000000, 4.000000, 4.000000, 4.000000, 4.000000, 4.000000, 4.000000, 4.000000, 4.000000, 4.000000, 4.000000, 4.000000, 4.000000
11.000000, 0.000000, 4205.127930, 4232.820313, 4201.538574, 4206.153809, 4195.384277, 4188.717773, 4200.000000, 4187.692383, 4189.230469, 4168.205078, 4167.179199, 4174.358887, 4164.615234, 4177.436035, 3543.000000, 8318.000000, 8196.000000, 0.000000, 0.000000, 0.000000, 24861.000000, 116.923073, 4.000000, 4.000000, 4.000000, 4.000000, 4.000000, 4.000000, 4.000000, 4.000000, 4.000000, 4.000000, 4.000000, 4.000000, 4.000000, 4.000000, 4.000000, 4.000000
12.000000, 0.000000, 4200.000000, 4231.281738, 4199.487305, 4205.127930, 4189.230469, 4186.153809, 4194.871582, 4189.230469, 4183.589844, 4166.153809, 4165.641113, 4172.820313, 4168.717773, 4180.512695, 3544.000000, 8318.000000, 8196.000000, 0.000000, 0.000000, 0.000000, 24861.000000, 125.128204, 4.000000, 4.000000, 4.000000, 4.000000, 4.000000, 4.000000, 4.000000, 4.000000, 4.000000, 4.000000, 4.000000, 4.000000, 4.000000, 4.000000, 4.000000, 4.000000
13.000000, 0.000000, 4202.563965, 4230.256348, 4199.487305, 4213.333008, 4204.615234, 4191.281738, 4189.743652, 4198.974121, 4189.230469, 4169.743652, 4169.230469, 4178.974121, 4170.769043, 4182.563965, 3547.000000, 8321.000000, 8184.000000, 0.000000, 0.000000, 0.000000, 24861.000000, 132.820511, 4.000000, 4.000000, 4.000000, 4.000000, 4.000000, 4.000000, 4.000000, 4.000000, 4.000000, 4.000000, 4.000000, 4.000000, 4.000000, 4.000000, 4.000000, 4.000000
14.000000, 0.000000, 4203.589844, 4232.820313, 4200.512695, 4212.820313, 4216.410156, 4189.230469, 4186.666504, 4196.922852, 4198.461426, 4177.948730, 4172.307617, 4180.000000, 4172.307617, 4183.589844, 2702.000000, 8321.000000, 8184.000000, 0.000000, 0.000000, 0.000000, 24861.000000, 140.512817, 4.000000, 4.000000, 4.000000, 4.000000, 4.000000, 4.000000, 4.000000, 4.000000, 4.000000, 4.000000, 4.000000, 4.000000, 4.000000, 4.000000, 4.000000, 4.000000
15.000000, 0.000000, 4200.512695, 4231.794922, 4196.922852, 4204.102539, 4207.179199, 4187.692383, 4184.102539, 4190.769043, 4201.025391, 4175.897461, 4171.281738, 4171.281738, 4172.307617, 4181.538574, 3543.000000, 8317.000000, 8176.000000, 0.000000, 0.000000, 0.000000, 24861.000000, 148.205124, 4.000000, 4.000000, 4.000000, 4.000000, 4.000000, 4.000000, 4.000000, 4.000000, 4.000000, 4.000000, 4.000000, 4.000000, 4.000000, 4.000000, 4.000000, 4.000000
16.000000, 0.000000, 4201.025391, 4231.281738, 4195.384277, 4207.692383, 4201.025391, 4198.461426, 4191.281738, 4198.974121, 4201.025391, 4172.820313, 4166.666504, 4169.743652, 4169.743652, 4177.436035, 0.000000, 8317.000000, 8176.000000, 0.000000, 0.000000, 0.000000, 24861.000000, 155.897430, 4.000000, 4.000000, 4.000000, 4.000000, 4.000000, 4.000000, 4.000000, 4.000000, 4.000000, 4.000000, 4.000000, 4.000000, 4.000000, 4.000000, 4.000000, 4.000000
17.000000, 0.000000, 4202.563965, 4231.281738, 4194.358887, 4215.384277, 4208.717773, 4206.153809, 4199.487305, 4197.948730, 4194.871582, 4168.717773, 4158.461426, 4166.153809, 4170.256348, 4172.820313, 0.000000, 8316.000000, 8174.000000, 0.000000, 0.000000, 0.000000, 24861.000000, 164.102554, 4.000000, 4.000000, 4.000000, 4.000000, 4.000000, 4.000000, 4.000000, 4.000000, 4.000000, 4.000000, 4.000000, 4.000000, 4.000000, 4.000000, 4.000000, 4.000000
18.000000, 0.000000, 4205.127930, 4228.717773, 4191.794922, 4214.358887, 4213.333008, 4200.000000, 4195.384277, 4185.127930, 4187.179199, 4161.538574, 4152.820313, 4159.487305, 4172.820313, 4174.871582, 0.000000, 8316.000000, 8174.000000, 0.000000, 0.000000, 0.000000, 24861.000000, 171.794861, 4.000000, 4.000000, 4.000000, 4.000000, 4.000000, 4.000000, 4.000000, 4.000000, 4.000000, 4.000000, 4.000000, 4.000000, 4.000000, 4.000000, 4.000000, 4.000000
19.000000, 0.000000, 4203.589844, 4231.281738, 4195.897461, 4215.384277, 4215.384277, 4198.461426, 4191.794922, 4185.127930, 4187.692383, 4165.127930, 4155.897461, 4163.076660, 4171.794922, 4183.589844, 0.000000, 8313.000000, 8174.000000, 0.000000, 0.000000, 0.000000, 24861.000000, 179.487183, 4.000000, 4.000000, 4.000000, 4.000000, 4.000000, 4.000000, 4.000000, 4.000000, 4.000000, 4.000000, 4.000000, 4.000000, 4.000000, 4.000000, 4.000000, 4.000000
20.000000, 0.000000, 4202.563965, 4231.794922, 4203.076660, 4217.948730, 4216.410156, 4202.563965, 4194.871582, 4186.153809, 4183.076660, 4173.333008, 4159.487305, 4171.794922, 4173.846191, 4188.205078, 0.000000, 8313.000000, 8174.000000, 0.000000, 0.000000, 0.000000, 24861.000000, 187.179489, 4.000000, 4.000000, 4.000000, 4.000000, 4.000000, 4.000000, 4.000000, 4.000000, 4.000000, 4.000000, 4.000000, 4.000000, 4.000000, 4.000000, 4.000000, 4.000000
21.000000, 0.000000, 4203.076660, 4222.051270, 4200.512695, 4208.717773, 4206.666504, 4196.922852, 4189.743652, 4173.846191, 4170.769043, 4162.051270, 4157.436035, 4171.794922, 4174.871582, 4187.692383, 0.000000, 8309.000000, 8184.000000, 0.000000, 0.000000, 0.000000, 24861.000000, 194.871796, 4.000000, 4.000000, 4.000000, 4.000000, 4.000000, 4.000000, 4.000000, 4.000000, 4.000000, 4.000000, 4.000000, 4.000000, 4.000000, 4.000000, 4.000000, 4.000000
22.000000, 0.000000, 4203.076660, 4211.794922, 4194.358887, 4197.436035, 4196.922852, 4187.179199, 4178.974121, 4163.589844, 4161.025391, 4140.000000, 4151.281738, 4168.205078, 4173.333008, 4187.179199, 0.000000, 8309.000000, 8184.000000, 0.000000, 0.000000, 0.000000, 24861.000000, 202.564102, 4.000000, 4.000000, 4.000000, 4.000000, 4.000000, 4.000000, 4.000000, 4.000000, 4.000000, 4.000000, 4.000000, 4.000000, 4.000000, 4.000000, 4.000000, 4.000000
23.000000, 0.000000, 4208.717773, 4213.846191, 4196.922852, 4199.487305, 4195.897461, 4182.563965, 4181.025391, 4163.076660, 4154.358887, 4138.461426, 4150.256348, 4173.846191, 4180.000000, 4187.692383, 0.000000, 8297.000000, 8216.000000, 0.000000, 0.000000, 0.000000, 24861.000000, 210.769226, 4.000000, 4.000000, 4.000000, 4.000000, 4.000000, 4.000000, 4.000000, 4.000000, 4.000000, 4.000000, 4.000000, 4.000000, 4.000000, 4.000000, 4.000000, 4.000000
24.000000, 0.000000, 4211.794922, 4223.076660, 4203.076660, 4208.717773, 4191.281738, 4184.102539, 4181.538574, 4168.717773, 4161.025391, 4154.358887, 4156.410156, 4182.051270, 4187.179199, 4191.794922, 0.000000, 8297.000000, 8216.000000, 0.000000, 0.000000, 0.000000, 24861.000000, 218.461533, 4.000000, 4.000000, 4.000000, 4.000000, 4.000000, 4.000000, 4.000000, 4.000000, 4.000000, 4.000000, 4.000000, 4.000000, 4.000000, 4.000000, 4.000000, 4.000000
25.000000, 0.000000, 4210.769043, 4227.692383, 4208.205078, 4215.897461, 4185.641113, 4184.102539, 4173.846191, 4171.281738, 4171.281738, 4160.000000, 4155.897461, 4183.076660, 4187.179199, 4198.974121, 0.000000, 8286.000000, 8226.000000, 0.000000, 0.000000, 0.000000, 24861.000000, 226.153839, 4.000000, 4.000000, 4.000000, 4.000000, 4.000000, 4.000000, 4.000000, 4.000000, 4.000000, 4.000000, 4.000000, 4.000000, 4.000000, 4.000000, 4.000000, 4.000000
26.000000, 0.000000, 4208.205078, 4228.717773, 4210.769043, 4217.948730, 4192.307617, 4180.512695, 4174.358887, 4165.127930, 4171.794922, 4151.794922, 4154.358887, 4182.563965, 4189.743652, 4202.563965, 0.000000, 8286.000000, 8226.000000, 0.000000, 0.000000, 0.000000, 24861.000000, 233.846146, 4.000000, 4.000000, 4.000000, 4.000000, 4.000000, 4.000000, 4.000000, 4.000000, 4.000000, 4.000000, 4.000000, 4.000000, 4.000000, 4.000000, 4.000000, 4.000000
27.000000, 0.000000, 4203.589844, 4229.230469, 4209.743652, 4213.333008, 4192.307617, 4182.051270, 4179.487305, 4171.794922, 4180.512695, 4152.820313, 4163.076660, 4183.589844, 4197.948730, 4200.512695, 0.000000, 8277.000000, 8232.000000, 0.000000, 0.000000, 0.000000, 24861.000000, 241.538452, 4.000000, 4.000000, 4.000000, 4.000000, 4.000000, 4.000000, 4.000000, 4.000000, 4.000000, 4.000000, 4.000000, 4.000000, 4.000000, 4.000000, 4.000000, 4.000000
28.000000, 0.000000, 4204.615234, 4229.230469, 4212.307617, 4210.769043, 4187.692383, 4186.153809, 4180.512695, 4189.743652, 4195.384277, 4162.051270, 4170.769043, 4187.179199, 4202.051270, 4201.025391, 0.000000, 8277.000000, 8232.000000, 0.000000, 0.000000, 0.000000, 24861.000000, 249.743576, 4.000000, 4.000000, 4.000000, 4.000000, 4.000000, 4.000000, 4.000000, 4.000000, 4.000000, 4.000000, 4.000000, 4.000000, 4.000000, 4.000000, 4.000000, 4.000000
29.000000, 0.000000, 4204.615234, 4231.794922, 4214.358887, 4213.333008, 4191.794922, 4184.615234, 4175.384277, 4184.615234, 4189.230469, 4168.717773, 4170.769043, 4190.769043, 4204.102539, 4208.205078, 0.000000, 8266.000000, 8248.000000, 0.000000, 0.000000, 0.000000, 24861.000000, 257.435883, 4.000000, 4.000000, 4.000000, 4.000000, 4.000000, 4.000000, 4.000000, 4.000000, 4.000000, 4.000000, 4.000000, 4.000000, 4.000000, 4.000000, 4.000000, 4.000000
