title:neutral27, recorded:21.05.18 11.39.00, timestamp started:2018-05-12T20:28:52.032863+02:00            , sampling:128, subject:Noé, labels:COUNTER INTERPOLATED AF3 F7 F3 FC5 T7 P7 O1 O2 P8 T8 FC6 F4 F8 AF4 RAW_CQ GYROX GYROY MARKER MARKER_HARDWARE SYNC TIME_STAMP_s TIME_STAMP_ms CQ_AF3 CQ_F7 CQ_F3 CQ_FC5 CQ_T7 CQ_P7 CQ_O1 CQ_O2 CQ_P8 CQ_T8 CQ_FC6 CQ_F4 CQ_F8 CQ_AF4 CQ_CMS CQ_DRL, chan:40, samples:2719, units:emotiv
78.000000, 0.000000, 4215.897461, 4233.846191, 4203.076660, 4207.179199, 4215.897461, 4240.512695, 4239.487305, 4240.000000, 4197.436035, 4231.281738, 4228.717773, 4266.666504, 4247.692383, 4229.230469, 3563.000000, 8263.000000, 8061.000000, 0.000000, 0.000000, 0.000000, 24913.000000, 373.846130, 4.000000, 4.000000, 4.000000, 4.000000, 4.000000, 4.000000, 4.000000, 4.000000, 4.000000, 4.000000, 4.000000, 4.000000, 4.000000, 4.000000, 4.000000, 4.000000
79.000000, 0.000000, 4211.281738, 4234.871582, 4198.461426, 4201.025391, 4215.897461, 4237.948730, 4236.922852, 4241.025391, 4196.922852, 4232.307617, 4229.230469, 4262.051270, 4243.076660, 4219.487305, 3567.000000, 8278.000000, 8060.000000, 0.000000, 0.000000, 0.000000, 24913.000000, 381.538452, 4.000000, 4.000000, 4.000000, 4.000000, 4.000000, 4.000000, 4.000000, 4.000000, 4.000000, 4.000000, 4.000000, 4.000000, 4.000000, 4.000000, 4.000000, 4.000000
80.000000, 0.000000, 4213.846191, 4240.512695, 4201.538574, 4205.641113, 4220.000000, 4233.846191, 4231.794922, 4246.666504, 4199.487305, 4233.333008, 4226.153809, 4263.076660, 4242.563965, 4220.000000, 3514.000000, 8278.000000, 8060.000000, 0.000000, 0.000000, 0.000000, 24913.000000, 389.743591, 4.000000, 4.000000, 4.000000, 4.000000, 4.000000, 4.000000, 4.000000, 4.000000, 4.000000, 4.000000, 4.000000, 4.000000, 4.000000, 4.000000, 4.000000, 4.000000
81.000000, 0.000000, 4214.358887, 4244.102539, 4205.641113, 4215.384277, 4220.000000, 4234.358887, 4226.666504, 4242.051270, 4198.461426, 4232.820313, 4227.692383, 4263.076660, 4247.179199, 4227.692383, 3453.000000, 8301.000000, 8068.000000, 0.000000, 0.000000, 0.000000, 24913.000000, 397.435883, 4.000000, 4.000000, 4.000000, 4.000000, 4.000000, 4.000000, 4.000000, 4.000000, 4.000000, 4.000000, 4.000000, 4.000000, 4.000000, 4.000000, 4.000000, 4.000000
82.000000, 0.000000, 4214.871582, 4248.717773, 4205.641113, 4215.897461, 4219.487305, 4236.410156, 4229.230469, 4234.358887, 4197.436035, 4230.256348, 4229.743652, 4266.153809, 4246.666504, 4230.256348, 3563.000000, 8301.000000, 8068.000000, 0.000000, 0.000000, 0.000000, 24913.000000, 405.128204, 4.000000, 4.000000, 4.000000, 4.000000, 4.000000, 4.000000, 4.000000, 4.000000, 4.000000, 4.000000, 4.000000, 4.000000, 4.000000, 4.000000, 4.000000, 4.000000
83.000000, 0.000000, 4216.410156, 4249.230469, 4208.205078, 4211.794922, 4219.487305, 4235.384277, 4229.230469, 4234.358887, 4198.974121, 4229.743652, 4230.769043, 4273.846191, 4245.641113, 4230.256348, 3567.000000, 8311.000000, 8076.000000, 0.000000, 0.000000, 0.000000, 24913.000000, 413.333313, 4.000000, 4.000000, 4.000000, 4.000000, 4.000000, 4.000000, 4.000000, 4.000000, 4.000000, 4.000000, 4.000000, 4.000000, 4.000000, 4.000000, 4.000000, 4.000000
84.000000, 0.000000, 4222.051270, 4244.615234, 4213.846191, 4214.358887, 4220.000000, 4236.922852, 4221.025391, 4235.897461, 4200.000000, 4237.948730, 4239.487305, 4280.000000, 4255.384277, 4240.000000, 3514.000000, 8311.000000, 8076.000000, 0.000000, 0.000000, 0.000000, 24913.000000, 421.025635, 4.000000, 4.000000, 4.000000, 4.000000, 4.000000, 4.000000, 4.000000, 4.000000, 4.000000, 4.000000, 4.000000, 4.000000, 4.000000, 4.000000, 4.000000, 4.000000
85.000000, 0.000000, 4229.230469, 4245.127930, 4218.974121, 4215.897461, 4221.025391, 4235.384277, 4215.384277, 4223.076660, 4197.948730, 4243.589844, 4246.153809, 4281.025391, 4265.127930, 4248.717773, 3453.000000, 8321.000000, 8086.000000, 0.000000, 0.000000, 0.000000, 24913.000000, 428.717926, 4.000000, 4.000000, 4.000000, 4.000000, 4.000000, 4.000000, 4.000000, 4.000000, 4.000000, 4.000000, 4.000000, 4.000000, 4.000000, 4.000000, 4.000000, 4.000000
86.000000, 0.000000, 4226.153809, 4245.641113, 4216.922852, 4213.846191, 4218.974121, 4230.256348, 4214.358887, 4212.820313, 4196.922852, 4237.436035, 4242.051270, 4280.000000, 4263.589844, 4250.256348, 3563.000000, 8321.000000, 8086.000000, 0.000000, 0.000000, 0.000000, 24913.000000, 436.923065, 4.000000, 4.000000, 4.000000, 4.000000, 4.000000, 4.000000, 4.000000, 4.000000, 4.000000, 4.000000, 4.000000, 4.000000, 4.000000, 4.000000, 4.000000, 4.000000
87.000000, 0.000000, 4216.922852, 4238.974121, 4209.230469, 4212.307617, 4216.410156, 4229.743652, 4214.871582, 4209.743652, 4197.436035, 4231.794922, 4233.846191, 4276.410156, 4258.974121, 4245.127930, 3567.000000, 8318.000000, 8092.000000, 0.000000, 0.000000, 0.000000, 24913.000000, 445.128204, 4.000000, 4.000000, 4.000000, 4.000000, 4.000000, 4.000000, 4.000000, 4.000000, 4.000000, 4.000000, 4.000000, 4.000000, 4.000000, 4.000000, 4.000000, 4.000000
88.000000, 0.000000, 4216.410156, 4232.820313, 4208.717773, 4212.307617, 4215.384277, 4229.743652, 4214.871582, 4204.102539, 4197.436035, 4233.846191, 4234.358887, 4272.820313, 4261.025391, 4238.461426, 3514.000000, 8318.000000, 8092.000000, 0.000000, 0.000000, 0.000000, 24913.000000, 452.820496, 4.000000, 4.000000, 4.000000, 4.000000, 4.000000, 4.000000, 4.000000, 4.000000, 4.000000, 4.000000, 4.000000, 4.000000, 4.000000, 4.000000, 4.000000, 4.000000
89.000000, 0.000000, 4221.025391, 4234.358887, 4213.846191, 4216.410156, 4215.897461, 4228.205078, 4215.384277, 4208.717773, 4199.487305, 4236.922852, 4242.051270, 4275.897461, 4264.615234, 4240.512695, 3453.000000, 8311.000000, 8096.000000, 0.000000, 0.000000, 0.000000, 24913.000000, 461.025635, 4.000000, 4.000000, 4.000000, 4.000000, 4.000000, 4.000000, 4.000000, 4.000000, 4.000000, 4.000000, 4.000000, 4.000000, 4.000000, 4.000000, 4.000000, 4.000000
90.000000, 0.000000, 4218.461426, 4231.794922, 4211.281738, 4214.871582, 4210.256348, 4223.589844, 4212.820313, 4212.820313, 4196.922852, 4236.410156, 4243.589844, 4277.436035, 4263.076660, 4240.000000, 3563.000000, 8311.000000, 8096.000000, 0.000000, 0.000000, 0.000000, 24913.000000, 468.717926, 4.000000, 4.000000, 4.000000, 4.000000, 4.000000, 4.000000, 4.000000, 4.000000, 4.000000, 4.000000, 4.000000, 4.000000, 4.000000, 4.000000, 4.000000, 4.000000
91.000000, 0.000000, 4206.666504, 4214.871582, 4198.974121, 4201.538574, 4192.307617, 4211.281738, 4201.538574, 4202.051270, 4190.256348, 4229.743652, 4231.794922, 4265.127930, 4251.794922, 4226.153809, 3567.000000, 8308.000000, 8072.000000, 0.000000, 0.000000, 0.000000, 24913.000000, 476.923065, 4.000000, 4.000000, 4.000000, 4.000000, 4.000000, 4.000000, 4.000000, 4.000000, 4.000000, 4.000000, 4.000000, 4.000000, 4.000000, 4.000000, 4.000000, 4.000000
92.000000, 0.000000, 4192.307617, 4200.512695, 4189.743652, 4187.692383, 4181.025391, 4202.563965, 4197.948730, 4197.948730, 4187.179199, 4217.436035, 4220.512695, 4249.230469, 4236.410156, 4212.307617, 3514.000000, 8308.000000, 8072.000000, 0.000000, 0.000000, 0.000000, 24913.000000, 484.615387, 4.000000, 4.000000, 4.000000, 4.000000, 4.000000, 4.000000, 4.000000, 4.000000, 4.000000, 4.000000, 4.000000, 4.000000, 4.000000, 4.000000, 4.000000, 4.000000
93.000000, 0.000000, 4191.794922, 4200.512695, 4186.153809, 4185.641113, 4184.615234, 4201.025391, 4203.076660, 4193.333008, 4187.179199, 4205.641113, 4213.846191, 4245.127930, 4230.256348, 4206.666504, 3453.000000, 8315.000000, 8059.000000, 0.000000, 0.000000, 0.000000, 24913.000000, 492.820496, 4.000000, 4.000000, 4.000000, 4.000000, 4.000000, 4.000000, 4.000000, 4.000000, 4.000000, 4.000000, 4.000000, 4.000000, 4.000000, 4.000000, 4.000000, 4.000000
94.000000, 0.000000, 4197.948730, 4198.461426, 4183.589844, 4186.666504, 4185.127930, 4192.307617, 4187.179199, 4170.769043, 4185.641113, 4201.025391, 4206.666504, 4244.615234, 4232.307617, 4202.563965, 3563.000000, 8315.000000, 8059.000000, 0.000000, 0.000000, 0.000000, 24913.000000, 500.512817, 4.000000, 4.000000, 4.000000, 4.000000, 4.000000, 4.000000, 4.000000, 4.000000, 4.000000, 4.000000, 4.000000, 4.000000, 4.000000, 4.000000, 4.000000, 4.000000
95.000000, 0.000000, 4194.358887, 4190.769043, 4185.641113, 4187.179199, 4182.051270, 4182.051270, 4169.743652, 4161.025391, 4186.666504, 4201.538574, 4204.102539, 4239.487305, 4235.384277, 4202.051270, 3567.000000, 8317.000000, 8046.000000, 0.000000, 0.000000, 0.000000, 24913.000000, 508.717926, 4.000000, 4.000000, 4.000000, 4.000000, 4.000000, 4.000000, 4.000000, 4.000000, 4.000000, 4.000000, 4.000000, 4.000000, 4.000000, 4.000000, 4.000000, 4.000000
96.000000, 0.000000, 4186.666504, 4186.153809, 4186.153809, 4185.641113, 4185.127930, 4185.641113, 4180.000000, 4174.358887, 4190.256348, 4197.436035, 4201.538574, 4232.820313, 4231.794922, 4202.563965, 3514.000000, 8317.000000, 8046.000000, 0.000000, 0.000000, 0.000000, 24913.000000, 516.923035, 4.000000, 4.000000, 4.000000, 4.000000, 4.000000, 4.000000, 4.000000, 4.000000, 4.000000, 4.000000, 4.000000, 4.000000, 4.000000, 4.000000, 4.000000, 4.000000
97.000000, 0.000000, 4185.127930, 4181.538574, 4177.948730, 4176.922852, 4185.127930, 4189.743652, 4188.205078, 4174.871582, 4189.230469, 4188.205078, 4189.230469, 4224.615234, 4220.000000, 4191.794922, 3453.000000, 8307.000000, 8051.000000, 0.000000, 0.000000, 0.000000, 24913.000000, 524.615356, 4.000000, 4.000000, 4.000000, 4.000000, 4.000000, 4.000000, 4.000000, 4.000000, 4.000000, 4.000000, 4.000000, 4.000000, 4.000000, 4.000000, 4.000000, 4.000000
98.000000, 0.000000, 4185.641113, 4171.794922, 4176.410156, 4169.743652, 4181.538574, 4185.641113, 4175.384277, 4165.641113, 4191.281738, 4183.589844, 4183.076660, 4220.512695, 4212.820313, 4185.127930, 3563.000000, 8307.000000, 8051.000000, 0.000000, 0.000000, 0.000000, 24913.000000, 532.820496, 4.000000, 4.000000, 4.000000, 4.000000, 4.000000, 4.000000, 4.000000, 4.000000, 4.000000, 4.000000, 4.000000, 4.000000, 4.000000, 4.000000, 4.000000, 4.000000
99.000000, 0.000000, 4183.076660, 4167.179199, 4179.487305, 4174.358887, 4180.000000, 4183.076660, 4167.692383, 4164.615234, 4197.948730, 4190.769043, 4191.281738, 4225.127930, 4219.487305, 4191.281738, 3567.000000, 8290.000000, 8083.000000, 0.000000, 0.000000, 0.000000, 24913.000000, 540.512817, 4.000000, 4.000000, 4.000000, 4.000000, 4.000000, 4.000000, 4.000000, 4.000000, 4.000000, 4.000000, 4.000000, 4.000000, 4.000000, 4.000000, 4.000000, 4.000000
100.000000, 0.000000, 4183.076660, 4173.333008, 4177.436035, 4181.538574, 4183.076660, 4187.179199, 4171.281738, 4171.281738, 4201.025391, 4202.051270, 4202.563965, 4233.333008, 4231.794922, 4202.563965, 3514.000000, 8290.000000, 8083.000000, 0.000000, 0.000000, 0.000000, 24913.000000, 548.717957, 4.000000, 4.000000, 4.000000, 4.000000, 4.000000, 4.000000, 4.000000, 4.000000, 4.000000, 4.000000, 4.000000, 4.000000, 4.000000, 4.000000, 4.000000, 4.000000
101.000000, 0.000000, 4185.127930, 4172.307617, 4178.461426, 4180.512695, 4185.641113, 4189.230469, 4172.307617, 4168.717773, 4197.436035, 4205.641113, 4206.666504, 4240.000000, 4235.384277, 4208.717773, 3453.000000, 8269.000000, 8151.000000, 0.000000, 0.000000, 0.000000, 24913.000000, 556.410217, 4.000000, 4.000000, 4.000000, 4.000000, 4.000000, 4.000000, 4.000000, 4.000000, 4.000000, 4.000000, 4.000000, 4.000000, 4.000000, 4.000000, 4.000000, 4.000000
102.000000, 0.000000, 4181.025391, 4158.974121, 4181.538574, 4172.820313, 4177.436035, 4178.461426, 4167.692383, 4153.333008, 4195.384277, 4199.487305, 4205.127930, 4243.589844, 4230.256348, 4207.692383, 3563.000000, 8269.000000, 8151.000000, 0.000000, 0.000000, 0.000000, 24913.000000, 564.615356, 4.000000, 4.000000, 4.000000, 4.000000, 4.000000, 4.000000, 4.000000, 4.000000, 4.000000, 4.000000, 4.000000, 4.000000, 4.000000, 4.000000, 4.000000, 4.000000
103.000000, 0.000000, 4175.897461, 4152.307617, 4178.974121, 4168.205078, 4167.179199, 4168.717773, 4164.615234, 4150.769043, 4200.000000, 4196.922852, 4201.538574, 4244.615234, 4228.205078, 4207.179199, 3567.000000, 8262.000000, 8160.000000, 0.000000, 0.000000, 0.000000, 24913.000000, 572.307678, 4.000000, 4.000000, 4.000000, 4.000000, 4.000000, 4.000000, 4.000000, 4.000000, 4.000000, 4.000000, 4.000000, 4.000000, 4.000000, 4.000000, 4.000000, 4.000000
104.000000, 0.000000, 4181.025391, 4150.256348, 4180.000000, 4169.743652, 4173.333008, 4178.974121, 4170.256348, 4165.127930, 4200.512695, 4199.487305, 4203.076660, 4245.641113, 4231.794922, 4210.256348, 3514.000000, 8262.000000, 8160.000000, 0.000000, 0.000000, 0.000000, 24913.000000, 580.512817, 4.000000, 4.000000, 4.000000, 4.000000, 4.000000, 4.000000, 4.000000, 4.000000, 4.000000, 4.000000, 4.000000, 4.000000, 4.000000, 4.000000, 4.000000, 4.000000
105.000000, 0.000000, 4187.692383, 4143.076660, 4187.692383, 4172.307617, 4185.641113, 4183.589844, 4174.358887, 4170.256348, 4197.436035, 4200.512695, 4206.153809, 4248.205078, 4233.846191, 4213.846191, 3453.000000, 8233.000000, 8163.000000, 0.000000, 0.000000, 0.000000, 24913.000000, 588.205139, 4.000000, 4.000000, 4.000000, 4.000000, 4.000000, 4.000000, 4.000000, 4.000000, 4.000000, 4.000000, 4.000000, 4.000000, 4.000000, 4.000000, 4.000000, 4.000000
106.000000, 0.000000, 4185.641113, 4138.461426, 4188.205078, 4171.794922, 4182.051270, 4172.820313, 4168.205078, 4166.153809, 4198.974121, 4198.974121, 4204.615234, 4249.230469, 4239.487305, 4214.871582, 3563.000000, 8233.000000, 8163.000000, 0.000000, 0.000000, 0.000000, 24913.000000, 596.410217, 4.000000, 4.000000, 4.000000, 4.000000, 4.000000, 4.000000, 4.000000, 4.000000, 4.000000, 4.000000, 4.000000, 4.000000, 4.000000, 4.000000, 4.000000, 4.000000
107.000000, 0.000000, 4185.641113, 4138.461426, 4180.000000, 4170.769043, 4173.846191, 4174.871582, 4165.641113, 4165.641113, 4201.538574, 4200.000000, 4202.051270, 4246.153809, 4246.153809, 4213.333008, 3567.000000, 8220.000000, 8155.000000, 0.000000, 0.000000, 0.000000, 24913.000000, 604.615356, 4.000000, 4.000000, 4.000000, 4.000000, 4.000000, 4.000000, 4.000000, 4.000000, 4.000000, 4.000000, 4.000000, 4.000000, 4.000000, 4.000000, 4.000000, 4.000000
108.000000, 0.000000, 4184.102539, 4140.512695, 4174.358887, 4166.153809, 4173.333008, 4184.102539, 4171.281738, 4166.153809, 4196.922852, 4198.461426, 4200.512695, 4240.000000, 4238.974121, 4207.692383, 3514.000000, 8220.000000, 8155.000000, 0.000000, 0.000000, 0.000000, 24913.000000, 612.307678, 4.000000, 4.000000, 4.000000, 4.000000, 4.000000, 4.000000, 4.000000, 4.000000, 4.000000, 4.000000, 4.000000, 4.000000, 4.000000, 4.000000, 4.000000, 4.000000
109.000000, 0.000000, 4173.333008, 4135.384277, 4169.743652, 4159.487305, 4172.307617, 4176.410156, 4171.794922, 4169.230469, 4193.846191, 4192.307617, 4195.384277, 4231.281738, 4230.256348, 4199.487305, 3453.000000, 8204.000000, 8124.000000, 0.000000, 0.000000, 0.000000, 24913.000000, 620.512817, 4.000000, 4.000000, 4.000000, 4.000000, 4.000000, 4.000000, 4.000000, 4.000000, 4.000000, 4.000000, 4.000000, 4.000000, 4.000000, 4.000000, 4.000000, 4.000000
110.000000, 0.000000, 4165.127930, 4126.153809, 4167.179199, 4156.410156, 4168.717773, 4167.179199, 4167.179199, 4165.641113, 4196.410156, 4183.076660, 4186.666504, 4222.563965, 4225.127930, 4190.769043, 3563.000000, 8204.000000, 8124.000000, 0.000000, 0.000000, 0.000000, 24913.000000, 628.205139, 4.000000, 4.000000, 4.000000, 4.000000, 4.000000, 4.000000, 4.000000, 4.000000, 4.000000, 4.000000, 4.000000, 4.000000, 4.000000, 4.000000, 4.000000, 4.000000
111.000000, 0.000000, 4167.179199, 4126.153809, 4166.666504, 4157.436035, 4167.692383, 4169.743652, 4164.615234, 4155.897461, 4198.461426, 4180.512695, 4182.563965, 4215.384277, 4218.974121, 4182.563965, 3567.000000, 8202.000000, 8111.000000, 0.000000, 0.000000, 0.000000, 24913.000000, 636.410217, 4.000000, 4.000000, 4.000000, 4.000000, 4.000000, 4.000000, 4.000000, 4.000000, 4.000000, 4.000000, 4.000000, 4.000000, 4.000000, 4.000000, 4.000000, 4.000000
112.000000, 0.000000, 4171.281738, 4130.769043, 4168.205078, 4161.025391, 4170.769043, 4171.794922, 4167.692383, 4170.769043, 4198.974121, 4191.794922, 4189.743652, 4214.358887, 4222.563965, 4184.102539, 3514.000000, 8202.000000, 8111.000000, 0.000000, 0.000000, 0.000000, 24913.000000, 644.102539, 4.000000, 4.000000, 4.000000, 4.000000, 4.000000, 4.000000, 4.000000, 4.000000, 4.000000, 4.000000, 4.000000, 4.000000, 4.000000, 4.000000, 4.000000, 4.000000
113.000000, 0.000000, 4168.717773, 4126.153809, 4171.281738, 4160.000000, 4170.769043, 4171.281738, 4171.281738, 4187.692383, 4198.974121, 4198.461426, 4196.922852, 4223.076660, 4231.794922, 4190.769043, 3453.000000, 8199.000000, 8105.000000, 0.000000, 0.000000, 0.000000, 24913.000000, 652.307678, 4.000000, 4.000000, 4.000000, 4.000000, 4.000000, 4.000000, 4.000000, 4.000000, 4.000000, 4.000000, 4.000000, 4.000000, 4.000000, 4.000000, 4.000000, 4.000000
114.000000, 0.000000, 4168.205078, 4122.051270, 4170.769043, 4155.897461, 4164.615234, 4170.256348, 4170.769043, 4176.410156, 4198.974121, 4189.743652, 4193.846191, 4228.205078, 4232.307617, 4190.769043, 3563.000000, 8199.000000, 8105.000000, 0.000000, 0.000000, 0.000000, 24913.000000, 660.000000, 4.000000, 4.000000, 4.000000, 4.000000, 4.000000, 4.000000, 4.000000, 4.000000, 4.000000, 4.000000, 4.000000, 4.000000, 4.000000, 4.000000, 4.000000, 4.000000
115.000000, 0.000000, 4166.666504, 4125.641113, 4166.153809, 4154.358887, 4161.538574, 4168.717773, 4170.256348, 4168.205078, 4198.974121, 4180.512695, 4187.692383, 4221.538574, 4226.153809, 4181.538574, 3567.000000, 8202.000000, 8079.000000, 0.000000, 0.000000, 0.000000, 24913.000000, 668.205139, 4.000000, 4.000000, 4.000000, 4.000000, 4.000000, 4.000000, 4.000000, 4.000000, 4.000000, 4.000000, 4.000000, 4.000000, 4.000000, 4.000000, 4.000000, 4.000000
116.000000, 0.000000, 4161.025391, 4125.127930, 4163.589844, 4154.871582, 4160.512695, 4167.692383, 4170.256348, 4174.871582, 4197.948730, 4182.051270, 4185.641113, 4214.358887, 4220.000000, 4171.794922, 3514.000000, 8202.000000, 8079.000000, 0.000000, 0.000000, 0.000000, 24913.000000, 676.410217, 4.000000, 4.000000, 4.000000, 4.000000, 4.000000, 4.000000, 4.000000, 4.000000, 4.000000, 4.000000, 4.000000, 4.000000, 4.000000, 4.000000, 4.000000, 4.000000
117.000000, 0.000000, 4160.000000, 4120.000000, 4165.127930, 4154.871582, 4155.384277, 4166.666504, 4167.179199, 4173.846191, 4197.436035, 4185.127930, 4183.589844, 4215.384277, 4213.333008, 4169.230469, 3453.000000, 8206.000000, 8068.000000, 0.000000, 0.000000, 0.000000, 24913.000000, 684.102539, 4.000000, 4.000000, 4.000000, 4.000000, 4.000000, 4.000000, 4.000000, 4.000000, 4.000000, 4.000000, 4.000000, 4.000000, 4.000000, 4.000000, 4.000000, 4.000000
118.000000, 0.000000, 4167.179199, 4126.153809, 4172.307617, 4156.922852, 4156.922852, 4167.692383, 4166.153809, 4168.205078, 4198.974121, 4183.589844, 4184.615234, 4221.538574, 4217.436035, 4175.897461, 3563.000000, 8206.000000, 8068.000000, 0.000000, 0.000000, 0.000000, 24913.000000, 692.307678, 4.000000, 4.000000, 4.000000, 4.000000, 4.000000, 4.000000, 4.000000, 4.000000, 4.000000, 4.000000, 4.000000, 4.000000, 4.000000, 4.000000, 4.000000, 4.000000
119.000000, 0.000000, 4170.769043, 4133.333008, 4175.384277, 4156.410156, 4164.615234, 4169.743652, 4168.717773, 4169.743652, 4196.922852, 4183.589844, 4190.769043, 4229.230469, 4228.205078, 4183.589844, 3567.000000, 8213.000000, 8085.000000, 0.000000, 0.000000, 0.000000, 24913.000000, 700.000000, 4.000000, 4.000000, 4.000000, 4.000000, 4.000000, 4.000000, 4.000000, 4.000000, 4.000000, 4.000000, 4.000000, 4.000000, 4.000000, 4.000000, 4.000000, 4.000000
120.000000, 0.000000, 4169.230469, 4134.871582, 4168.717773, 4152.307617, 4161.538574, 4169.230469, 4171.794922, 4174.871582, 4195.897461, 4185.641113, 4190.769043, 4232.820313, 4226.666504, 4185.127930, 3514.000000, 8213.000000, 8085.000000, 0.000000, 0.000000, 0.000000, 24913.000000, 708.205139, 4.000000, 4.000000, 4.000000, 4.000000, 4.000000, 4.000000, 4.000000, 4.000000, 4.000000, 4.000000, 4.000000, 4.000000, 4.000000, 4.000000, 4.000000, 4.000000
121.000000, 0.000000, 4168.205078, 4137.436035, 4165.641113, 4152.820313, 4155.384277, 4168.717773, 4171.281738, 4166.666504, 4197.436035, 4182.563965, 4188.717773, 4226.153809, 4220.512695, 4181.538574, 3453.000000, 8216.000000, 8102.000000, 0.000000, 0.000000, 0.000000, 24913.000000, 715.897400, 4.000000, 4.000000, 4.000000, 4.000000, 4.000000, 4.000000, 4.000000, 4.000000, 4.000000, 4.000000, 4.000000, 4.000000, 4.000000, 4.000000, 4.000000, 4.000000
122.000000, 0.000000, 4161.025391, 4136.922852, 4164.615234, 4150.256348, 4155.897461, 4168.717773, 4165.641113, 4149.230469, 4198.461426, 4174.358887, 4184.102539, 4216.410156, 4214.358887, 4174.871582, 3563.000000, 8216.000000, 8102.000000, 0.000000, 0.000000, 0.000000, 24913.000000, 724.102539, 4.000000, 4.000000, 4.000000, 4.000000, 4.000000, 4.000000, 4.000000, 4.000000, 4.000000, 4.000000, 4.000000, 4.000000, 4.000000, 4.000000, 4.000000, 4.000000
123.000000, 0.000000, 4154.358887, 4142.051270, 4165.127930, 4141.025391, 4155.384277, 4169.743652, 4168.205078, 4158.974121, 4199.487305, 4173.846191, 4176.410156, 4214.871582, 4208.205078, 4168.205078, 3567.000000, 8219.000000, 8127.000000, 0.000000, 0.000000, 0.000000, 24913.000000, 731.794861, 4.000000, 4.000000, 4.000000, 4.000000, 4.000000, 4.000000, 4.000000, 4.000000, 4.000000, 4.000000, 4.000000, 4.000000, 4.000000, 4.000000, 4.000000, 4.000000
124.000000, 0.000000, 4153.846191, 4154.871582, 4166.153809, 4137.948730, 4154.358887, 4172.820313, 4175.897461, 4177.436035, 4199.487305, 4175.384277, 4173.333008, 4217.436035, 4203.076660, 4167.692383, 3514.000000, 8219.000000, 8127.000000, 0.000000, 0.000000, 0.000000, 24913.000000, 739.487183, 4.000000, 4.000000, 4.000000, 4.000000, 4.000000, 4.000000, 4.000000, 4.000000, 4.000000, 4.000000, 4.000000, 4.000000, 4.000000, 4.000000, 4.000000, 4.000000
125.000000, 0.000000, 4152.307617, 4160.512695, 4162.563965, 4141.538574, 4152.820313, 4166.153809, 4165.127930, 4168.717773, 4197.948730, 4169.743652, 4173.846191, 4214.358887, 4201.025391, 4168.717773, 3453.000000, 8212.000000, 8159.000000, 0.000000, 0.000000, 0.000000, 24913.000000, 747.692261, 4.000000, 4.000000, 4.000000, 4.000000, 4.000000, 4.000000, 4.000000, 4.000000, 4.000000, 4.000000, 4.000000, 4.000000, 4.000000, 4.000000, 4.000000, 4.000000
126.000000, 0.000000, 4151.281738, 4159.487305, 4162.051270, 4139.487305, 4149.743652, 4155.384277, 4154.871582, 4166.153809, 4199.487305, 4170.256348, 4174.871582, 4208.205078, 4202.051270, 4165.641113, 3563.000000, 8212.000000, 8159.000000, 0.000000, 0.000000, 0.000000, 24913.000000, 755.897400, 4.000000, 4.000000, 4.000000, 4.000000, 4.000000, 4.000000, 4.000000, 4.000000, 4.000000, 4.000000, 4.000000, 4.000000, 4.000000, 4.000000, 4.000000, 4.000000
127.000000, 0.000000, 4151.281738, 4164.615234, 4162.051270, 4140.000000, 4147.692383, 4156.922852, 4162.051270, 4175.897461, 4197.436035, 4175.897461, 4168.717773, 4201.538574, 4197.436035, 4157.948730, 57.000000, 8214.000000, 8170.000000, 0.000000, 0.000000, 0.000000, 24913.000000, 763.589722, 4.000000, 4.000000, 4.000000, 4.000000, 4.000000, 4.000000, 4.000000, 4.000000, 4.000000, 4.000000, 4.000000, 4.000000, 4.000000, 4.000000, 4.000000, 4.000000
0.000000, 0.000000, 4150.256348, 4172.307617, 4159.487305, 4148.717773, 4149.743652, 4156.410156, 4158.461426, 4154.871582, 4188.205078, 4170.256348, 4157.948730, 4191.794922, 4186.666504, 4147.179199, 3019.000000, 8214.000000, 8170.000000, 0.000000, 0.000000, 0.000000, 24913.000000, 771.794861, 4.000000, 4.000000, 4.000000, 4.000000, 4.000000, 4.000000, 4.000000, 4.000000, 4.000000, 4.000000, 4.000000, 4.000000, 4.000000, 4.000000, 4.000000, 4.000000
1.000000, 0.000000, 4150.769043, 4177.436035, 4161.538574, 4153.846191, 4157.436035, 4151.281738, 4146.153809, 4136.410156, 4186.153809, 4164.615234, 4154.358887, 4185.127930, 4183.076660, 4144.102539, 3509.000000, 8223.000000, 8218.000000, 0.000000, 0.000000, 0.000000, 24913.000000, 779.487183, 4.000000, 4.000000, 4.000000, 4.000000, 4.000000, 4.000000, 4.000000, 4.000000, 4.000000, 4.000000, 4.000000, 4.000000, 4.000000, 4.000000, 4.000000, 4.000000
2.000000, 0.000000, 4153.333008, 4183.076660, 4163.076660, 4153.846191, 4161.025391, 4158.461426, 4150.769043, 4145.127930, 4189.230469, 4167.179199, 4157.948730, 4187.692383, 4192.307617, 4150.256348, 3515.000000, 8223.000000, 8218.000000, 0.000000, 0.000000, 0.000000, 24913.000000, 787.692261, 4.000000, 4.000000, 4.000000, 4.000000, 4.000000, 4.000000, 4.000000, 4.000000, 4.000000, 4.000000, 4.000000, 4.000000, 4.000000, 4.000000, 4.000000, 4.000000
3.000000, 0.000000, 4153.333008, 4190.769043, 4161.025391, 4161.025391, 4158.974121, 4163.076660, 4153.846191, 4143.076660, 4188.205078, 4168.717773, 4155.384277, 4188.717773, 4200.512695, 4152.820313, 2227.000000, 8240.000000, 8232.000000, 0.000000, 0.000000, 0.000000, 24913.000000, 795.384583, 4.000000, 4.000000, 4.000000, 4.000000, 4.000000, 4.000000, 4.000000, 4.000000, 4.000000, 4.000000, 4.000000, 4.000000, 4.000000, 4.000000, 4.000000, 4.000000
4.000000, 0.000000, 4153.846191, 4197.948730, 4159.487305, 4168.205078, 4164.615234, 4157.436035, 4145.641113, 4140.000000, 4186.666504, 4168.717773, 4156.410156, 4185.641113, 4198.974121, 4149.743652, 3521.000000, 8240.000000, 8232.000000, 0.000000, 0.000000, 0.000000, 24913.000000, 803.589722, 4.000000, 4.000000, 4.000000, 4.000000, 4.000000, 4.000000, 4.000000, 4.000000, 4.000000, 4.000000, 4.000000, 4.000000, 4.000000, 4.000000, 4.000000, 4.000000
5.000000, 0.000000, 4155.897461, 4204.615234, 4162.051270, 4169.230469, 4173.846191, 4163.076660, 4149.743652, 4150.769043, 4189.743652, 4172.820313, 4167.692383, 4192.307617, 4201.025391, 4153.333008, 3557.000000, 8251.000000, 8229.000000, 0.000000, 0.000000, 0.000000, 24913.000000, 811.794861, 4.000000, 4.000000, 4.000000, 4.000000, 4.000000, 4.000000, 4.000000, 4.000000, 4.000000, 4.000000, 4.000000, 4.000000, 4.000000, 4.000000, 4.000000, 4.000000
6.000000, 0.000000, 4158.974121, 4207.692383, 4166.153809, 4171.281738, 4174.358887, 4172.307617, 4165.127930, 4155.384277, 4195.897461, 4176.410156, 4172.820313, 4204.102539, 4211.794922, 4165.641113, 3402.000000, 8251.000000, 8229.000000, 0.000000, 0.000000, 0.000000, 24913.000000, 819.487183, 4.000000, 4.000000, 4.000000, 4.000000, 4.000000, 4.000000, 4.000000, 4.000000, 4.000000, 4.000000, 4.000000, 4.000000, 4.000000, 4.000000, 4.000000, 4.000000
7.000000, 0.000000, 4158.974121, 4205.127930, 4166.666504, 4165.641113, 4171.794922, 4172.820313, 4167.179199, 4155.384277, 4199.487305, 4171.794922, 4170.769043, 4205.641113, 4214.358887, 4168.205078, 3474.000000, 8259.000000, 8203.000000, 0.000000, 0.000000, 0.000000, 24913.000000, 827.692261, 4.000000, 4.000000, 4.000000, 4.000000, 4.000000, 4.000000, 4.000000, 4.000000, 4.000000, 4.000000, 4.000000, 4.000000, 4.000000, 4.000000, 4.000000, 4.000000
8.000000, 0.000000, 4158.461426, 4203.076660, 4163.589844, 4157.436035, 4168.717773, 4178.461426, 4167.179199, 4165.641113, 4200.000000, 4168.717773, 4168.717773, 4203.589844, 4206.666504, 4160.512695, 911.000000, 8259.000000, 8203.000000, 0.000000, 0.000000, 0.000000, 24913.000000, 835.384583, 4.000000, 4.000000, 4.000000, 4.000000, 4.000000, 4.000000, 4.000000, 4.000000, 4.000000, 4.000000, 4.000000, 4.000000, 4.000000, 4.000000, 4.000000, 4.000000
9.000000, 0.000000, 4163.076660, 4208.205078, 4165.641113, 4161.538574, 4167.692383, 4189.230469, 4182.051270, 4182.563965, 4200.512695, 4179.487305, 4172.307617, 4209.743652, 4210.256348, 4162.563965, 2985.000000, 8256.000000, 8183.000000, 0.000000, 0.000000, 0.000000, 24913.000000, 843.589722, 4.000000, 4.000000, 4.000000, 4.000000, 4.000000, 4.000000, 4.000000, 4.000000, 4.000000, 4.000000, 4.000000, 4.000000, 4.000000, 4.000000, 4.000000, 4.000000
10.000000, 0.000000, 4174.871582, 4218.461426, 4177.436035, 4170.769043, 4172.820313, 4188.717773, 4190.769043, 4190.256348, 4202.563965, 4191.794922, 4185.127930, 4222.051270, 4232.820313, 4180.512695, 3562.000000, 8256.000000, 8183.000000, 0.000000, 0.000000, 0.000000, 24913.000000, 851.282043, 4.000000, 4.000000, 4.000000, 4.000000, 4.000000, 4.000000, 4.000000, 4.000000, 4.000000, 4.000000, 4.000000, 4.000000, 4.000000, 4.000000, 4.000000, 4.000000
11.000000, 0.000000, 4180.512695, 4222.051270, 4178.461426, 4172.307617, 4170.256348, 4178.974121, 4173.333008, 4180.512695, 4200.000000, 4191.794922, 4192.820313, 4223.076660, 4245.127930, 4186.666504, 3570.000000, 8207.000000, 8128.000000, 0.000000, 0.000000, 0.000000, 24913.000000, 859.487183, 4.000000, 4.000000, 4.000000, 4.000000, 4.000000, 4.000000, 4.000000, 4.000000, 4.000000, 4.000000, 4.000000, 4.000000, 4.000000, 4.000000, 4.000000, 4.000000
12.000000, 0.000000, 4174.358887, 4219.487305, 4166.666504, 4169.230469, 4159.487305, 4165.127930, 4153.333008, 4168.717773, 4195.897461, 4182.051270, 4182.563965, 4209.230469, 4235.897461, 4174.871582, 3514.000000, 8207.000000, 8128.000000, 0.000000, 0.000000, 0.000000, 24913.000000, 867.179443, 4.000000, 4.000000, 4.000000, 4.000000, 4.000000, 4.000000, 4.000000, 4.000000, 4.000000, 4.000000, 4.000000, 4.000000, 4.000000, 4.000000, 4.000000, 4.000000
13.000000, 0.000000, 4169.230469, 4216.922852, 4164.102539, 4160.000000, 4154.871582, 4155.384277, 4153.846191, 4163.076660, 4193.846191, 4166.153809, 4166.666504, 4197.436035, 4219.487305, 4162.051270, 3453.000000, 8180.000000, 8099.000000, 0.000000, 0.000000, 0.000000, 24913.000000, 875.384583, 4.000000, 4.000000, 4.000000, 4.000000, 4.000000, 4.000000, 4.000000, 4.000000, 4.000000, 4.000000, 4.000000, 4.000000, 4.000000, 4.000000, 4.000000, 4.000000
14.000000, 0.000000, 4170.769043, 4215.897461, 4166.666504, 4155.384277, 4152.820313, 4150.769043, 4151.794922, 4147.179199, 4190.769043, 4154.358887, 4160.000000, 4194.871582, 4214.871582, 4155.384277, 3562.000000, 8180.000000, 8099.000000, 0.000000, 0.000000, 0.000000, 24913.000000, 883.076904, 4.000000, 4.000000, 4.000000, 4.000000, 4.000000, 4.000000, 4.000000, 4.000000, 4.000000, 4.000000, 4.000000, 4.000000, 4.000000, 4.000000, 4.000000, 4.000000
15.000000, 0.000000, 4172.307617, 4220.512695, 4168.205078, 4164.102539, 4153.333008, 4151.281738, 4137.948730, 4131.794922, 4187.179199, 4155.897461, 4159.487305, 4198.461426, 4225.641113, 4156.410156, 3570.000000, 8149.000000, 8089.000000, 0.000000, 0.000000, 0.000000, 24913.000000, 891.282043, 4.000000, 4.000000, 4.000000, 4.000000, 4.000000, 4.000000, 4.000000, 4.000000, 4.000000, 4.000000, 4.000000, 4.000000, 4.000000, 4.000000, 4.000000, 4.000000
16.000000, 0.000000, 4170.256348, 4220.512695, 4168.717773, 4163.589844, 4158.461426, 4152.820313, 4136.922852, 4134.358887, 4186.666504, 4156.410156, 4157.436035, 4196.922852, 4230.769043, 4155.384277, 0.000000, 8149.000000, 8089.000000, 0.000000, 0.000000, 0.000000, 24913.000000, 899.487183, 4.000000, 4.000000, 4.000000, 4.000000, 4.000000, 4.000000, 4.000000, 4.000000, 4.000000, 4.000000, 4.000000, 4.000000, 4.000000, 4.000000, 4.000000, 4.000000
17.000000, 0.000000, 4167.179199, 4214.358887, 4163.589844, 4151.794922, 4154.358887, 4151.281738, 4147.179199, 4141.025391, 4189.230469, 4154.871582, 4157.948730, 4188.205078, 4230.256348, 4155.897461, 0.000000, 8135.000000, 8095.000000, 0.000000, 0.000000, 0.000000, 24913.000000, 907.179443, 4.000000, 4.000000, 4.000000, 4.000000, 4.000000, 4.000000, 4.000000, 4.000000, 4.000000, 4.000000, 4.000000, 4.000000, 4.000000, 4.000000, 4.000000, 4.000000
18.000000, 0.000000, 4170.256348, 4218.461426, 4163.589844, 4156.410156, 4148.205078, 4154.871582, 4151.281738, 4152.307617, 4195.897461, 4165.127930, 4167.692383, 4192.307617, 4240.000000, 4165.641113, 0.000000, 8135.000000, 8095.000000, 0.000000, 0.000000, 0.000000, 24913.000000, 915.384583, 4.000000, 4.000000, 4.000000, 4.000000, 4.000000, 4.000000, 4.000000, 4.000000, 4.000000, 4.000000, 4.000000, 4.000000, 4.000000, 4.000000, 4.000000, 4.000000
19.000000, 0.000000, 4175.384277, 4225.641113, 4170.769043, 4170.769043, 4162.051270, 4169.230469, 4160.000000, 4172.307617, 4201.538574, 4176.410156, 4176.922852, 4210.769043, 4255.384277, 4177.436035, 0.000000, 8113.000000, 8093.000000, 0.000000, 0.000000, 0.000000, 24913.000000, 923.076904, 4.000000, 4.000000, 4.000000, 4.000000, 4.000000, 4.000000, 4.000000, 4.000000, 4.000000, 4.000000, 4.000000, 4.000000, 4.000000, 4.000000, 4.000000, 4.000000
20.000000, 0.000000, 4173.333008, 4220.512695, 4173.333008, 4173.333008, 4171.794922, 4173.333008, 4173.333008, 4173.846191, 4200.512695, 4175.384277, 4176.922852, 4216.410156, 4256.410156, 4176.410156, 0.000000, 8113.000000, 8093.000000, 0.000000, 0.000000, 0.000000, 24913.000000, 931.282043, 4.000000, 4.000000, 4.000000, 4.000000, 4.000000, 4.000000, 4.000000, 4.000000, 4.000000, 4.000000, 4.000000, 4.000000, 4.000000, 4.000000, 4.000000, 4.000000
21.000000, 0.000000, 4168.205078, 4218.461426, 4169.230469, 4167.692383, 4161.538574, 4160.000000, 4166.666504, 4155.384277, 4196.922852, 4171.281738, 4173.333008, 4205.127930, 4251.794922, 4171.794922, 0.000000, 8097.000000, 8061.000000, 0.000000, 0.000000, 0.000000, 24913.000000, 938.974365, 4.000000, 4.000000, 4.000000, 4.000000, 4.000000, 4.000000, 4.000000, 4.000000, 4.000000, 4.000000, 4.000000, 4.000000, 4.000000, 4.000000, 4.000000, 4.000000
22.000000, 0.000000, 4164.615234, 4217.436035, 4163.076660, 4157.948730, 4155.384277, 4158.974121, 4158.461426, 4157.436035, 4198.974121, 4172.307617, 4172.307617, 4200.512695, 4252.820313, 4171.794922, 0.000000, 8097.000000, 8061.000000, 0.000000, 0.000000, 0.000000, 24913.000000, 947.179443, 4.000000, 4.000000, 4.000000, 4.000000, 4.000000, 4.000000, 4.000000, 4.000000, 4.000000, 4.000000, 4.000000, 4.000000, 4.000000, 4.000000, 4.000000, 4.000000
23.000000, 0.000000, 4155.897461, 4205.641113, 4163.589844, 4152.307617, 4156.922852, 4167.179199, 4164.102539, 4173.333008, 4200.000000, 4172.307617, 4171.281738, 4204.615234, 4250.769043, 4164.102539, 0.000000, 8089.000000, 8062.000000, 0.000000, 0.000000, 0.000000, 24913.000000, 954.871765, 4.000000, 4.000000, 4.000000, 4.000000, 4.000000, 4.000000, 4.000000, 4.000000, 4.000000, 4.000000, 4.000000, 4.000000, 4.000000, 4.000000, 4.000000, 4.000000
24.000000, 0.000000, 4157.436035, 4207.692383, 4168.205078, 4153.846191, 4154.871582, 4162.051270, 4165.641113, 4166.153809, 4197.948730, 4172.820313, 4170.256348, 4207.692383, 4247.692383, 4160.512695, 0.000000, 8089.000000, 8062.000000, 0.000000, 0.000000, 0.000000, 24913.000000, 963.076904, 4.000000, 4.000000, 4.000000, 4.000000, 4.000000, 4.000000, 4.000000, 4.000000, 4.000000, 4.000000, 4.000000, 4.000000, 4.000000, 4.000000, 4.000000, 4.000000
25.000000, 0.000000, 4171.794922, 4226.153809, 4173.333008, 4157.948730, 4154.358887, 4156.410156, 4163.589844, 4160.512695, 4198.461426, 4172.820313, 4172.307617, 4214.358887, 4251.281738, 4169.743652, 0.000000, 8095.000000, 8114.000000, 0.000000, 0.000000, 0.000000, 24913.000000, 971.282043, 4.000000, 4.000000, 4.000000, 4.000000, 4.000000, 4.000000, 4.000000, 4.000000, 4.000000, 4.000000, 4.000000, 4.000000, 4.000000, 4.000000, 4.000000, 4.000000
26.000000, 0.000000, 4173.846191, 4231.281738, 4176.410156, 4161.538574, 4153.846191, 4157.948730, 4171.794922, 4171.794922, 4202.051270, 4166.153809, 4171.794922, 4216.410156, 4250.256348, 4174.358887, 0.000000, 8095.000000, 8114.000000, 0.000000, 0.000000, 0.000000, 24913.000000, 978.974365, 4.000000, 4.000000, 4.000000, 4.000000, 4.000000, 4.000000, 4.000000, 4.000000, 4.000000, 4.000000, 4.000000, 4.000000, 4.000000, 4.000000, 4.000000, 4.000000
27.000000, 0.000000, 4165.127930, 4221.538574, 4174.358887, 4166.153809, 4150.256348, 4154.358887, 4171.794922, 4165.127930, 4198.461426, 4162.563965, 4160.512695, 4206.153809, 4231.281738, 4163.076660, 0.000000, 8113.000000, 8132.000000, 0.000000, 0.000000, 0.000000, 24913.000000, 987.179443, 4.000000, 4.000000, 4.000000, 4.000000, 4.000000, 4.000000, 4.000000, 4.000000, 4.000000, 4.000000, 4.000000, 4.000000, 4.000000, 4.000000, 4.000000, 4.000000
28.000000, 0.000000, 4165.641113, 4226.153809, 4172.820313, 4167.179199, 4153.333008, 4151.281738, 4159.487305, 4147.179199, 4192.820313, 4163.076660, 4152.307617, 4202.051270, 4213.333008, 4153.333008, 0.000000, 8113.000000, 8132.000000, 0.000000, 0.000000, 0.000000, 24913.000000, 994.871765, 4.000000, 4.000000, 4.000000, 4.000000, 4.000000, 4.000000, 4.000000, 4.000000, 4.000000, 4.000000, 4.000000, 4.000000, 4.000000, 4.000000, 4.000000, 4.000000
29.000000, 0.000000, 4170.256348, 4233.333008, 4176.922852, 4166.666504, 4157.436035, 4155.897461, 4160.512695, 4153.333008, 4198.974121, 4163.076660, 4154.871582, 4209.743652, 4212.307617, 4159.487305, 0.000000, 8135.000000, 8142.000000, 0.000000, 0.000000, 0.000000, 24914.000000, 3.076923, 4.000000, 4.000000, 4.000000, 4.000000, 4.000000, 4.000000, 4.000000, 4.000000, 4.000000, 4.000000, 4.000000, 4.000000, 4.000000, 4.000000, 4.000000, 4.000000
30.000000, 0.000000, 4174.358887, 4232.307617, 4181.025391, 4170.256348, 4158.974121, 4155.897461, 4165.127930, 4161.025391, 4198.974121, 4163.076660, 4156.410156, 4210.256348, 4212.820313, 4168.205078, 0.000000, 8135.000000, 8142.000000, 0.000000, 0.000000, 0.000000, 24914.000000, 10.769231, 4.000000, 4.000000, 4.000000, 4.000000, 4.000000, 4.000000, 4.000000, 4.000000, 4.000000, 4.000000, 4.000000, 4.000000, 4.000000, 4.000000, 4.000000, 4.000000
31.000000, 0.000000, 4182.563965, 4241.538574, 4179.487305, 4172.820313, 4164.615234, 4157.948730, 4162.051270, 4152.307617, 4188.205078, 4161.538574, 4151.281738, 4207.179199, 4208.717773, 4168.717773, 0.000000, 8165.000000, 8150.000000, 0.000000, 0.000000, 0.000000, 24914.000000, 18.974358, 4.000000, 4.000000, 4.000000, 4.000000, 4.000000, 4.000000, 4.000000, 4.000000, 4.000000, 4.000000, 4.000000, 4.000000, 4.000000, 4.000000, 4.000000, 4.000000
32.000000, 0.000000, 4187.692383, 4252.307617, 4183.589844, 4174.871582, 4170.769043, 4165.127930, 4164.615234, 4157.948730, 4192.307617, 4157.948730, 4153.846191, 4215.897461, 4211.281738, 4167.692383, 0.000000, 8165.000000, 8150.000000, 0.000000, 0.000000, 0.000000, 24914.000000, 26.666666, 4.000000, 4.000000, 4.000000, 4.000000, 4.000000, 4.000000, 4.000000, 4.000000, 4.000000, 4.000000, 4.000000, 4.000000, 4.000000, 4.000000, 4.000000, 4.000000
33.000000, 0.000000, 4187.692383, 4254.358887, 4188.717773, 4176.410156, 4168.205078, 4164.102539, 4166.153809, 4166.666504, 4198.461426, 4156.410156, 4161.538574, 4218.461426, 4218.974121, 4172.820313, 0.000000, 8174.000000, 8131.000000, 0.000000, 0.000000, 0.000000, 24914.000000, 34.871796, 4.000000, 4.000000, 4.000000, 4.000000, 4.000000, 4.000000, 4.000000, 4.000000, 4.000000, 4.000000, 4.000000, 4.000000, 4.000000, 4.000000, 4.000000, 4.000000
34.000000, 0.000000, 4182.051270, 4256.922852, 4175.897461, 4173.333008, 4160.000000, 4154.871582, 4155.384277, 4154.358887, 4188.717773, 4156.410156, 4158.974121, 4203.589844, 4217.948730, 4171.281738, 0.000000, 8174.000000, 8131.000000, 0.000000, 0.000000, 0.000000, 24914.000000, 42.564102, 4.000000, 4.000000, 4.000000, 4.000000, 4.000000, 4.000000, 4.000000, 4.000000, 4.000000, 4.000000, 4.000000, 4.000000, 4.000000, 4.000000, 4.000000, 4.000000
35.000000, 0.000000, 4177.948730, 4261.538574, 4163.589844, 4170.769043, 4156.922852, 4152.820313, 4149.743652, 4146.666504, 4191.281738, 4155.897461, 4153.846191, 4196.922852, 4216.410156, 4166.153809, 0.000000, 8174.000000, 8079.000000, 0.000000, 0.000000, 0.000000, 24914.000000, 50.769230, 4.000000, 4.000000, 4.000000, 4.000000, 4.000000, 4.000000, 4.000000, 4.000000, 4.000000, 4.000000, 4.000000, 4.000000, 4.000000, 4.000000, 4.000000, 4.000000
36.000000, 0.000000, 4181.538574, 4264.615234, 4169.230469, 4170.256348, 4157.436035, 4162.051270, 4163.076660, 4162.051270, 4204.615234, 4158.461426, 4154.871582, 4200.512695, 4216.922852, 4165.127930, 0.000000, 8174.000000, 8079.000000, 0.000000, 0.000000, 0.000000, 24914.000000, 58.461536, 4.000000, 4.000000, 4.000000, 4.000000, 4.000000, 4.000000, 4.000000, 4.000000, 4.000000, 4.000000, 4.000000, 4.000000, 4.000000, 4.000000, 4.000000, 4.000000
37.000000, 0.000000, 4184.615234, 4269.743652, 4176.410156, 4169.743652, 4162.563965, 4170.769043, 4170.769043, 4171.281738, 4197.948730, 4161.538574, 4157.436035, 4202.563965, 4218.974121, 4167.692383, 0.000000, 8176.000000, 8074.000000, 0.000000, 0.000000, 0.000000, 24914.000000, 66.666664, 4.000000, 4.000000, 4.000000, 4.000000, 4.000000, 4.000000, 4.000000, 4.000000, 4.000000, 4.000000, 4.000000, 4.000000, 4.000000, 4.000000, 4.000000, 4.000000
38.000000, 0.000000, 4182.563965, 4273.846191, 4175.897461, 4170.769043, 4165.127930, 4167.692383, 4163.076660, 4168.205078, 4189.743652, 4165.127930, 4157.436035, 4203.589844, 4225.127930, 4168.205078, 0.000000, 8176.000000, 8074.000000, 0.000000, 0.000000, 0.000000, 24914.000000, 74.358971, 4.000000, 4.000000, 4.000000, 4.000000, 4.000000, 4.000000, 4.000000, 4.000000, 4.000000, 4.000000, 4.000000, 4.000000, 4.000000, 4.000000, 4.000000, 4.000000
39.000000, 0.000000, 4182.051270, 4272.820313, 4177.436035, 4171.281738, 4163.076660, 4157.948730, 4156.410156, 4167.692383, 4198.461426, 4168.717773, 4158.461426, 4201.538574, 4229.743652, 4164.102539, 0.000000, 8174.000000, 8097.000000, 0.000000, 0.000000, 0.000000, 24914.000000, 82.564102, 4.000000, 4.000000, 4.000000, 4.000000, 4.000000, 4.000000, 4.000000, 4.000000, 4.000000, 4.000000, 4.000000, 4.000000, 4.000000, 4.000000, 4.000000, 4.000000
40.000000, 0.000000, 4185.641113, 4277.948730, 4178.461426, 4170.769043, 4166.666504, 4160.000000, 4163.589844, 4160.512695, 4197.948730, 4166.666504, 4158.974121, 4201.025391, 4230.256348, 4164.102539, 0.000000, 8174.000000, 8097.000000, 0.000000, 0.000000, 0.000000, 24914.000000, 90.769226, 4.000000, 4.000000, 4.000000, 4.000000, 4.000000, 4.000000, 4.000000, 4.000000, 4.000000, 4.000000, 4.000000, 4.000000, 4.000000, 4.000000, 4.000000, 4.000000
41.000000, 0.000000, 4187.692383, 4281.538574, 4179.487305, 4171.794922, 4175.384277, 4171.281738, 4172.820313, 4162.051270, 4192.307617, 4165.127930, 4157.948730, 4208.717773, 4229.230469, 4165.641113, 0.000000, 8178.000000, 8101.000000, 0.000000, 0.000000, 0.000000, 24914.000000, 98.461533, 4.000000, 4.000000, 4.000000, 4.000000, 4.000000, 4.000000, 4.000000, 4.000000, 4.000000, 4.000000, 4.000000, 4.000000, 4.000000, 4.000000, 4.000000, 4.000000
42.000000, 0.000000, 4182.563965, 4274.358887, 4177.948730, 4171.794922, 4175.897461, 4172.820313, 4171.281738, 4181.025391, 4197.948730, 4168.717773, 4158.461426, 4211.281738, 4228.205078, 4161.025391, 0.000000, 8178.000000, 8101.000000, 0.000000, 0.000000, 0.000000, 24914.000000, 106.666664, 4.000000, 4.000000, 4.000000, 4.000000, 4.000000, 4.000000, 4.000000, 4.000000, 4.000000, 4.000000, 4.000000, 4.000000, 4.000000, 4.000000, 4.000000, 4.000000
43.000000, 0.000000, 4176.410156, 4278.974121, 4176.922852, 4170.769043, 4171.281738, 4168.717773, 4169.743652, 4182.563965, 4202.051270, 4171.281738, 4158.974121, 4204.102539, 4231.281738, 4157.436035, 0.000000, 8182.000000, 8099.000000, 0.000000, 0.000000, 0.000000, 24914.000000, 114.358971, 4.000000, 4.000000, 4.000000, 4.000000, 4.000000, 4.000000, 4.000000, 4.000000, 4.000000, 4.000000, 4.000000, 4.000000, 4.000000, 4.000000, 4.000000, 4.000000
44.000000, 0.000000, 4174.871582, 4289.743652, 4176.922852, 4172.820313, 4171.281738, 4166.153809, 4167.692383, 4161.538574, 4197.436035, 4169.743652, 4155.897461, 4198.461426, 4236.922852, 4158.974121, 0.000000, 8182.000000, 8099.000000, 0.000000, 0.000000, 0.000000, 24914.000000, 122.051277, 4.000000, 4.000000, 4.000000, 4.000000, 4.000000, 4.000000, 4.000000, 4.000000, 4.000000, 4.000000, 4.000000, 4.000000, 4.000000, 4.000000, 4.000000, 4.000000
45.000000, 0.000000, 4169.743652, 4281.025391, 4173.846191, 4171.281738, 4169.743652, 4174.871582, 4173.846191, 4161.025391, 4194.871582, 4168.717773, 4145.641113, 4190.769043, 4229.230469, 4149.743652, 0.000000, 8197.000000, 8112.000000, 0.000000, 0.000000, 0.000000, 24914.000000, 130.256409, 4.000000, 4.000000, 4.000000, 4.000000, 4.000000, 4.000000, 4.000000, 4.000000, 4.000000, 4.000000, 4.000000, 4.000000, 4.000000, 4.000000, 4.000000, 4.000000
46.000000, 0.000000, 4165.641113, 4275.384277, 4171.794922, 4168.205078, 4168.717773, 4184.102539, 4187.692383, 4176.922852, 4197.436035, 4169.230469, 4136.410156, 4185.127930, 4216.922852, 4137.436035, 0.000000, 8197.000000, 8112.000000, 0.000000, 0.000000, 0.000000, 24914.000000, 138.461533, 4.000000, 4.000000, 4.000000, 4.000000, 4.000000, 4.000000, 4.000000, 4.000000, 4.000000, 4.000000, 4.000000, 4.000000, 4.000000, 4.000000, 4.000000, 4.000000
47.000000, 0.000000, 4168.205078, 4284.102539, 4167.179199, 4170.769043, 4166.666504, 4176.922852, 4182.563965, 4176.922852, 4198.974121, 4168.717773, 4138.461426, 4187.179199, 4224.102539, 4141.025391, 0.000000, 8203.000000, 8126.000000, 0.000000, 0.000000, 0.000000, 24914.000000, 146.153839, 4.000000, 4.000000, 4.000000, 4.000000, 4.000000, 4.000000, 4.000000, 4.000000, 4.000000, 4.000000, 4.000000, 4.000000, 4.000000, 4.000000, 4.000000, 4.000000
48.000000, 0.000000, 4163.076660, 4284.615234, 4160.512695, 4170.769043, 4163.589844, 4167.692383, 4170.256348, 4166.153809, 4196.410156, 4167.179199, 4140.000000, 4187.692383, 4232.820313, 4142.563965, 0.000000, 8203.000000, 8126.000000, 0.000000, 0.000000, 0.000000, 24914.000000, 153.846146, 4.000000, 4.000000, 4.000000, 4.000000, 4.000000, 4.000000, 4.000000, 4.000000, 4.000000, 4.000000, 4.000000, 4.000000, 4.000000, 4.000000, 4.000000, 4.000000
49.000000, 0.000000, 4158.974121, 4278.461426, 4161.025391, 4168.717773, 4166.153809, 4171.281738, 4172.307617, 4165.127930, 4195.384277, 4171.794922, 4142.051270, 4185.641113, 4229.230469, 4144.102539, 0.000000, 8230.000000, 8136.000000, 0.000000, 0.000000, 0.000000, 24914.000000, 162.051285, 4.000000, 4.000000, 4.000000, 4.000000, 4.000000, 4.000000, 4.000000, 4.000000, 4.000000, 4.000000, 4.000000, 4.000000, 4.000000, 4.000000, 4.000000, 4.000000
50.000000, 0.000000, 4166.666504, 4280.512695, 4166.153809, 4170.769043, 4163.589844, 4172.820313, 4174.358887, 4171.281738, 4198.461426, 4173.333008, 4148.717773, 4190.769043, 4229.230469, 4149.230469, 0.000000, 8230.000000, 8136.000000, 0.000000, 0.000000, 0.000000, 24914.000000, 169.743591, 4.000000, 4.000000, 4.000000, 4.000000, 4.000000, 4.000000, 4.000000, 4.000000, 4.000000, 4.000000, 4.000000, 4.000000, 4.000000, 4.000000, 4.000000, 4.000000
51.000000, 0.000000, 4167.692383, 4280.512695, 4169.743652, 4170.769043, 4155.897461, 4169.230469, 4169.230469, 4168.717773, 4199.487305, 4171.281738, 4147.179199, 4189.230469, 4231.794922, 4145.641113, 0.000000, 8241.000000, 8141.000000, 0.000000, 0.000000, 0.000000, 24914.000000, 177.948715, 4.000000, 4.000000, 4.000000, 4.000000, 4.000000, 4.000000, 4.000000, 4.000000, 4.000000, 4.000000, 4.000000, 4.000000, 4.000000, 4.000000, 4.000000, 4.000000
52.000000, 0.000000, 4165.641113, 4275.897461, 4169.743652, 4175.384277, 4160.512695, 4165.641113, 4159.487305, 4157.436035, 4196.410156, 4172.307617, 4140.000000, 4183.076660, 4227.692383, 4140.512695, 0.000000, 8241.000000, 8141.000000, 0.000000, 0.000000, 0.000000, 24914.000000, 185.641022, 4.000000, 4.000000, 4.000000, 4.000000, 4.000000, 4.000000, 4.000000, 4.000000, 4.000000, 4.000000, 4.000000, 4.000000, 4.000000, 4.000000, 4.000000, 4.000000
53.000000, 0.000000, 4176.922852, 4282.563965, 4172.820313, 4184.102539, 4167.692383, 4157.436035, 4143.076660, 4147.692383, 4195.897461, 4173.846191, 4147.692383, 4189.743652, 4234.871582, 4152.820313, 0.000000, 8253.000000, 8151.000000, 0.000000, 0.000000, 0.000000, 24914.000000, 193.846146, 4.000000, 4.000000, 4.000000, 4.000000, 4.000000, 4.000000, 4.000000, 4.000000, 4.000000, 4.000000, 4.000000, 4.000000, 4.000000, 4.000000, 4.000000, 4.000000
54.000000, 0.000000, 4186.666504, 4292.820313, 4180.000000, 4187.179199, 4168.205078, 4158.974121, 4141.538574, 4148.717773, 4198.461426, 4173.846191, 4164.102539, 4203.589844, 4253.333008, 4170.769043, 0.000000, 8253.000000, 8151.000000, 0.000000, 0.000000, 0.000000, 24914.000000, 201.538452, 4.000000, 4.000000, 4.000000, 4.000000, 4.000000, 4.000000, 4.000000, 4.000000, 4.000000, 4.000000, 4.000000, 4.000000, 4.000000, 4.000000, 4.000000, 4.000000
55.000000, 0.000000, 4186.666504, 4292.307617, 4180.000000, 4187.692383, 4171.281738, 4171.794922, 4154.871582, 4154.871582, 4198.461426, 4174.358887, 4164.615234, 4207.692383, 4258.461426, 4174.358887, 0.000000, 8277.000000, 8166.000000, 0.000000, 0.000000, 0.000000, 24914.000000, 209.743591, 4.000000, 4.000000, 4.000000, 4.000000, 4.000000, 4.000000, 4.000000, 4.000000, 4.000000, 4.000000, 4.000000, 4.000000, 4.000000, 4.000000, 4.000000, 4.000000
56.000000, 0.000000, 4179.487305, 4287.692383, 4174.358887, 4181.538574, 4162.563965, 4166.666504, 4155.384277, 4150.769043, 4191.794922, 4169.230469, 4152.820313, 4202.051270, 4245.127930, 4165.127930, 0.000000, 8277.000000, 8166.000000, 0.000000, 0.000000, 0.000000, 24914.000000, 217.435898, 4.000000, 4.000000, 4.000000, 4.000000, 4.000000, 4.000000, 4.000000, 4.000000, 4.000000, 4.000000, 4.000000, 4.000000, 4.000000, 4.000000, 4.000000, 4.000000
57.000000, 0.000000, 4178.461426, 4285.127930, 4174.871582, 4178.461426, 4155.384277, 4155.384277, 4153.333008, 4140.000000, 4185.641113, 4164.102539, 4151.794922, 4202.563965, 4245.641113, 4164.102539, 0.000000, 8288.000000, 8176.000000, 0.000000, 0.000000, 0.000000, 24914.000000, 225.641022, 4.000000, 4.000000, 4.000000, 4.000000, 4.000000, 4.000000, 4.000000, 4.000000, 4.000000, 4.000000, 4.000000, 4.000000, 4.000000, 4.000000, 4.000000, 4.000000
58.000000, 0.000000, 4193.846191, 4289.743652, 4186.666504, 4190.256348, 4166.666504, 4158.974121, 4164.615234, 4146.153809, 4192.820313, 4175.384277, 4169.230469, 4216.922852, 4269.230469, 4184.102539, 0.000000, 8288.000000, 8176.000000, 0.000000, 0.000000, 0.000000, 24914.000000, 233.333328, 4.000000, 4.000000, 4.000000, 4.000000, 4.000000, 4.000000, 4.000000, 4.000000, 4.000000, 4.000000, 4.000000, 4.000000, 4.000000, 4.000000, 4.000000, 4.000000
59.000000, 0.000000, 4205.127930, 4289.743652, 4197.436035, 4196.922852, 4171.281738, 4161.538574, 4173.846191, 4168.205078, 4204.102539, 4190.769043, 4186.153809, 4231.281738, 4285.641113, 4196.410156, 0.000000, 8310.000000, 8205.000000, 0.000000, 0.000000, 0.000000, 24914.000000, 241.025635, 4.000000, 4.000000, 4.000000, 4.000000, 4.000000, 4.000000, 4.000000, 4.000000, 4.000000, 4.000000, 4.000000, 4.000000, 4.000000, 4.000000, 4.000000, 4.000000
60.000000, 0.000000, 4201.538574, 4289.743652, 4197.436035, 4194.358887, 4160.000000, 4157.948730, 4170.256348, 4172.307617, 4198.974121, 4193.846191, 4184.615234, 4227.692383, 4284.615234, 4190.256348, 0.000000, 8310.000000, 8205.000000, 0.000000, 0.000000, 0.000000, 24914.000000, 248.717941, 4.000000, 4.000000, 4.000000, 4.000000, 4.000000, 4.000000, 4.000000, 4.000000, 4.000000, 4.000000, 4.000000, 4.000000, 4.000000, 4.000000, 4.000000, 4.000000
61.000000, 0.000000, 4201.025391, 4301.538574, 4193.846191, 4200.512695, 4163.589844, 4164.102539, 4168.717773, 4157.436035, 4192.307617, 4191.281738, 4170.769043, 4216.922852, 4278.974121, 4184.102539, 0.000000, 8323.000000, 8222.000000, 0.000000, 0.000000, 0.000000, 24914.000000, 256.923065, 4.000000, 4.000000, 4.000000, 4.000000, 4.000000, 4.000000, 4.000000, 4.000000, 4.000000, 4.000000, 4.000000, 4.000000, 4.000000, 4.000000, 4.000000, 4.000000
62.000000, 0.000000, 4201.538574, 4306.666504, 4186.666504, 4204.615234, 4181.025391, 4177.436035, 4176.410156, 4156.410156, 4198.461426, 4181.538574, 4157.948730, 4212.820313, 4274.358887, 4175.384277, 0.000000, 8323.000000, 8222.000000, 0.000000, 0.000000, 0.000000, 24914.000000, 264.615387, 4.000000, 4.000000, 4.000000, 4.000000, 4.000000, 4.000000, 4.000000, 4.000000, 4.000000, 4.000000, 4.000000, 4.000000, 4.000000, 4.000000, 4.000000, 4.000000
63.000000, 0.000000, 4194.871582, 4305.127930, 4177.948730, 4200.000000, 4187.179199, 4184.615234, 4172.820313, 4156.922852, 4198.974121, 4171.281738, 4163.589844, 4214.358887, 4273.333008, 4167.692383, 0.000000, 8328.000000, 8236.000000, 0.000000, 0.000000, 0.000000, 24914.000000, 272.820496, 4.000000, 4.000000, 4.000000, 4.000000, 4.000000, 4.000000, 4.000000, 4.000000, 4.000000, 4.000000, 4.000000, 4.000000, 4.000000, 4.000000, 4.000000, 4.000000
64.000000, 0.000000, 4197.436035, 4310.769043, 4182.051270, 4202.051270, 4189.230469, 4183.076660, 4156.922852, 4140.512695, 4189.230469, 4166.666504, 4168.717773, 4214.871582, 4271.281738, 4171.794922, 3020.000000, 8328.000000, 8236.000000, 0.000000, 0.000000, 0.000000, 24914.000000, 280.512817, 4.000000, 4.000000, 4.000000, 4.000000, 4.000000, 4.000000, 4.000000, 4.000000, 4.000000, 4.000000, 4.000000, 4.000000, 4.000000, 4.000000, 4.000000, 4.000000
65.000000, 0.000000, 4201.538574, 4309.743652, 4188.717773, 4205.127930, 4188.717773, 4175.384277, 4158.974121, 4135.897461, 4185.641113, 4159.487305, 4152.307617, 4207.179199, 4263.076660, 4168.717773, 3516.000000, 8345.000000, 8253.000000, 0.000000, 0.000000, 0.000000, 24914.000000, 288.205109, 4.000000, 4.000000, 4.000000, 4.000000, 4.000000, 4.000000, 4.000000, 4.000000, 4.000000, 4.000000, 4.000000, 4.000000, 4.000000, 4.000000, 4.000000, 4.000000
66.000000, 0.000000, 4199.487305, 4312.820313, 4189.743652, 4207.179199, 4184.102539, 4169.230469, 4168.717773, 4142.051270, 4188.717773, 4148.717773, 4135.897461, 4193.846191, 4258.974121, 4153.333008, 3364.000000, 8345.000000, 8253.000000, 0.000000, 0.000000, 0.000000, 24914.000000, 296.410248, 4.000000, 4.000000, 4.000000, 4.000000, 4.000000, 4.000000, 4.000000, 4.000000, 4.000000, 4.000000, 4.000000, 4.000000, 4.000000, 4.000000, 4.000000, 4.000000
67.000000, 0.000000, 4204.615234, 4326.666504, 4191.794922, 4217.948730, 4183.589844, 4170.256348, 4163.076660, 4132.820313, 4192.820313, 4155.897461, 4143.589844, 4188.205078, 4269.230469, 4153.846191, 2233.000000, 8348.000000, 8263.000000, 0.000000, 0.000000, 0.000000, 24914.000000, 304.102570, 4.000000, 4.000000, 4.000000, 4.000000, 4.000000, 4.000000, 4.000000, 4.000000, 4.000000, 4.000000, 4.000000, 4.000000, 4.000000, 4.000000, 4.000000, 4.000000
68.000000, 0.000000, 4211.794922, 4326.153809, 4196.922852, 4226.666504, 4192.307617, 4180.000000, 4171.281738, 4149.230469, 4200.512695, 4184.615234, 4162.563965, 4201.025391, 4284.615234, 4167.692383, 3390.000000, 8348.000000, 8263.000000, 0.000000, 0.000000, 0.000000, 24914.000000, 312.307678, 4.000000, 4.000000, 4.000000, 4.000000, 4.000000, 4.000000, 4.000000, 4.000000, 4.000000, 4.000000, 4.000000, 4.000000, 4.000000, 4.000000, 4.000000, 4.000000
69.000000, 0.000000, 4215.384277, 4322.563965, 4202.563965, 4230.256348, 4199.487305, 4193.333008, 4190.769043, 4183.076660, 4202.563965, 4204.615234, 4173.846191, 4219.487305, 4297.436035, 4172.820313, 3432.000000, 8345.000000, 8275.000000, 0.000000, 0.000000, 0.000000, 24914.000000, 320.000000, 4.000000, 4.000000, 4.000000, 4.000000, 4.000000, 4.000000, 4.000000, 4.000000, 4.000000, 4.000000, 4.000000, 4.000000, 4.000000, 4.000000, 4.000000, 4.000000
70.000000, 0.000000, 4216.410156, 4327.179199, 4203.076660, 4231.281738, 4201.025391, 4197.948730, 4187.692383, 4180.000000, 4198.974121, 4200.000000, 4174.358887, 4225.127930, 4312.307617, 4171.281738, 3402.000000, 8345.000000, 8275.000000, 0.000000, 0.000000, 0.000000, 24914.000000, 328.205109, 4.000000, 4.000000, 4.000000, 4.000000, 4.000000, 4.000000, 4.000000, 4.000000, 4.000000, 4.000000, 4.000000, 4.000000, 4.000000, 4.000000, 4.000000, 4.000000
71.000000, 0.000000, 4212.820313, 4322.563965, 4203.076660, 4227.692383, 4202.563965, 4197.436035, 4186.153809, 4169.743652, 4198.461426, 4191.281738, 4169.230469, 4220.512695, 4321.538574, 4168.717773, 3358.000000, 8340.000000, 8281.000000, 0.000000, 0.000000, 0.000000, 24914.000000, 335.897430, 4.000000, 4.000000, 4.000000, 4.000000, 4.000000, 4.000000, 4.000000, 4.000000, 4.000000, 4.000000, 4.000000, 4.000000, 4.000000, 4.000000, 4.000000, 4.000000
72.000000, 0.000000, 4211.281738, 4315.384277, 4204.615234, 4226.153809, 4203.589844, 4202.563965, 4202.563965, 4181.025391, 4198.974121, 4191.794922, 4167.179199, 4218.461426, 4323.589844, 4168.205078, 908.000000, 8340.000000, 8281.000000, 0.000000, 0.000000, 0.000000, 24914.000000, 343.589722, 4.000000, 4.000000, 4.000000, 4.000000, 4.000000, 4.000000, 4.000000, 4.000000, 4.000000, 4.000000, 4.000000, 4.000000, 4.000000, 4.000000, 4.000000, 4.000000
73.000000, 0.000000, 4215.897461, 4320.512695, 4207.179199, 4229.743652, 4207.179199, 4206.666504, 4206.153809, 4184.102539, 4197.948730, 4189.230469, 4168.717773, 4223.076660, 4335.897461, 4176.410156, 2976.000000, 8333.000000, 8275.000000, 0.000000, 0.000000, 0.000000, 24914.000000, 351.794861, 4.000000, 4.000000, 4.000000, 4.000000, 4.000000, 4.000000, 4.000000, 4.000000, 4.000000, 4.000000, 4.000000, 4.000000, 4.000000, 4.000000, 4.000000, 4.000000
74.000000, 0.000000, 4222.051270, 4329.743652, 4213.333008, 4236.410156, 4214.358887, 4204.615234, 4201.025391, 4181.025391, 4198.974121, 4185.127930, 4174.871582, 4229.230469, 4364.102539, 4185.127930, 3557.000000, 8333.000000, 8275.000000, 0.000000, 0.000000, 0.000000, 24914.000000, 360.000000, 4.000000, 4.000000, 4.000000, 4.000000, 4.000000, 4.000000, 4.000000, 4.000000, 4.000000, 4.000000, 4.000000, 4.000000, 4.000000, 4.000000, 4.000000, 4.000000
75.000000, 0.000000, 4226.666504, 4326.153809, 4217.436035, 4243.076660, 4217.948730, 4203.589844, 4197.948730, 4183.589844, 4198.974121, 4186.666504, 4183.589844, 4231.281738, 4397.948730, 4191.794922, 3570.000000, 8329.000000, 8270.000000, 0.000000, 0.000000, 0.000000, 24914.000000, 367.692291, 4.000000, 4.000000, 4.000000, 4.000000, 4.000000, 4.000000, 4.000000, 4.000000, 4.000000, 4.000000, 4.000000, 4.000000, 4.000000, 4.000000, 4.000000, 4.000000
76.000000, 0.000000, 4231.794922, 4321.538574, 4221.538574, 4246.666504, 4215.384277, 4204.102539, 4194.871582, 4180.000000, 4198.461426, 4186.153809, 4188.717773, 4231.281738, 4421.025391, 4197.948730, 3504.000000, 8329.000000, 8270.000000, 0.000000, 0.000000, 0.000000, 24914.000000, 375.384613, 4.000000, 4.000000, 4.000000, 4.000000, 4.000000, 4.000000, 4.000000, 4.000000, 4.000000, 4.000000, 4.000000, 4.000000, 4.000000, 4.000000, 4.000000, 4.000000
77.000000, 0.000000, 4229.743652, 4321.538574, 4218.461426, 4243.589844, 4209.743652, 4204.102539, 4206.666504, 4185.127930, 4200.000000, 4184.615234, 4187.179199, 4234.358887, 4430.256348, 4192.820313, 3452.000000, 8327.000000, 8260.000000, 0.000000, 0.000000, 0.000000, 24914.000000, 383.589722, 4.000000, 4.000000, 4.000000, 4.000000, 4.000000, 4.000000, 4.000000, 4.000000, 4.000000, 4.000000, 4.000000, 4.000000, 4.000000, 4.000000, 4.000000, 4.000000
78.000000, 0.000000, 4218.974121, 4308.717773, 4208.205078, 4235.384277, 4205.641113, 4203.076660, 4215.384277, 4191.281738, 4200.000000, 4184.615234, 4177.436035, 4234.358887, 4436.922852, 4183.589844, 3557.000000, 8327.000000, 8260.000000, 0.000000, 0.000000, 0.000000, 24914.000000, 391.282043, 4.000000, 4.000000, 4.000000, 4.000000, 4.000000, 4.000000, 4.000000, 4.000000, 4.000000, 4.000000, 4.000000, 4.000000, 4.000000, 4.000000, 4.000000, 4.000000
79.000000, 0.000000, 4213.846191, 4287.692383, 4207.179199, 4229.743652, 4206.153809, 4201.025391, 4204.615234, 4190.769043, 4198.461426, 4187.179199, 4174.871582, 4228.717773, 4459.487305, 4182.563965, 3570.000000, 8315.000000, 8243.000000, 0.000000, 0.000000, 0.000000, 24914.000000, 399.487183, 4.000000, 4.000000, 4.000000, 4.000000, 4.000000, 4.000000, 4.000000, 4.000000, 4.000000, 4.000000, 4.000000, 4.000000, 4.000000, 4.000000, 4.000000, 4.000000
80.000000, 0.000000, 4217.948730, 4282.051270, 4214.358887, 4230.256348, 4213.333008, 4205.641113, 4206.153809, 4203.076660, 4199.487305, 4191.794922, 4182.051270, 4230.769043, 4496.410156, 4186.666504, 3504.000000, 8315.000000, 8243.000000, 0.000000, 0.000000, 0.000000, 24914.000000, 407.179474, 4.000000, 4.000000, 4.000000, 4.000000, 4.000000, 4.000000, 4.000000, 4.000000, 4.000000, 4.000000, 4.000000, 4.000000, 4.000000, 4.000000, 4.000000, 4.000000
81.000000, 0.000000, 4228.205078, 4285.641113, 4221.538574, 4238.974121, 4218.974121, 4217.948730, 4223.076660, 4221.025391, 4201.538574, 4192.307617, 4185.127930, 4245.641113, 4529.230469, 4193.846191, 3452.000000, 8311.000000, 8235.000000, 0.000000, 0.000000, 0.000000, 24914.000000, 415.384613, 4.000000, 4.000000, 4.000000, 4.000000, 4.000000, 4.000000, 4.000000, 4.000000, 4.000000, 4.000000, 4.000000, 4.000000, 4.000000, 4.000000, 4.000000, 4.000000
82.000000, 0.000000, 4234.358887, 4279.487305, 4222.051270, 4245.641113, 4220.512695, 4221.025391, 4222.051270, 4218.974121, 4200.512695, 4190.256348, 4187.692383, 4249.230469, 4549.743652, 4203.076660, 3557.000000, 8311.000000, 8235.000000, 0.000000, 0.000000, 0.000000, 24914.000000, 423.076904, 4.000000, 4.000000, 4.000000, 4.000000, 4.000000, 4.000000, 4.000000, 4.000000, 4.000000, 4.000000, 4.000000, 4.000000, 4.000000, 4.000000, 4.000000, 4.000000
83.000000, 0.000000, 4228.717773, 4269.743652, 4216.410156, 4238.974121, 4215.897461, 4213.846191, 4213.333008, 4203.076660, 4198.461426, 4187.179199, 4190.769043, 4235.897461, 4562.051270, 4200.512695, 3570.000000, 8304.000000, 8215.000000, 0.000000, 0.000000, 0.000000, 24914.000000, 431.282043, 4.000000, 4.000000, 4.000000, 4.000000, 4.000000, 4.000000, 4.000000, 4.000000, 4.000000, 4.000000, 4.000000, 4.000000, 4.000000, 4.000000, 4.000000, 4.000000
84.000000, 0.000000, 4222.051270, 4260.000000, 4215.897461, 4231.794922, 4214.871582, 4215.384277, 4217.948730, 4198.974121, 4198.461426, 4184.615234, 4186.153809, 4228.205078, 4585.127930, 4189.743652, 3504.000000, 8304.000000, 8215.000000, 0.000000, 0.000000, 0.000000, 24914.000000, 438.974335, 4.000000, 4.000000, 4.000000, 4.000000, 4.000000, 4.000000, 4.000000, 4.000000, 4.000000, 4.000000, 4.000000, 4.000000, 4.000000, 4.000000, 4.000000, 4.000000
85.000000, 0.000000, 4224.615234, 4245.127930, 4218.461426, 4231.794922, 4220.512695, 4215.384277, 4213.846191, 4204.615234, 4200.512695, 4188.717773, 4180.000000, 4227.179199, 4618.461426, 4187.692383, 3452.000000, 8292.000000, 8209.000000, 0.000000, 0.000000, 0.000000, 24914.000000, 446.666656, 4.000000, 4.000000, 4.000000, 4.000000, 4.000000, 4.000000, 4.000000, 4.000000, 4.000000, 4.000000, 4.000000, 4.000000, 4.000000, 4.000000, 4.000000, 4.000000
86.000000, 0.000000, 4220.512695, 4236.922852, 4218.461426, 4230.256348, 4212.307617, 4201.538574, 4201.538574, 4200.000000, 4197.436035, 4190.256348, 4173.333008, 4220.512695, 4625.641113, 4185.641113, 3557.000000, 8292.000000, 8209.000000, 0.000000, 0.000000, 0.000000, 24914.000000, 454.871796, 4.000000, 4.000000, 4.000000, 4.000000, 4.000000, 4.000000, 4.000000, 4.000000, 4.000000, 4.000000, 4.000000, 4.000000, 4.000000, 4.000000, 4.000000, 4.000000
87.000000, 0.000000, 4220.000000, 4236.410156, 4220.512695, 4231.281738, 4203.076660, 4196.922852, 4198.461426, 4188.205078, 4194.358887, 4182.051270, 4165.641113, 4219.487305, 4632.307617, 4182.563965, 3570.000000, 8287.000000, 8197.000000, 0.000000, 0.000000, 0.000000, 24914.000000, 463.076904, 4.000000, 4.000000, 4.000000, 4.000000, 4.000000, 4.000000, 4.000000, 4.000000, 4.000000, 4.000000, 4.000000, 4.000000, 4.000000, 4.000000, 4.000000, 4.000000
88.000000, 0.000000, 4230.769043, 4226.153809, 4222.051270, 4237.436035, 4212.307617, 4202.563965, 4198.461426, 4185.641113, 4197.948730, 4192.307617, 4189.230469, 4229.743652, 4673.846191, 4194.358887, 3504.000000, 8287.000000, 8197.000000, 0.000000, 0.000000, 0.000000, 24914.000000, 470.769226, 4.000000, 4.000000, 4.000000, 4.000000, 4.000000, 4.000000, 4.000000, 4.000000, 4.000000, 4.000000, 4.000000, 4.000000, 4.000000, 4.000000, 4.000000, 4.000000
89.000000, 0.000000, 4234.871582, 4209.743652, 4224.615234, 4233.846191, 4218.974121, 4202.051270, 4195.384277, 4188.717773, 4202.051270, 4205.127930, 4217.436035, 4250.256348, 4709.743652, 4214.871582, 3452.000000, 8279.000000, 8190.000000, 0.000000, 0.000000, 0.000000, 24914.000000, 478.461517, 4.000000, 4.000000, 4.000000, 4.000000, 4.000000, 4.000000, 4.000000, 4.000000, 4.000000, 4.000000, 4.000000, 4.000000, 4.000000, 4.000000, 4.000000, 4.000000
90.000000, 0.000000, 4236.922852, 4204.102539, 4229.230469, 4234.358887, 4215.897461, 4204.615234, 4195.384277, 4181.538574, 4197.436035, 4186.666504, 4200.000000, 4265.641113, 4711.281738, 4223.076660, 3557.000000, 8279.000000, 8190.000000, 0.000000, 0.000000, 0.000000, 24914.000000, 486.666656, 4.000000, 4.000000, 4.000000, 4.000000, 4.000000, 4.000000, 4.000000, 4.000000, 4.000000, 4.000000, 4.000000, 4.000000, 4.000000, 4.000000, 4.000000, 4.000000
91.000000, 0.000000, 4242.563965, 4210.769043, 4228.717773, 4248.717773, 4216.922852, 4213.846191, 4200.000000, 4171.794922, 4190.769043, 4164.615234, 4181.025391, 4250.769043, 4707.179199, 4213.333008, 3570.000000, 8277.000000, 8181.000000, 0.000000, 0.000000, 0.000000, 24914.000000, 494.358948, 4.000000, 4.000000, 4.000000, 4.000000, 4.000000, 4.000000, 4.000000, 4.000000, 4.000000, 4.000000, 4.000000, 4.000000, 4.000000, 4.000000, 4.000000, 4.000000
92.000000, 0.000000, 4237.948730, 4207.179199, 4220.000000, 4250.256348, 4220.512695, 4214.358887, 4200.512695, 4176.410156, 4192.820313, 4164.102539, 4184.615234, 4228.717773, 4706.666504, 4201.025391, 3504.000000, 8277.000000, 8181.000000, 0.000000, 0.000000, 0.000000, 24914.000000, 502.564087, 4.000000, 4.000000, 4.000000, 4.000000, 4.000000, 4.000000, 4.000000, 4.000000, 4.000000, 4.000000, 4.000000, 4.000000, 4.000000, 4.000000, 4.000000, 4.000000
93.000000, 0.000000, 4226.666504, 4189.230469, 4212.307617, 4235.384277, 4224.102539, 4211.794922, 4199.487305, 4182.563965, 4198.974121, 4167.179199, 4173.846191, 4224.615234, 4703.076660, 4195.384277, 3452.000000, 8272.000000, 8181.000000, 0.000000, 0.000000, 0.000000, 24914.000000, 510.256409, 4.000000, 4.000000, 4.000000, 4.000000, 4.000000, 4.000000, 4.000000, 4.000000, 4.000000, 4.000000, 4.000000, 4.000000, 4.000000, 4.000000, 4.000000, 4.000000
94.000000, 0.000000, 4223.076660, 4178.974121, 4211.794922, 4230.769043, 4225.641113, 4213.846191, 4199.487305, 4175.384277, 4198.974121, 4172.820313, 4159.487305, 4222.051270, 4710.256348, 4190.769043, 3557.000000, 8272.000000, 8181.000000, 0.000000, 0.000000, 0.000000, 24914.000000, 517.948730, 4.000000, 4.000000, 4.000000, 4.000000, 4.000000, 4.000000, 4.000000, 4.000000, 4.000000, 4.000000, 4.000000, 4.000000, 4.000000, 4.000000, 4.000000, 4.000000
95.000000, 0.000000, 4218.974121, 4170.256348, 4211.281738, 4233.846191, 4218.974121, 4211.281738, 4200.512695, 4174.358887, 4197.436035, 4185.127930, 4176.922852, 4220.000000, 4720.512695, 4186.153809, 3570.000000, 8276.000000, 8181.000000, 0.000000, 0.000000, 0.000000, 24914.000000, 526.153809, 4.000000, 4.000000, 4.000000, 4.000000, 4.000000, 4.000000, 4.000000, 4.000000, 4.000000, 4.000000, 4.000000, 4.000000, 4.000000, 4.000000, 4.000000, 4.000000
96.000000, 0.000000, 4213.333008, 4154.358887, 4206.666504, 4234.358887, 4218.974121, 4210.769043, 4207.692383, 4193.333008, 4201.538574, 4196.410156, 4190.769043, 4227.179199, 4721.538574, 4188.717773, 3504.000000, 8276.000000, 8181.000000, 0.000000, 0.000000, 0.000000, 24914.000000, 533.846130, 4.000000, 4.000000, 4.000000, 4.000000, 4.000000, 4.000000, 4.000000, 4.000000, 4.000000, 4.000000, 4.000000, 4.000000, 4.000000, 4.000000, 4.000000, 4.000000
97.000000, 0.000000, 4213.333008, 4140.000000, 4204.615234, 4229.743652, 4213.333008, 4216.410156, 4215.897461, 4203.589844, 4202.051270, 4200.000000, 4182.563965, 4225.641113, 4725.127930, 4193.333008, 3452.000000, 8270.000000, 8185.000000, 0.000000, 0.000000, 0.000000, 24914.000000, 542.051270, 4.000000, 4.000000, 4.000000, 4.000000, 4.000000, 4.000000, 4.000000, 4.000000, 4.000000, 4.000000, 4.000000, 4.000000, 4.000000, 4.000000, 4.000000, 4.000000
98.000000, 0.000000, 4212.307617, 4132.820313, 4206.666504, 4226.153809, 4200.512695, 4216.410156, 4216.410156, 4194.358887, 4197.436035, 4196.922852, 4187.179199, 4212.307617, 4727.179199, 4192.307617, 3557.000000, 8270.000000, 8185.000000, 0.000000, 0.000000, 0.000000, 24914.000000, 549.743591, 4.000000, 4.000000, 4.000000, 4.000000, 4.000000, 4.000000, 4.000000, 4.000000, 4.000000, 4.000000, 4.000000, 4.000000, 4.000000, 4.000000, 4.000000, 4.000000
99.000000, 0.000000, 4217.436035, 4133.333008, 4214.871582, 4237.436035, 4215.897461, 4215.384277, 4215.384277, 4196.410156, 4201.025391, 4193.333008, 4201.025391, 4215.384277, 4723.589844, 4197.948730, 3570.000000, 8272.000000, 8182.000000, 0.000000, 0.000000, 0.000000, 24914.000000, 557.435913, 4.000000, 4.000000, 4.000000, 4.000000, 4.000000, 4.000000, 4.000000, 4.000000, 4.000000, 4.000000, 4.000000, 4.000000, 4.000000, 4.000000, 4.000000, 4.000000
100.000000, 0.000000, 4227.179199, 4131.281738, 4218.974121, 4247.692383, 4238.974121, 4219.487305, 4216.410156, 4202.563965, 4200.512695, 4187.692383, 4193.846191, 4225.127930, 4716.410156, 4203.076660, 3504.000000, 8272.000000, 8182.000000, 0.000000, 0.000000, 0.000000, 24914.000000, 565.640991, 4.000000, 4.000000, 4.000000, 4.000000, 4.000000, 4.000000, 4.000000, 4.000000, 4.000000, 4.000000, 4.000000, 4.000000, 4.000000, 4.000000, 4.000000, 4.000000
101.000000, 0.000000, 4225.127930, 4121.025391, 4212.820313, 4235.384277, 4229.230469, 4219.487305, 4211.281738, 4188.717773, 4192.820313, 4172.820313, 4170.769043, 4224.102539, 4695.384277, 4192.820313, 3452.000000, 8278.000000, 8172.000000, 0.000000, 0.000000, 0.000000, 24914.000000, 573.333313, 4.000000, 4.000000, 4.000000, 4.000000, 4.000000, 4.000000, 4.000000, 4.000000, 4.000000, 4.000000, 4.000000, 4.000000, 4.000000, 4.000000, 4.000000, 4.000000
102.000000, 0.000000, 4212.307617, 4107.179199, 4207.179199, 4223.076660, 4211.794922, 4212.307617, 4198.461426, 4170.256348, 4194.871582, 4167.179199, 4171.794922, 4222.051270, 4673.846191, 4181.025391, 3557.000000, 8278.000000, 8172.000000, 0.000000, 0.000000, 0.000000, 24914.000000, 581.025635, 4.000000, 4.000000, 4.000000, 4.000000, 4.000000, 4.000000, 4.000000, 4.000000, 4.000000, 4.000000, 4.000000, 4.000000, 4.000000, 4.000000, 4.000000, 4.000000
103.000000, 0.000000, 4211.794922, 4104.615234, 4209.230469, 4230.769043, 4215.384277, 4211.281738, 4200.512695, 4167.179199, 4197.436035, 4178.974121, 4184.102539, 4228.717773, 4678.974121, 4188.717773, 3570.000000, 8284.000000, 8170.000000, 0.000000, 0.000000, 0.000000, 24914.000000, 589.230774, 4.000000, 4.000000, 4.000000, 4.000000, 4.000000, 4.000000, 4.000000, 4.000000, 4.000000, 4.000000, 4.000000, 4.000000, 4.000000, 4.000000, 4.000000, 4.000000
104.000000, 0.000000, 4228.717773, 4111.794922, 4220.000000, 4237.948730, 4224.102539, 4216.922852, 4215.897461, 4175.897461, 4191.281738, 4184.102539, 4194.358887, 4243.076660, 4689.230469, 4209.743652, 3504.000000, 8284.000000, 8170.000000, 0.000000, 0.000000, 0.000000, 24914.000000, 596.923035, 4.000000, 4.000000, 4.000000, 4.000000, 4.000000, 4.000000, 4.000000, 4.000000, 4.000000, 4.000000, 4.000000, 4.000000, 4.000000, 4.000000, 4.000000, 4.000000
105.000000, 0.000000, 4235.384277, 4108.717773, 4227.179199, 4235.897461, 4228.205078, 4218.974121, 4220.512695, 4191.794922, 4196.410156, 4186.153809, 4207.179199, 4251.281738, 4685.127930, 4220.512695, 3452.000000, 8285.000000, 8171.000000, 0.000000, 0.000000, 0.000000, 24914.000000, 605.128174, 4.000000, 4.000000, 4.000000, 4.000000, 4.000000, 4.000000, 4.000000, 4.000000, 4.000000, 4.000000, 4.000000, 4.000000, 4.000000, 4.000000, 4.000000, 4.000000
106.000000, 0.000000, 4226.153809, 4097.948730, 4222.051270, 4234.358887, 4229.230469, 4219.487305, 4218.974121, 4205.641113, 4205.641113, 4206.153809, 4207.692383, 4244.102539, 4677.948730, 4212.820313, 3557.000000, 8285.000000, 8171.000000, 0.000000, 0.000000, 0.000000, 24914.000000, 612.820496, 4.000000, 4.000000, 4.000000, 4.000000, 4.000000, 4.000000, 4.000000, 4.000000, 4.000000, 4.000000, 4.000000, 4.000000, 4.000000, 4.000000, 4.000000, 4.000000
107.000000, 0.000000, 4222.051270, 4095.384521, 4220.000000, 4231.794922, 4222.563965, 4222.051270, 4227.692383, 4209.230469, 4201.538574, 4220.512695, 4198.461426, 4238.461426, 4665.641113, 4204.615234, 3570.000000, 8292.000000, 8146.000000, 0.000000, 0.000000, 0.000000, 24914.000000, 620.512817, 4.000000, 4.000000, 4.000000, 4.000000, 4.000000, 4.000000, 4.000000, 4.000000, 4.000000, 4.000000, 4.000000, 4.000000, 4.000000, 4.000000, 4.000000, 4.000000
108.000000, 0.000000, 4229.230469, 4093.333252, 4227.179199, 4233.846191, 4216.410156, 4221.025391, 4236.410156, 4215.897461, 4197.948730, 4209.743652, 4206.153809, 4246.153809, 4653.846191, 4208.717773, 3504.000000, 8292.000000, 8146.000000, 0.000000, 0.000000, 0.000000, 24914.000000, 628.717957, 4.000000, 4.000000, 4.000000, 4.000000, 4.000000, 4.000000, 4.000000, 4.000000, 4.000000, 4.000000, 4.000000, 4.000000, 4.000000, 4.000000, 4.000000, 4.000000
109.000000, 0.000000, 4235.897461, 4091.794678, 4230.256348, 4239.487305, 4222.563965, 4218.461426, 4228.717773, 4220.512695, 4201.025391, 4198.974121, 4215.897461, 4253.846191, 4649.743652, 4211.281738, 3452.000000, 8289.000000, 8147.000000, 0.000000, 0.000000, 0.000000, 24914.000000, 636.410217, 4.000000, 4.000000, 4.000000, 4.000000, 4.000000, 4.000000, 4.000000, 4.000000, 4.000000, 4.000000, 4.000000, 4.000000, 4.000000, 4.000000, 4.000000, 4.000000
110.000000, 0.000000, 4229.230469, 4091.794678, 4228.205078, 4237.436035, 4229.230469, 4218.461426, 4217.948730, 4209.230469, 4198.461426, 4202.051270, 4202.563965, 4248.205078, 4635.384277, 4202.563965, 3557.000000, 8289.000000, 8147.000000, 0.000000, 0.000000, 0.000000, 24914.000000, 644.615356, 4.000000, 4.000000, 4.000000, 4.000000, 4.000000, 4.000000, 4.000000, 4.000000, 4.000000, 4.000000, 4.000000, 4.000000, 4.000000, 4.000000, 4.000000, 4.000000
111.000000, 0.000000, 4219.487305, 4086.153809, 4225.127930, 4230.256348, 4220.512695, 4218.461426, 4217.948730, 4206.666504, 4198.461426, 4203.076660, 4198.461426, 4245.127930, 4619.487305, 4197.948730, 3570.000000, 8285.000000, 8161.000000, 0.000000, 0.000000, 0.000000, 24914.000000, 652.307678, 4.000000, 4.000000, 4.000000, 4.000000, 4.000000, 4.000000, 4.000000, 4.000000, 4.000000, 4.000000, 4.000000, 4.000000, 4.000000, 4.000000, 4.000000, 4.000000
112.000000, 0.000000, 4221.538574, 4082.051270, 4226.666504, 4228.205078, 4212.820313, 4215.897461, 4216.410156, 4208.205078, 4200.512695, 4201.538574, 4211.281738, 4247.179199, 4608.717773, 4202.051270, 3504.000000, 8285.000000, 8161.000000, 0.000000, 0.000000, 0.000000, 24914.000000, 660.000000, 4.000000, 4.000000, 4.000000, 4.000000, 4.000000, 4.000000, 4.000000, 4.000000, 4.000000, 4.000000, 4.000000, 4.000000, 4.000000, 4.000000, 4.000000, 4.000000
113.000000, 0.000000, 4222.563965, 4084.102539, 4227.692383, 4228.205078, 4219.487305, 4217.436035, 4215.897461, 4197.948730, 4200.512695, 4201.025391, 4203.589844, 4238.974121, 4584.615234, 4198.974121, 3452.000000, 8284.000000, 8175.000000, 0.000000, 0.000000, 0.000000, 24914.000000, 668.205139, 4.000000, 4.000000, 4.000000, 4.000000, 4.000000, 4.000000, 4.000000, 4.000000, 4.000000, 4.000000, 4.000000, 4.000000, 4.000000, 4.000000, 4.000000, 4.000000
114.000000, 0.000000, 4216.922852, 4086.666504, 4226.666504, 4227.179199, 4218.974121, 4222.051270, 4225.641113, 4195.897461, 4200.512695, 4201.025391, 4186.153809, 4227.179199, 4555.384277, 4187.692383, 3557.000000, 8284.000000, 8175.000000, 0.000000, 0.000000, 0.000000, 24914.000000, 675.897400, 4.000000, 4.000000, 4.000000, 4.000000, 4.000000, 4.000000, 4.000000, 4.000000, 4.000000, 4.000000, 4.000000, 4.000000, 4.000000, 4.000000, 4.000000, 4.000000
115.000000, 0.000000, 4213.846191, 4086.153809, 4224.102539, 4228.717773, 4214.871582, 4224.615234, 4229.230469, 4209.230469, 4200.000000, 4202.051270, 4188.205078, 4227.179199, 4544.615234, 4185.127930, 3570.000000, 8278.000000, 8184.000000, 0.000000, 0.000000, 0.000000, 24914.000000, 683.589722, 4.000000, 4.000000, 4.000000, 4.000000, 4.000000, 4.000000, 4.000000, 4.000000, 4.000000, 4.000000, 4.000000, 4.000000, 4.000000, 4.000000, 4.000000, 4.000000
116.000000, 0.000000, 4215.384277, 4084.102539, 4222.051270, 4228.205078, 4227.179199, 4228.205078, 4223.589844, 4213.846191, 4200.000000, 4203.589844, 4201.538574, 4238.461426, 4535.897461, 4193.846191, 3504.000000, 8278.000000, 8184.000000, 0.000000, 0.000000, 0.000000, 24914.000000, 691.794861, 4.000000, 4.000000, 4.000000, 4.000000, 4.000000, 4.000000, 4.000000, 4.000000, 4.000000, 4.000000, 4.000000, 4.000000, 4.000000, 4.000000, 4.000000, 4.000000
117.000000, 0.000000, 4220.512695, 4089.743408, 4228.205078, 4227.692383, 4237.948730, 4238.461426, 4229.230469, 4210.769043, 4200.000000, 4208.717773, 4207.179199, 4252.820313, 4526.153809, 4201.025391, 3452.000000, 8270.000000, 8206.000000, 0.000000, 0.000000, 0.000000, 24914.000000, 699.487183, 4.000000, 4.000000, 4.000000, 4.000000, 4.000000, 4.000000, 4.000000, 4.000000, 4.000000, 4.000000, 4.000000, 4.000000, 4.000000, 4.000000, 4.000000, 4.000000
118.000000, 0.000000, 4229.743652, 4096.410156, 4232.307617, 4234.871582, 4233.333008, 4248.205078, 4238.974121, 4217.436035, 4201.025391, 4214.358887, 4212.820313, 4266.666504, 4525.641113, 4209.230469, 3557.000000, 8270.000000, 8206.000000, 0.000000, 0.000000, 0.000000, 24914.000000, 707.179443, 4.000000, 4.000000, 4.000000, 4.000000, 4.000000, 4.000000, 4.000000, 4.000000, 4.000000, 4.000000, 4.000000, 4.000000, 4.000000, 4.000000, 4.000000, 4.000000
119.000000, 0.000000, 4234.358887, 4098.461426, 4235.897461, 4243.076660, 4237.948730, 4247.692383, 4234.358887, 4221.025391, 4201.538574, 4213.846191, 4226.153809, 4276.410156, 4523.076660, 4223.076660, 3570.000000, 8264.000000, 8218.000000, 0.000000, 0.000000, 0.000000, 24914.000000, 715.384583, 4.000000, 4.000000, 4.000000, 4.000000, 4.000000, 4.000000, 4.000000, 4.000000, 4.000000, 4.000000, 4.000000, 4.000000, 4.000000, 4.000000, 4.000000, 4.000000
120.000000, 0.000000, 4236.410156, 4105.127930, 4243.589844, 4246.666504, 4250.769043, 4245.641113, 4232.820313, 4215.384277, 4200.000000, 4221.538574, 4232.307617, 4278.974121, 4511.794922, 4230.769043, 3504.000000, 8264.000000, 8218.000000, 0.000000, 0.000000, 0.000000, 24914.000000, 723.076904, 4.000000, 4.000000, 4.000000, 4.000000, 4.000000, 4.000000, 4.000000, 4.000000, 4.000000, 4.000000, 4.000000, 4.000000, 4.000000, 4.000000, 4.000000, 4.000000
121.000000, 0.000000, 4243.076660, 4111.794922, 4244.615234, 4245.641113, 4252.307617, 4256.410156, 4251.281738, 4223.076660, 4197.948730, 4232.307617, 4227.692383, 4266.153809, 4500.000000, 4228.717773, 3452.000000, 8260.000000, 8225.000000, 0.000000, 0.000000, 0.000000, 24914.000000, 731.282043, 4.000000, 4.000000, 4.000000, 4.000000, 4.000000, 4.000000, 4.000000, 4.000000, 4.000000, 4.000000, 4.000000, 4.000000, 4.000000, 4.000000, 4.000000, 4.000000
122.000000, 0.000000, 4245.127930, 4113.846191, 4240.512695, 4246.666504, 4253.846191, 4266.666504, 4262.051270, 4237.436035, 4200.000000, 4231.281738, 4225.641113, 4250.256348, 4489.743652, 4227.692383, 3557.000000, 8260.000000, 8225.000000, 0.000000, 0.000000, 0.000000, 24914.000000, 738.974365, 4.000000, 4.000000, 4.000000, 4.000000, 4.000000, 4.000000, 4.000000, 4.000000, 4.000000, 4.000000, 4.000000, 4.000000, 4.000000, 4.000000, 4.000000, 4.000000
123.000000, 0.000000, 4242.563965, 4114.871582, 4238.974121, 4251.281738, 4263.076660, 4265.127930, 4251.281738, 4234.358887, 4202.563965, 4230.256348, 4228.717773, 4251.794922, 4474.871582, 4226.666504, 3570.000000, 8253.000000, 8216.000000, 0.000000, 0.000000, 0.000000, 24914.000000, 747.179443, 4.000000, 4.000000, 4.000000, 4.000000, 4.000000, 4.000000, 4.000000, 4.000000, 4.000000, 4.000000, 4.000000, 4.000000, 4.000000, 4.000000, 4.000000, 4.000000
124.000000, 0.000000, 4246.153809, 4123.076660, 4245.641113, 4257.948730, 4269.230469, 4266.666504, 4244.615234, 4232.307617, 4201.538574, 4242.051270, 4234.871582, 4270.256348, 4461.025391, 4226.153809, 3504.000000, 8253.000000, 8216.000000, 0.000000, 0.000000, 0.000000, 24914.000000, 754.871765, 4.000000, 4.000000, 4.000000, 4.000000, 4.000000, 4.000000, 4.000000, 4.000000, 4.000000, 4.000000, 4.000000, 4.000000, 4.000000, 4.000000, 4.000000, 4.000000
125.000000, 0.000000, 4262.563965, 4137.436035, 4255.384277, 4265.127930, 4281.025391, 4282.563965, 4256.922852, 4248.205078, 4202.051270, 4258.461426, 4248.717773, 4293.846191, 4460.512695, 4243.076660, 3452.000000, 8249.000000, 8209.000000, 0.000000, 0.000000, 0.000000, 24914.000000, 762.564087, 4.000000, 4.000000, 4.000000, 4.000000, 4.000000, 4.000000, 4.000000, 4.000000, 4.000000, 4.000000, 4.000000, 4.000000, 4.000000, 4.000000, 4.000000, 4.000000
126.000000, 0.000000, 4280.000000, 4144.615234, 4260.512695, 4265.127930, 4288.205078, 4289.230469, 4266.666504, 4255.384277, 4204.102539, 4268.717773, 4265.127930, 4305.641113, 4451.281738, 4264.615234, 3557.000000, 8249.000000, 8209.000000, 0.000000, 0.000000, 0.000000, 24914.000000, 770.256409, 4.000000, 4.000000, 4.000000, 4.000000, 4.000000, 4.000000, 4.000000, 4.000000, 4.000000, 4.000000, 4.000000, 4.000000, 4.000000, 4.000000, 4.000000, 4.000000
127.000000, 0.000000, 4280.000000, 4144.102539, 4264.102539, 4262.563965, 4277.948730, 4282.563965, 4266.153809, 4249.230469, 4201.025391, 4262.563965, 4262.051270, 4298.974121, 4422.051270, 4261.538574, 57.000000, 8234.000000, 8204.000000, 0.000000, 0.000000, 0.000000, 24914.000000, 778.461548, 4.000000, 4.000000, 4.000000, 4.000000, 4.000000, 4.000000, 4.000000, 4.000000, 4.000000, 4.000000, 4.000000, 4.000000, 4.000000, 4.000000, 4.000000, 4.000000
0.000000, 0.000000, 4278.974121, 4145.641113, 4269.743652, 4270.769043, 4276.410156, 4284.102539, 4267.692383, 4255.384277, 4199.487305, 4255.897461, 4258.461426, 4299.487305, 4405.641113, 4255.897461, 3016.000000, 8234.000000, 8204.000000, 0.000000, 0.000000, 0.000000, 24914.000000, 786.153809, 4.000000, 4.000000, 4.000000, 4.000000, 4.000000, 4.000000, 4.000000, 4.000000, 4.000000, 4.000000, 4.000000, 4.000000, 4.000000, 4.000000, 4.000000, 4.000000
1.000000, 0.000000, 4291.794922, 4154.358887, 4272.820313, 4284.615234, 4295.384277, 4295.384277, 4271.794922, 4262.563965, 4203.076660, 4271.281738, 4274.358887, 4312.307617, 4412.820313, 4271.281738, 3507.000000, 8226.000000, 8205.000000, 0.000000, 0.000000, 0.000000, 24914.000000, 794.358948, 4.000000, 4.000000, 4.000000, 4.000000, 4.000000, 4.000000, 4.000000, 4.000000, 4.000000, 4.000000, 4.000000, 4.000000, 4.000000, 4.000000, 4.000000, 4.000000
2.000000, 0.000000, 4296.922852, 4160.512695, 4273.333008, 4289.230469, 4301.025391, 4302.563965, 4284.102539, 4264.102539, 4203.589844, 4286.153809, 4282.563965, 4313.333008, 4406.153809, 4281.025391, 3490.000000, 8226.000000, 8205.000000, 0.000000, 0.000000, 0.000000, 24914.000000, 802.051270, 4.000000, 4.000000, 4.000000, 4.000000, 4.000000, 4.000000, 4.000000, 4.000000, 4.000000, 4.000000, 4.000000, 4.000000, 4.000000, 4.000000, 4.000000, 4.000000
3.000000, 0.000000, 4290.769043, 4164.615234, 4277.436035, 4289.743652, 4293.846191, 4299.487305, 4292.307617, 4272.307617, 4202.051270, 4288.205078, 4280.000000, 4313.333008, 4391.281738, 4273.846191, 2239.000000, 8214.000000, 8200.000000, 0.000000, 0.000000, 0.000000, 24914.000000, 809.743591, 4.000000, 4.000000, 4.000000, 4.000000, 4.000000, 4.000000, 4.000000, 4.000000, 4.000000, 4.000000, 4.000000, 4.000000, 4.000000, 4.000000, 4.000000, 4.000000
4.000000, 0.000000, 4295.384277, 4172.307617, 4285.127930, 4297.948730, 4300.000000, 4295.897461, 4284.102539, 4276.922852, 4201.025391, 4296.410156, 4290.256348, 4331.794922, 4398.461426, 4279.487305, 3491.000000, 8214.000000, 8200.000000, 0.000000, 0.000000, 0.000000, 24914.000000, 817.948669, 4.000000, 4.000000, 4.000000, 4.000000, 4.000000, 4.000000, 4.000000, 4.000000, 4.000000, 4.000000, 4.000000, 4.000000, 4.000000, 4.000000, 4.000000, 4.000000
5.000000, 0.000000, 4306.666504, 4177.948730, 4290.256348, 4308.205078, 4310.256348, 4302.051270, 4283.589844, 4284.615234, 4203.076660, 4311.281738, 4305.127930, 4342.563965, 4410.769043, 4292.307617, 3530.000000, 8205.000000, 8203.000000, 0.000000, 0.000000, 0.000000, 24914.000000, 825.640991, 4.000000, 4.000000, 4.000000, 4.000000, 4.000000, 4.000000, 4.000000, 4.000000, 4.000000, 4.000000, 4.000000, 4.000000, 4.000000, 4.000000, 4.000000, 4.000000
6.000000, 0.000000, 4311.794922, 4183.076660, 4295.897461, 4312.820313, 4312.820313, 4313.333008, 4301.025391, 4304.102539, 4212.820313, 4312.820313, 4310.256348, 4342.051270, 4410.769043, 4293.846191, 3402.000000, 8205.000000, 8203.000000, 0.000000, 0.000000, 0.000000, 24914.000000, 833.333313, 4.000000, 4.000000, 4.000000, 4.000000, 4.000000, 4.000000, 4.000000, 4.000000, 4.000000, 4.000000, 4.000000, 4.000000, 4.000000, 4.000000, 4.000000, 4.000000
7.000000, 0.000000, 4314.871582, 4188.205078, 4300.512695, 4314.358887, 4316.922852, 4317.436035, 4308.717773, 4307.692383, 4214.871582, 4310.769043, 4310.769043, 4344.102539, 4409.230469, 4293.333008, 3458.000000, 8201.000000, 8207.000000, 0.000000, 0.000000, 0.000000, 24914.000000, 841.538452, 4.000000, 4.000000, 4.000000, 4.000000, 4.000000, 4.000000, 4.000000, 4.000000, 4.000000, 4.000000, 4.000000, 4.000000, 4.000000, 4.000000, 4.000000, 4.000000
8.000000, 0.000000, 4318.461426, 4189.743652, 4296.922852, 4317.948730, 4324.615234, 4318.461426, 4301.025391, 4298.974121, 4206.666504, 4317.436035, 4311.794922, 4341.538574, 4413.846191, 4296.410156, 907.000000, 8201.000000, 8207.000000, 0.000000, 0.000000, 0.000000, 24914.000000, 849.230774, 4.000000, 4.000000, 4.000000, 4.000000, 4.000000, 4.000000, 4.000000, 4.000000, 4.000000, 4.000000, 4.000000, 4.000000, 4.000000, 4.000000, 4.000000, 4.000000
9.000000, 0.000000, 4322.051270, 4194.871582, 4297.948730, 4325.127930, 4331.281738, 4330.769043, 4306.666504, 4310.769043, 4207.692383, 4329.230469, 4316.410156, 4337.948730, 4415.897461, 4296.410156, 2991.000000, 8197.000000, 8203.000000, 0.000000, 0.000000, 0.000000, 24914.000000, 857.435852, 4.000000, 4.000000, 4.000000, 4.000000, 4.000000, 4.000000, 4.000000, 4.000000, 4.000000, 4.000000, 4.000000, 4.000000, 4.000000, 4.000000, 4.000000, 4.000000
10.000000, 0.000000, 4323.589844, 4203.076660, 4304.102539, 4328.717773, 4338.461426, 4341.538574, 4324.102539, 4324.102539, 4209.743652, 4337.948730, 4326.153809, 4341.025391, 4415.384277, 4297.436035, 3562.000000, 8197.000000, 8203.000000, 0.000000, 0.000000, 0.000000, 24914.000000, 865.128174, 4.000000, 4.000000, 4.000000, 4.000000, 4.000000, 4.000000, 4.000000, 4.000000, 4.000000, 4.000000, 4.000000, 4.000000, 4.000000, 4.000000, 4.000000, 4.000000
11.000000, 0.000000, 4323.589844, 4206.153809, 4306.153809, 4328.205078, 4343.589844, 4343.589844, 4328.717773, 4310.769043, 4201.538574, 4335.897461, 4325.127930, 4347.179199, 4415.384277, 4298.974121, 3571.000000, 8196.000000, 8199.000000, 0.000000, 0.000000, 0.000000, 24914.000000, 872.820496, 4.000000, 4.000000, 4.000000, 4.000000, 4.000000, 4.000000, 4.000000, 4.000000, 4.000000, 4.000000, 4.000000, 4.000000, 4.000000, 4.000000, 4.000000, 4.000000
12.000000, 0.000000, 4324.615234, 4207.692383, 4307.692383, 4324.615234, 4334.358887, 4340.000000, 4322.051270, 4292.820313, 4199.487305, 4326.153809, 4320.000000, 4355.897461, 4406.666504, 4294.871582, 3523.000000, 8196.000000, 8199.000000, 0.000000, 0.000000, 0.000000, 24914.000000, 881.025635, 4.000000, 4.000000, 4.000000, 4.000000, 4.000000, 4.000000, 4.000000, 4.000000, 4.000000, 4.000000, 4.000000, 4.000000, 4.000000, 4.000000, 4.000000, 4.000000
13.000000, 0.000000, 4325.127930, 4209.230469, 4306.666504, 4321.025391, 4323.589844, 4337.948730, 4322.051270, 4293.846191, 4204.102539, 4322.051270, 4325.641113, 4366.153809, 4395.897461, 4293.333008, 3448.000000, 8192.000000, 8198.000000, 0.000000, 0.000000, 0.000000, 24914.000000, 888.717957, 4.000000, 4.000000, 4.000000, 4.000000, 4.000000, 4.000000, 4.000000, 4.000000, 4.000000, 4.000000, 4.000000, 4.000000, 4.000000, 4.000000, 4.000000, 4.000000
14.000000, 0.000000, 4326.666504, 4209.743652, 4306.666504, 4324.615234, 4328.717773, 4336.922852, 4327.692383, 4301.538574, 4200.512695, 4325.641113, 4325.641113, 4365.641113, 4396.410156, 4300.000000, 3562.000000, 8192.000000, 8198.000000, 0.000000, 0.000000, 0.000000, 24914.000000, 896.410217, 4.000000, 4.000000, 4.000000, 4.000000, 4.000000, 4.000000, 4.000000, 4.000000, 4.000000, 4.000000, 4.000000, 4.000000, 4.000000, 4.000000, 4.000000, 4.000000
15.000000, 0.000000, 4325.641113, 4210.769043, 4308.205078, 4328.205078, 4335.384277, 4333.846191, 4324.102539, 4304.102539, 4198.461426, 4325.641113, 4318.974121, 4355.897461, 4396.922852, 4304.102539, 3571.000000, 8187.000000, 8194.000000, 0.000000, 0.000000, 0.000000, 24914.000000, 904.615356, 4.000000, 4.000000, 4.000000, 4.000000, 4.000000, 4.000000, 4.000000, 4.000000, 4.000000, 4.000000, 4.000000, 4.000000, 4.000000, 4.000000, 4.000000, 4.000000
16.000000, 0.000000, 4324.615234, 4212.820313, 4309.230469, 4324.615234, 4332.307617, 4335.384277, 4321.025391, 4315.897461, 4201.538574, 4329.743652, 4320.512695, 4354.358887, 4388.717773, 4306.153809, 0.000000, 8187.000000, 8194.000000, 0.000000, 0.000000, 0.000000, 24914.000000, 912.307678, 4.000000, 4.000000, 4.000000, 4.000000, 4.000000, 4.000000, 4.000000, 4.000000, 4.000000, 4.000000, 4.000000, 4.000000, 4.000000, 4.000000, 4.000000, 4.000000
17.000000, 0.000000, 4332.820313, 4220.512695, 4316.922852, 4327.179199, 4334.871582, 4342.051270, 4325.127930, 4334.871582, 4205.127930, 4340.000000, 4331.794922, 4361.538574, 4388.717773, 4312.307617, 0.000000, 8185.000000, 8188.000000, 0.000000, 0.000000, 0.000000, 24914.000000, 920.512817, 4.000000, 4.000000, 4.000000, 4.000000, 4.000000, 4.000000, 4.000000, 4.000000, 4.000000, 4.000000, 4.000000, 4.000000, 4.000000, 4.000000, 4.000000, 4.000000
18.000000, 0.000000, 4346.153809, 4228.205078, 4324.102539, 4337.436035, 4344.615234, 4345.641113, 4327.179199, 4336.410156, 4204.615234, 4342.563965, 4341.025391, 4369.230469, 4394.871582, 4323.076660, 0.000000, 8185.000000, 8188.000000, 0.000000, 0.000000, 0.000000, 24914.000000, 928.205078, 4.000000, 4.000000, 4.000000, 4.000000, 4.000000, 4.000000, 4.000000, 4.000000, 4.000000, 4.000000, 4.000000, 4.000000, 4.000000, 4.000000, 4.000000, 4.000000
19.000000, 0.000000, 4350.256348, 4234.871582, 4325.127930, 4342.051270, 4344.615234, 4340.512695, 4321.025391, 4330.256348, 4202.563965, 4345.127930, 4342.051270, 4374.358887, 4391.281738, 4326.666504, 0.000000, 8175.000000, 8184.000000, 0.000000, 0.000000, 0.000000, 24914.000000, 936.410217, 4.000000, 4.000000, 4.000000, 4.000000, 4.000000, 4.000000, 4.000000, 4.000000, 4.000000, 4.000000, 4.000000, 4.000000, 4.000000, 4.000000, 4.000000, 4.000000
20.000000, 0.000000, 4353.846191, 4238.461426, 4327.179199, 4343.076660, 4337.948730, 4338.461426, 4321.025391, 4333.333008, 4206.153809, 4353.846191, 4343.589844, 4381.025391, 4389.743652, 4324.102539, 0.000000, 8175.000000, 8184.000000, 0.000000, 0.000000, 0.000000, 24914.000000, 944.102539, 4.000000, 4.000000, 4.000000, 4.000000, 4.000000, 4.000000, 4.000000, 4.000000, 4.000000, 4.000000, 4.000000, 4.000000, 4.000000, 4.000000, 4.000000, 4.000000
21.000000, 0.000000, 4364.615234, 4245.127930, 4335.384277, 4352.307617, 4345.641113, 4347.179199, 4331.794922, 4340.000000, 4211.281738, 4360.512695, 4354.358887, 4392.307617, 4396.410156, 4330.256348, 0.000000, 8172.000000, 8182.000000, 0.000000, 0.000000, 0.000000, 24914.000000, 951.794861, 4.000000, 4.000000, 4.000000, 4.000000, 4.000000, 4.000000, 4.000000, 4.000000, 4.000000, 4.000000, 4.000000, 4.000000, 4.000000, 4.000000, 4.000000, 4.000000
22.000000, 0.000000, 4374.871582, 4260.000000, 4346.666504, 4363.076660, 4365.127930, 4356.410156, 4341.538574, 4345.641113, 4211.794922, 4359.487305, 4366.153809, 4402.563965, 4400.512695, 4346.153809, 0.000000, 8172.000000, 8182.000000, 0.000000, 0.000000, 0.000000, 24914.000000, 960.000000, 4.000000, 4.000000, 4.000000, 4.000000, 4.000000, 4.000000, 4.000000, 4.000000, 4.000000, 4.000000, 4.000000, 4.000000, 4.000000, 4.000000, 4.000000, 4.000000
23.000000, 0.000000, 4381.025391, 4266.153809, 4351.794922, 4369.743652, 4374.871582, 4361.025391, 4347.692383, 4345.641113, 4207.692383, 4362.051270, 4368.717773, 4403.589844, 4397.948730, 4357.435547, 0.000000, 8166.000000, 8191.000000, 0.000000, 0.000000, 0.000000, 24914.000000, 967.692261, 4.000000, 4.000000, 4.000000, 4.000000, 4.000000, 4.000000, 4.000000, 4.000000, 4.000000, 4.000000, 4.000000, 4.000000, 4.000000, 4.000000, 4.000000, 4.000000
24.000000, 0.000000, 4384.102539, 4263.589844, 4348.717773, 4373.333008, 4374.871582, 4365.641113, 4355.897461, 4338.461426, 4203.589844, 4364.615234, 4367.179199, 4401.025391, 4390.256348, 4360.000000, 0.000000, 8166.000000, 8191.000000, 0.000000, 0.000000, 0.000000, 24914.000000, 975.384583, 4.000000, 4.000000, 4.000000, 4.000000, 4.000000, 4.000000, 4.000000, 4.000000, 4.000000, 4.000000, 4.000000, 4.000000, 4.000000, 4.000000, 4.000000, 4.000000
25.000000, 0.000000, 4382.563965, 4268.717773, 4348.717773, 4375.384277, 4375.897461, 4370.769043, 4361.538574, 4338.461426, 4203.589844, 4361.538574, 4368.205078, 4401.025391, 4380.000000, 4361.025391, 0.000000, 8167.000000, 8186.000000, 0.000000, 0.000000, 0.000000, 24914.000000, 983.589722, 4.000000, 4.000000, 4.000000, 4.000000, 4.000000, 4.000000, 4.000000, 4.000000, 4.000000, 4.000000, 4.000000, 4.000000, 4.000000, 4.000000, 4.000000, 4.000000
26.000000, 0.000000, 4376.922852, 4274.871582, 4347.179199, 4375.384277, 4376.922852, 4370.256348, 4355.897461, 4344.615234, 4204.102539, 4357.948730, 4368.205078, 4401.025391, 4368.717773, 4356.922852, 0.000000, 8167.000000, 8186.000000, 0.000000, 0.000000, 0.000000, 24914.000000, 991.282043, 4.000000, 4.000000, 4.000000, 4.000000, 4.000000, 4.000000, 4.000000, 4.000000, 4.000000, 4.000000, 4.000000, 4.000000, 4.000000, 4.000000, 4.000000, 4.000000
27.000000, 0.000000, 4370.256348, 4270.256348, 4340.000000, 4366.666504, 4376.922852, 4367.692383, 4346.153809, 4343.589844, 4202.563965, 4348.717773, 4361.538574, 4396.922852, 4348.717773, 4345.127930, 0.000000, 8168.000000, 8181.000000, 0.000000, 0.000000, 0.000000, 24914.000000, 999.487183, 4.000000, 4.000000, 4.000000, 4.000000, 4.000000, 4.000000, 4.000000, 4.000000, 4.000000, 4.000000, 4.000000, 4.000000, 4.000000, 4.000000, 4.000000, 4.000000
28.000000, 0.000000, 4363.076660, 4264.615234, 4333.333008, 4356.410156, 4376.922852, 4368.205078, 4345.641113, 4341.025391, 4201.538574, 4338.974121, 4350.256348, 4388.717773, 4325.641113, 4332.820313, 0.000000, 8168.000000, 8181.000000, 0.000000, 0.000000, 0.000000, 24915.000000, 7.179487, 4.000000, 4.000000, 4.000000, 4.000000, 4.000000, 4.000000, 4.000000, 4.000000, 4.000000, 4.000000, 4.000000, 4.000000, 4.000000, 4.000000, 4.000000, 4.000000
29.000000, 0.000000, 4364.615234, 4267.179199, 4334.358887, 4360.512695, 4375.897461, 4368.205078, 4352.820313, 4340.512695, 4202.563965, 4345.127930, 4349.230469, 4386.666504, 4321.538574, 4330.769043, 0.000000, 8174.000000, 8179.000000, 0.000000, 0.000000, 0.000000, 24915.000000, 14.871795, 4.000000, 4.000000, 4.000000, 4.000000, 4.000000, 4.000000, 4.000000, 4.000000, 4.000000, 4.000000, 4.000000, 4.000000, 4.000000, 4.000000, 4.000000, 4.000000
30.000000, 0.000000, 4366.666504, 4268.205078, 4337.436035, 4364.102539, 4370.769043, 4363.589844, 4352.820313, 4340.000000, 4202.563965, 4360.512695, 4357.435547, 4395.384277, 4322.563965, 4337.436035, 0.000000, 8174.000000, 8179.000000, 0.000000, 0.000000, 0.000000, 24915.000000, 23.076923, 4.000000, 4.000000, 4.000000, 4.000000, 4.000000, 4.000000, 4.000000, 4.000000, 4.000000, 4.000000, 4.000000, 4.000000, 4.000000, 4.000000, 4.000000, 4.000000
31.000000, 0.000000, 4358.461426, 4263.076660, 4333.846191, 4356.922852, 4362.563965, 4358.461426, 4349.230469, 4343.076660, 4202.563965, 4365.641113, 4360.512695, 4396.410156, 4313.846191, 4336.922852, 0.000000, 8175.000000, 8179.000000, 0.000000, 0.000000, 0.000000, 24915.000000, 30.769230, 4.000000, 4.000000, 4.000000, 4.000000, 4.000000, 4.000000, 4.000000, 4.000000, 4.000000, 4.000000, 4.000000, 4.000000, 4.000000, 4.000000, 4.000000, 4.000000
32.000000, 0.000000, 4356.410156, 4270.769043, 4334.358887, 4357.435547, 4358.461426, 4354.358887, 4349.743652, 4344.615234, 4201.538574, 4366.153809, 4360.000000, 4388.205078, 4308.205078, 4335.897461, 0.000000, 8175.000000, 8179.000000, 0.000000, 0.000000, 0.000000, 24915.000000, 38.974358, 4.000000, 4.000000, 4.000000, 4.000000, 4.000000, 4.000000, 4.000000, 4.000000, 4.000000, 4.000000, 4.000000, 4.000000, 4.000000, 4.000000, 4.000000, 4.000000
33.000000, 0.000000, 4363.589844, 4282.563965, 4337.948730, 4367.179199, 4368.205078, 4355.384277, 4346.666504, 4340.512695, 4201.025391, 4369.230469, 4359.487305, 4389.743652, 4303.589844, 4341.538574, 0.000000, 8180.000000, 8175.000000, 0.000000, 0.000000, 0.000000, 24915.000000, 46.666664, 4.000000, 4.000000, 4.000000, 4.000000, 4.000000, 4.000000, 4.000000, 4.000000, 4.000000, 4.000000, 4.000000, 4.000000, 4.000000, 4.000000, 4.000000, 4.000000
34.000000, 0.000000, 4362.051270, 4277.436035, 4335.897461, 4366.666504, 4377.435547, 4364.615234, 4350.256348, 4337.948730, 4203.076660, 4365.127930, 4356.922852, 4393.333008, 4295.897461, 4338.461426, 0.000000, 8180.000000, 8175.000000, 0.000000, 0.000000, 0.000000, 24915.000000, 54.871792, 4.000000, 4.000000, 4.000000, 4.000000, 4.000000, 4.000000, 4.000000, 4.000000, 4.000000, 4.000000, 4.000000, 4.000000, 4.000000, 4.000000, 4.000000, 4.000000
35.000000, 0.000000, 4353.333008, 4271.281738, 4330.769043, 4362.051270, 4366.666504, 4366.153809, 4353.333008, 4339.487305, 4203.589844, 4363.076660, 4353.333008, 4385.127930, 4292.820313, 4325.641113, 0.000000, 8187.000000, 8174.000000, 0.000000, 0.000000, 0.000000, 24915.000000, 62.564102, 4.000000, 4.000000, 4.000000, 4.000000, 4.000000, 4.000000, 4.000000, 4.000000, 4.000000, 4.000000, 4.000000, 4.000000, 4.000000, 4.000000, 4.000000, 4.000000
36.000000, 0.000000, 4355.897461, 4281.025391, 4328.717773, 4364.102539, 4358.974121, 4358.461426, 4346.153809, 4343.589844, 4203.076660, 4366.666504, 4354.871582, 4380.512695, 4289.230469, 4326.153809, 0.000000, 8187.000000, 8174.000000, 0.000000, 0.000000, 0.000000, 24915.000000, 70.256409, 4.000000, 4.000000, 4.000000, 4.000000, 4.000000, 4.000000, 4.000000, 4.000000, 4.000000, 4.000000, 4.000000, 4.000000, 4.000000, 4.000000, 4.000000, 4.000000
37.000000, 0.000000, 4362.563965, 4288.717773, 4334.871582, 4366.153809, 4367.179199, 4356.922852, 4345.641113, 4345.641113, 4203.589844, 4362.563965, 4355.384277, 4384.102539, 4280.512695, 4332.820313, 0.000000, 8192.000000, 8170.000000, 0.000000, 0.000000, 0.000000, 24915.000000, 78.461540, 4.000000, 4.000000, 4.000000, 4.000000, 4.000000, 4.000000, 4.000000, 4.000000, 4.000000, 4.000000, 4.000000, 4.000000, 4.000000, 4.000000, 4.000000, 4.000000
38.000000, 0.000000, 4360.000000, 4281.538574, 4340.000000, 4363.076660, 4367.179199, 4357.435547, 4349.230469, 4334.871582, 4202.563965, 4352.307617, 4351.281738, 4382.051270, 4277.436035, 4330.256348, 0.000000, 8192.000000, 8170.000000, 0.000000, 0.000000, 0.000000, 24915.000000, 86.153847, 4.000000, 4.000000, 4.000000, 4.000000, 4.000000, 4.000000, 4.000000, 4.000000, 4.000000, 4.000000, 4.000000, 4.000000, 4.000000, 4.000000, 4.000000, 4.000000
39.000000, 0.000000, 4358.974121, 4281.025391, 4341.538574, 4363.589844, 4358.461426, 4356.410156, 4344.102539, 4329.743652, 4201.538574, 4351.794922, 4350.769043, 4385.127930, 4276.410156, 4330.256348, 0.000000, 8195.000000, 8169.000000, 0.000000, 0.000000, 0.000000, 24915.000000, 94.358971, 4.000000, 4.000000, 4.000000, 4.000000, 4.000000, 4.000000, 4.000000, 4.000000, 4.000000, 4.000000, 4.000000, 4.000000, 4.000000, 4.000000, 4.000000, 4.000000
40.000000, 0.000000, 4363.076660, 4287.179199, 4341.538574, 4366.666504, 4357.435547, 4358.974121, 4342.051270, 4342.051270, 4202.563965, 4352.820313, 4352.307617, 4392.307617, 4264.102539, 4334.871582, 0.000000, 8195.000000, 8169.000000, 0.000000, 0.000000, 0.000000, 24915.000000, 102.051277, 4.000000, 4.000000, 4.000000, 4.000000, 4.000000, 4.000000, 4.000000, 4.000000, 4.000000, 4.000000, 4.000000, 4.000000, 4.000000, 4.000000, 4.000000, 4.000000
41.000000, 0.000000, 4356.922852, 4280.000000, 4332.820313, 4361.538574, 4359.487305, 4360.000000, 4343.076660, 4336.922852, 4200.512695, 4339.487305, 4342.051270, 4383.589844, 4246.666504, 4329.743652, 0.000000, 8196.000000, 8168.000000, 0.000000, 0.000000, 0.000000, 24915.000000, 110.256409, 4.000000, 4.000000, 4.000000, 4.000000, 4.000000, 4.000000, 4.000000, 4.000000, 4.000000, 4.000000, 4.000000, 4.000000, 4.000000, 4.000000, 4.000000, 4.000000
42.000000, 0.000000, 4346.666504, 4272.820313, 4326.153809, 4355.897461, 4360.000000, 4357.948730, 4335.384277, 4310.256348, 4198.461426, 4324.615234, 4326.666504, 4371.281738, 4229.743652, 4316.410156, 0.000000, 8196.000000, 8168.000000, 0.000000, 0.000000, 0.000000, 24915.000000, 117.948715, 4.000000, 4.000000, 4.000000, 4.000000, 4.000000, 4.000000, 4.000000, 4.000000, 4.000000, 4.000000, 4.000000, 4.000000, 4.000000, 4.000000, 4.000000, 4.000000
43.000000, 0.000000, 4346.666504, 4276.410156, 4323.589844, 4356.922852, 4364.102539, 4362.563965, 4334.358887, 4309.743652, 4201.025391, 4323.589844, 4324.102539, 4370.256348, 4219.487305, 4310.769043, 0.000000, 8203.000000, 8169.000000, 0.000000, 0.000000, 0.000000, 24915.000000, 126.153847, 4.000000, 4.000000, 4.000000, 4.000000, 4.000000, 4.000000, 4.000000, 4.000000, 4.000000, 4.000000, 4.000000, 4.000000, 4.000000, 4.000000, 4.000000, 4.000000
44.000000, 0.000000, 4344.102539, 4277.948730, 4316.410156, 4352.307617, 4361.538574, 4361.538574, 4340.512695, 4321.538574, 4202.563965, 4327.692383, 4327.692383, 4365.641113, 4217.948730, 4312.307617, 0.000000, 8203.000000, 8169.000000, 0.000000, 0.000000, 0.000000, 24915.000000, 133.846146, 4.000000, 4.000000, 4.000000, 4.000000, 4.000000, 4.000000, 4.000000, 4.000000, 4.000000, 4.000000, 4.000000, 4.000000, 4.000000, 4.000000, 4.000000, 4.000000
45.000000, 0.000000, 4337.436035, 4274.871582, 4310.256348, 4347.179199, 4353.333008, 4346.666504, 4334.871582, 4313.333008, 4200.512695, 4324.615234, 4324.615234, 4358.461426, 4215.384277, 4309.743652, 0.000000, 8203.000000, 8170.000000, 0.000000, 0.000000, 0.000000, 24915.000000, 141.538452, 4.000000, 4.000000, 4.000000, 4.000000, 4.000000, 4.000000, 4.000000, 4.000000, 4.000000, 4.000000, 4.000000, 4.000000, 4.000000, 4.000000, 4.000000, 4.000000
46.000000, 0.000000, 4343.076660, 4271.794922, 4313.333008, 4352.820313, 4351.281738, 4339.487305, 4329.230469, 4307.692383, 4200.000000, 4325.127930, 4324.102539, 4361.025391, 4215.384277, 4310.256348, 0.000000, 8203.000000, 8170.000000, 0.000000, 0.000000, 0.000000, 24915.000000, 149.743591, 4.000000, 4.000000, 4.000000, 4.000000, 4.000000, 4.000000, 4.000000, 4.000000, 4.000000, 4.000000, 4.000000, 4.000000, 4.000000, 4.000000, 4.000000, 4.000000
47.000000, 0.000000, 4348.205078, 4269.743652, 4317.436035, 4355.384277, 4348.717773, 4337.436035, 4332.307617, 4310.769043, 4202.051270, 4331.794922, 4326.153809, 4366.153809, 4216.922852, 4313.846191, 0.000000, 8209.000000, 8173.000000, 0.000000, 0.000000, 0.000000, 24915.000000, 157.435898, 4.000000, 4.000000, 4.000000, 4.000000, 4.000000, 4.000000, 4.000000, 4.000000, 4.000000, 4.000000, 4.000000, 4.000000, 4.000000, 4.000000, 4.000000, 4.000000
48.000000, 0.000000, 4341.025391, 4269.230469, 4313.333008, 4348.717773, 4340.000000, 4328.717773, 4328.717773, 4310.769043, 4202.563965, 4339.487305, 4330.256348, 4372.307617, 4216.922852, 4315.384277, 0.000000, 8209.000000, 8173.000000, 0.000000, 0.000000, 0.000000, 24915.000000, 165.128204, 4.000000, 4.000000, 4.000000, 4.000000, 4.000000, 4.000000, 4.000000, 4.000000, 4.000000, 4.000000, 4.000000, 4.000000, 4.000000, 4.000000, 4.000000, 4.000000
49.000000, 0.000000, 4341.025391, 4271.794922, 4311.794922, 4352.307617, 4341.538574, 4331.794922, 4318.974121, 4313.333008, 4202.051270, 4348.717773, 4342.563965, 4382.051270, 4218.461426, 4319.487305, 0.000000, 8209.000000, 8180.000000, 0.000000, 0.000000, 0.000000, 24915.000000, 173.333328, 4.000000, 4.000000, 4.000000, 4.000000, 4.000000, 4.000000, 4.000000, 4.000000, 4.000000, 4.000000, 4.000000, 4.000000, 4.000000, 4.000000, 4.000000, 4.000000
50.000000, 0.000000, 4344.102539, 4271.281738, 4314.871582, 4360.512695, 4353.333008, 4345.127930, 4321.025391, 4318.461426, 4203.589844, 4351.281738, 4344.615234, 4383.076660, 4214.871582, 4320.512695, 0.000000, 8209.000000, 8180.000000, 0.000000, 0.000000, 0.000000, 24915.000000, 181.025635, 4.000000, 4.000000, 4.000000, 4.000000, 4.000000, 4.000000, 4.000000, 4.000000, 4.000000, 4.000000, 4.000000, 4.000000, 4.000000, 4.000000, 4.000000, 4.000000
51.000000, 0.000000, 4333.333008, 4265.641113, 4306.666504, 4354.871582, 4355.384277, 4344.102539, 4328.205078, 4320.512695, 4206.666504, 4345.127930, 4332.820313, 4374.358887, 4201.538574, 4313.846191, 0.000000, 8210.000000, 8173.000000, 0.000000, 0.000000, 0.000000, 24915.000000, 189.230759, 4.000000, 4.000000, 4.000000, 4.000000, 4.000000, 4.000000, 4.000000, 4.000000, 4.000000, 4.000000, 4.000000, 4.000000, 4.000000, 4.000000, 4.000000, 4.000000
52.000000, 0.000000, 4326.153809, 4267.179199, 4299.487305, 4348.717773, 4351.794922, 4341.025391, 4328.717773, 4324.102539, 4203.589844, 4341.538574, 4326.666504, 4368.717773, 4184.615234, 4307.179199, 0.000000, 8210.000000, 8173.000000, 0.000000, 0.000000, 0.000000, 24915.000000, 196.923065, 4.000000, 4.000000, 4.000000, 4.000000, 4.000000, 4.000000, 4.000000, 4.000000, 4.000000, 4.000000, 4.000000, 4.000000, 4.000000, 4.000000, 4.000000, 4.000000
53.000000, 0.000000, 4328.205078, 4265.127930, 4302.563965, 4349.230469, 4351.281738, 4345.641113, 4327.692383, 4324.615234, 4197.436035, 4331.281738, 4318.461426, 4361.538574, 4162.051270, 4301.025391, 0.000000, 8212.000000, 8176.000000, 0.000000, 0.000000, 0.000000, 24915.000000, 204.615387, 4.000000, 4.000000, 4.000000, 4.000000, 4.000000, 4.000000, 4.000000, 4.000000, 4.000000, 4.000000, 4.000000, 4.000000, 4.000000, 4.000000, 4.000000, 4.000000
54.000000, 0.000000, 4325.641113, 4252.307617, 4303.589844, 4345.127930, 4346.153809, 4336.410156, 4324.102539, 4322.051270, 4198.974121, 4313.846191, 4301.538574, 4349.230469, 4136.922852, 4291.794922, 0.000000, 8212.000000, 8176.000000, 0.000000, 0.000000, 0.000000, 24915.000000, 212.307693, 4.000000, 4.000000, 4.000000, 4.000000, 4.000000, 4.000000, 4.000000, 4.000000, 4.000000, 4.000000, 4.000000, 4.000000, 4.000000, 4.000000, 4.000000, 4.000000
55.000000, 0.000000, 4324.102539, 4250.256348, 4302.563965, 4339.487305, 4336.922852, 4321.538574, 4316.922852, 4320.512695, 4203.589844, 4309.230469, 4300.512695, 4349.230469, 4129.743652, 4288.205078, 0.000000, 8214.000000, 8174.000000, 0.000000, 0.000000, 0.000000, 24915.000000, 220.512817, 4.000000, 4.000000, 4.000000, 4.000000, 4.000000, 4.000000, 4.000000, 4.000000, 4.000000, 4.000000, 4.000000, 4.000000, 4.000000, 4.000000, 4.000000, 4.000000
56.000000, 0.000000, 4332.820313, 4257.948730, 4305.641113, 4344.615234, 4331.794922, 4320.512695, 4312.820313, 4315.897461, 4203.076660, 4319.487305, 4318.974121, 4365.127930, 4138.974121, 4297.948730, 0.000000, 8214.000000, 8174.000000, 0.000000, 0.000000, 0.000000, 24915.000000, 228.205124, 4.000000, 4.000000, 4.000000, 4.000000, 4.000000, 4.000000, 4.000000, 4.000000, 4.000000, 4.000000, 4.000000, 4.000000, 4.000000, 4.000000, 4.000000, 4.000000
57.000000, 0.000000, 4336.410156, 4258.461426, 4306.153809, 4345.641113, 4333.846191, 4324.102539, 4315.384277, 4302.563965, 4201.025391, 4325.127930, 4329.743652, 4377.948730, 4140.512695, 4309.230469, 0.000000, 8214.000000, 8171.000000, 0.000000, 0.000000, 0.000000, 24915.000000, 235.897430, 4.000000, 4.000000, 4.000000, 4.000000, 4.000000, 4.000000, 4.000000, 4.000000, 4.000000, 4.000000, 4.000000, 4.000000, 4.000000, 4.000000, 4.000000, 4.000000
58.000000, 0.000000, 4327.179199, 4252.307617, 4300.512695, 4336.410156, 4338.461426, 4326.153809, 4324.102539, 4292.307617, 4200.512695, 4325.127930, 4328.717773, 4377.435547, 4131.281738, 4313.333008, 0.000000, 8214.000000, 8171.000000, 0.000000, 0.000000, 0.000000, 24915.000000, 244.102554, 4.000000, 4.000000, 4.000000, 4.000000, 4.000000, 4.000000, 4.000000, 4.000000, 4.000000, 4.000000, 4.000000, 4.000000, 4.000000, 4.000000, 4.000000, 4.000000
59.000000, 0.000000, 4324.615234, 4251.794922, 4297.948730, 4332.307617, 4334.358887, 4327.179199, 4327.179199, 4300.512695, 4201.538574, 4327.692383, 4326.153809, 4370.769043, 4119.487305, 4308.205078, 0.000000, 8215.000000, 8174.000000, 0.000000, 0.000000, 0.000000, 24915.000000, 251.794861, 4.000000, 4.000000, 4.000000, 4.000000, 4.000000, 4.000000, 4.000000, 4.000000, 4.000000, 4.000000, 4.000000, 4.000000, 4.000000, 4.000000, 4.000000, 4.000000
60.000000, 0.000000, 4329.230469, 4252.820313, 4302.563965, 4333.333008, 4328.717773, 4328.205078, 4322.051270, 4309.743652, 4201.538574, 4327.692383, 4319.487305, 4358.974121, 4107.692383, 4295.897461, 0.000000, 8215.000000, 8174.000000, 0.000000, 0.000000, 0.000000, 24915.000000, 259.487183, 4.000000, 4.000000, 4.000000, 4.000000, 4.000000, 4.000000, 4.000000, 4.000000, 4.000000, 4.000000, 4.000000, 4.000000, 4.000000, 4.000000, 4.000000, 4.000000
61.000000, 0.000000, 4321.025391, 4245.127930, 4297.948730, 4327.692383, 4329.230469, 4326.153809, 4317.436035, 4298.461426, 4200.512695, 4319.487305, 4303.589844, 4342.051270, 4090.769043, 4281.538574, 0.000000, 8214.000000, 8181.000000, 0.000000, 0.000000, 0.000000, 24915.000000, 267.692291, 4.000000, 4.000000, 4.000000, 4.000000, 4.000000, 4.000000, 4.000000, 4.000000, 4.000000, 4.000000, 4.000000, 4.000000, 4.000000, 4.000000, 4.000000, 4.000000
62.000000, 0.000000, 4309.230469, 4239.487305, 4289.230469, 4323.076660, 4326.666504, 4322.051270, 4315.897461, 4288.717773, 4202.051270, 4310.256348, 4290.256348, 4331.794922, 4073.333252, 4272.820313, 0.000000, 8214.000000, 8181.000000, 0.000000, 0.000000, 0.000000, 24915.000000, 275.384613, 4.000000, 4.000000, 4.000000, 4.000000, 4.000000, 4.000000, 4.000000, 4.000000, 4.000000, 4.000000, 4.000000, 4.000000, 4.000000, 4.000000, 4.000000, 4.000000
63.000000, 0.000000, 4314.871582, 4244.615234, 4291.794922, 4329.230469, 4330.769043, 4328.717773, 4323.589844, 4296.410156, 4202.563965, 4307.692383, 4298.461426, 4338.461426, 4074.871582, 4282.563965, 0.000000, 8216.000000, 8176.000000, 0.000000, 0.000000, 0.000000, 24915.000000, 283.589722, 4.000000, 4.000000, 4.000000, 4.000000, 4.000000, 4.000000, 4.000000, 4.000000, 4.000000, 4.000000, 4.000000, 4.000000, 4.000000, 4.000000, 4.000000, 4.000000
64.000000, 0.000000, 4326.666504, 4250.256348, 4298.461426, 4337.436035, 4348.205078, 4348.205078, 4335.897461, 4301.538574, 4201.025391, 4315.897461, 4317.436035, 4353.846191, 4088.717773, 4299.487305, 3012.000000, 8216.000000, 8176.000000, 0.000000, 0.000000, 0.000000, 24915.000000, 291.282043, 4.000000, 4.000000, 4.000000, 4.000000, 4.000000, 4.000000, 4.000000, 4.000000, 4.000000, 4.000000, 4.000000, 4.000000, 4.000000, 4.000000, 4.000000, 4.000000
65.000000, 0.000000, 4333.333008, 4252.820313, 4298.974121, 4341.538574, 4354.358887, 4354.358887, 4337.436035, 4314.358887, 4210.256348, 4330.769043, 4330.769043, 4367.692383, 4098.461426, 4313.333008, 3502.000000, 8214.000000, 8172.000000, 0.000000, 0.000000, 0.000000, 24915.000000, 298.974365, 4.000000, 4.000000, 4.000000, 4.000000, 4.000000, 4.000000, 4.000000, 4.000000, 4.000000, 4.000000, 4.000000, 4.000000, 4.000000, 4.000000, 4.000000, 4.000000
66.000000, 0.000000, 4335.897461, 4253.333008, 4298.974121, 4343.076660, 4348.205078, 4344.615234, 4333.333008, 4336.922852, 4218.974121, 4343.589844, 4341.025391, 4376.410156, 4105.641113, 4324.615234, 3498.000000, 8214.000000, 8172.000000, 0.000000, 0.000000, 0.000000, 24915.000000, 306.666656, 4.000000, 4.000000, 4.000000, 4.000000, 4.000000, 4.000000, 4.000000, 4.000000, 4.000000, 4.000000, 4.000000, 4.000000, 4.000000, 4.000000, 4.000000, 4.000000
67.000000, 0.000000, 4337.948730, 4253.333008, 4308.205078, 4342.563965, 4353.846191, 4345.127930, 4335.384277, 4340.512695, 4210.769043, 4345.641113, 4345.641113, 4378.974121, 4107.692383, 4327.179199, 2232.000000, 8210.000000, 8160.000000, 0.000000, 0.000000, 0.000000, 24915.000000, 314.871796, 4.000000, 4.000000, 4.000000, 4.000000, 4.000000, 4.000000, 4.000000, 4.000000, 4.000000, 4.000000, 4.000000, 4.000000, 4.000000, 4.000000, 4.000000, 4.000000
68.000000, 0.000000, 4342.563965, 4251.281738, 4316.922852, 4343.076660, 4356.922852, 4348.205078, 4327.692383, 4324.102539, 4201.538574, 4336.410156, 4337.436035, 4374.358887, 4094.871582, 4320.512695, 3506.000000, 8210.000000, 8160.000000, 0.000000, 0.000000, 0.000000, 24915.000000, 322.564087, 4.000000, 4.000000, 4.000000, 4.000000, 4.000000, 4.000000, 4.000000, 4.000000, 4.000000, 4.000000, 4.000000, 4.000000, 4.000000, 4.000000, 4.000000, 4.000000
69.000000, 0.000000, 4342.563965, 4245.641113, 4315.897461, 4344.615234, 4351.281738, 4343.589844, 4317.948730, 4313.333008, 4202.563965, 4327.692383, 4327.692383, 4368.205078, 4077.435791, 4312.820313, 3539.000000, 8203.000000, 8159.000000, 0.000000, 0.000000, 0.000000, 24915.000000, 330.769226, 4.000000, 4.000000, 4.000000, 4.000000, 4.000000, 4.000000, 4.000000, 4.000000, 4.000000, 4.000000, 4.000000, 4.000000, 4.000000, 4.000000, 4.000000, 4.000000
70.000000, 0.000000, 4335.897461, 4243.589844, 4314.871582, 4345.127930, 4351.794922, 4342.051270, 4322.051270, 4309.230469, 4201.538574, 4317.948730, 4325.641113, 4370.769043, 4071.794678, 4314.871582, 3396.000000, 8203.000000, 8159.000000, 0.000000, 0.000000, 0.000000, 24915.000000, 338.461517, 4.000000, 4.000000, 4.000000, 4.000000, 4.000000, 4.000000, 4.000000, 4.000000, 4.000000, 4.000000, 4.000000, 4.000000, 4.000000, 4.000000, 4.000000, 4.000000
71.000000, 0.000000, 4334.358887, 4245.127930, 4317.436035, 4342.563965, 4347.692383, 4343.589844, 4323.076660, 4299.487305, 4199.487305, 4309.743652, 4326.666504, 4377.948730, 4068.717773, 4319.487305, 3464.000000, 8197.000000, 8171.000000, 0.000000, 0.000000, 0.000000, 24915.000000, 346.153839, 4.000000, 4.000000, 4.000000, 4.000000, 4.000000, 4.000000, 4.000000, 4.000000, 4.000000, 4.000000, 4.000000, 4.000000, 4.000000, 4.000000, 4.000000, 4.000000
72.000000, 0.000000, 4340.000000, 4246.153809, 4315.897461, 4337.948730, 4338.974121, 4344.615234, 4322.563965, 4291.281738, 4201.538574, 4314.871582, 4333.333008, 4381.538574, 4067.179443, 4325.127930, 907.000000, 8197.000000, 8171.000000, 0.000000, 0.000000, 0.000000, 24915.000000, 353.846130, 4.000000, 4.000000, 4.000000, 4.000000, 4.000000, 4.000000, 4.000000, 4.000000, 4.000000, 4.000000, 4.000000, 4.000000, 4.000000, 4.000000, 4.000000, 4.000000
73.000000, 0.000000, 4341.538574, 4245.641113, 4314.358887, 4335.384277, 4347.179199, 4349.743652, 4335.384277, 4303.076660, 4203.076660, 4326.666504, 4341.025391, 4381.025391, 4067.692139, 4332.820313, 2979.000000, 8191.000000, 8179.000000, 0.000000, 0.000000, 0.000000, 24915.000000, 362.051270, 4.000000, 4.000000, 4.000000, 4.000000, 4.000000, 4.000000, 4.000000, 4.000000, 4.000000, 4.000000, 4.000000, 4.000000, 4.000000, 4.000000, 4.000000, 4.000000
74.000000, 0.000000, 4343.589844, 4242.563965, 4315.384277, 4338.974121, 4362.051270, 4353.333008, 4346.666504, 4329.230469, 4205.127930, 4329.743652, 4342.563965, 4380.512695, 4067.179443, 4335.897461, 3574.000000, 8191.000000, 8179.000000, 0.000000, 0.000000, 0.000000, 24915.000000, 369.743591, 4.000000, 4.000000, 4.000000, 4.000000, 4.000000, 4.000000, 4.000000, 4.000000, 4.000000, 4.000000, 4.000000, 4.000000, 4.000000, 4.000000, 4.000000, 4.000000
75.000000, 0.000000, 4344.102539, 4239.487305, 4316.922852, 4338.974121, 4358.974121, 4348.717773, 4346.666504, 4345.641113, 4206.153809, 4327.179199, 4335.384277, 4375.897461, 4060.512695, 4329.743652, 3563.000000, 8194.000000, 8182.000000, 0.000000, 0.000000, 0.000000, 24915.000000, 377.948700, 4.000000, 4.000000, 4.000000, 4.000000, 4.000000, 4.000000, 4.000000, 4.000000, 4.000000, 4.000000, 4.000000, 4.000000, 4.000000, 4.000000, 4.000000, 4.000000
76.000000, 0.000000, 4337.436035, 4237.436035, 4311.281738, 4330.769043, 4349.230469, 4342.563965, 4341.025391, 4342.051270, 4204.615234, 4324.102539, 4324.615234, 4365.127930, 4050.769043, 4318.461426, 3508.000000, 8194.000000, 8182.000000, 0.000000, 0.000000, 0.000000, 24915.000000, 385.641022, 4.000000, 4.000000, 4.000000, 4.000000, 4.000000, 4.000000, 4.000000, 4.000000, 4.000000, 4.000000, 4.000000, 4.000000, 4.000000, 4.000000, 4.000000, 4.000000
77.000000, 0.000000, 4334.871582, 4237.948730, 4309.743652, 4330.256348, 4352.307617, 4340.000000, 4332.307617, 4332.307617, 4204.102539, 4322.563965, 4324.615234, 4366.153809, 4052.307617, 4317.948730, 3448.000000, 8192.000000, 8185.000000, 0.000000, 0.000000, 0.000000, 24915.000000, 393.333313, 4.000000, 4.000000, 4.000000, 4.000000, 4.000000, 4.000000, 4.000000, 4.000000, 4.000000, 4.000000, 4.000000, 4.000000, 4.000000, 4.000000, 4.000000, 4.000000
78.000000, 0.000000, 4340.000000, 4234.871582, 4321.025391, 4340.000000, 4357.948730, 4344.615234, 4331.794922, 4328.205078, 4204.615234, 4326.153809, 4337.948730, 4383.589844, 4057.948730, 4325.127930, 3574.000000, 8192.000000, 8185.000000, 0.000000, 0.000000, 0.000000, 24915.000000, 401.538452, 4.000000, 4.000000, 4.000000, 4.000000, 4.000000, 4.000000, 4.000000, 4.000000, 4.000000, 4.000000, 4.000000, 4.000000, 4.000000, 4.000000, 4.000000, 4.000000
79.000000, 0.000000, 4345.641113, 4230.256348, 4326.153809, 4344.615234, 4356.922852, 4352.307617, 4337.436035, 4327.179199, 4203.076660, 4329.230469, 4345.127930, 4395.897461, 4063.076904, 4331.281738, 3563.000000, 8187.000000, 8185.000000, 0.000000, 0.000000, 0.000000, 24915.000000, 409.230774, 4.000000, 4.000000, 4.000000, 4.000000, 4.000000, 4.000000, 4.000000, 4.000000, 4.000000, 4.000000, 4.000000, 4.000000, 4.000000, 4.000000, 4.000000, 4.000000
80.000000, 0.000000, 4350.769043, 4234.358887, 4325.127930, 4341.538574, 4358.974121, 4352.307617, 4335.897461, 4324.615234, 4202.563965, 4332.307617, 4344.615234, 4395.384277, 4068.717773, 4338.974121, 3508.000000, 8187.000000, 8185.000000, 0.000000, 0.000000, 0.000000, 24915.000000, 416.923065, 4.000000, 4.000000, 4.000000, 4.000000, 4.000000, 4.000000, 4.000000, 4.000000, 4.000000, 4.000000, 4.000000, 4.000000, 4.000000, 4.000000, 4.000000, 4.000000
81.000000, 0.000000, 4352.307617, 4238.461426, 4326.153809, 4341.538574, 4365.641113, 4353.333008, 4337.948730, 4328.205078, 4203.589844, 4338.974121, 4351.281738, 4394.871582, 4077.948730, 4347.692383, 3448.000000, 8184.000000, 8173.000000, 0.000000, 0.000000, 0.000000, 24915.000000, 425.128204, 4.000000, 4.000000, 4.000000, 4.000000, 4.000000, 4.000000, 4.000000, 4.000000, 4.000000, 4.000000, 4.000000, 4.000000, 4.000000, 4.000000, 4.000000, 4.000000
82.000000, 0.000000, 4346.153809, 4233.333008, 4321.538574, 4342.051270, 4358.974121, 4357.948730, 4350.769043, 4337.948730, 4205.127930, 4341.538574, 4352.307617, 4390.256348, 4078.461426, 4337.948730, 3574.000000, 8184.000000, 8173.000000, 0.000000, 0.000000, 0.000000, 24915.000000, 432.820496, 4.000000, 4.000000, 4.000000, 4.000000, 4.000000, 4.000000, 4.000000, 4.000000, 4.000000, 4.000000, 4.000000, 4.000000, 4.000000, 4.000000, 4.000000, 4.000000
83.000000, 0.000000, 4338.974121, 4225.641113, 4313.846191, 4339.487305, 4349.230469, 4359.487305, 4354.871582, 4348.717773, 4205.641113, 4339.487305, 4345.127930, 4379.487305, 4072.307617, 4323.076660, 3563.000000, 8189.000000, 8169.000000, 0.000000, 0.000000, 0.000000, 24915.000000, 440.512817, 4.000000, 4.000000, 4.000000, 4.000000, 4.000000, 4.000000, 4.000000, 4.000000, 4.000000, 4.000000, 4.000000, 4.000000, 4.000000, 4.000000, 4.000000, 4.000000
