title:neutral31, recorded:23.05.18 21.24.56, timestamp started:2018-05-23T14:18:30.888274+02:00            , sampling:128, subject:Noé, labels:COUNTER INTERPOLATED AF3 F7 F3 FC5 T7 P7 O1 O2 P8 T8 FC6 F4 F8 AF4 RAW_CQ GYROX GYROY MARKER MARKER_HARDWARE SYNC TIME_STAMP_s TIME_STAMP_ms CQ_AF3 CQ_F7 CQ_F3 CQ_FC5 CQ_T7 CQ_P7 CQ_O1 CQ_O2 CQ_P8 CQ_T8 CQ_FC6 CQ_F4 CQ_F8 CQ_AF4 CQ_CMS CQ_DRL, chan:40, samples:2636, units:emotiv
41.000000, 0.000000, 4187.179199, 4170.256348, 4203.076660, 4196.922852, 4185.127930, 4200.000000, 4204.102539, 4207.692383, 4177.436035, 4198.461426, 4209.230469, 4222.051270, 4217.436035, 4215.384277, 0.000000, 8202.000000, 8018.000000, 0.000000, 0.000000, 0.000000, 25586.000000, 456.923065, 4.000000, 4.000000, 4.000000, 4.000000, 4.000000, 4.000000, 4.000000, 4.000000, 4.000000, 4.000000, 4.000000, 4.000000, 4.000000, 4.000000, 4.000000, 4.000000
42.000000, 0.000000, 4183.076660, 4159.487305, 4197.948730, 4186.666504, 4183.589844, 4194.871582, 4205.127930, 4192.307617, 4169.230469, 4189.743652, 4201.538574, 4212.820313, 4215.897461, 4207.692383, 0.000000, 8202.000000, 8018.000000, 0.000000, 0.000000, 0.000000, 25586.000000, 464.615387, 4.000000, 4.000000, 4.000000, 4.000000, 4.000000, 4.000000, 4.000000, 4.000000, 4.000000, 4.000000, 4.000000, 4.000000, 4.000000, 4.000000, 4.000000, 4.000000
43.000000, 0.000000, 4183.589844, 4155.897461, 4194.871582, 4190.769043, 4183.589844, 4194.871582, 4200.000000, 4181.538574, 4160.512695, 4190.769043, 4198.461426, 4209.230469, 4211.794922, 4205.641113, 0.000000, 8224.000000, 8023.000000, 0.000000, 0.000000, 0.000000, 25586.000000, 472.307678, 4.000000, 4.000000, 4.000000, 4.000000, 4.000000, 4.000000, 4.000000, 4.000000, 4.000000, 4.000000, 4.000000, 4.000000, 4.000000, 4.000000, 4.000000, 4.000000
44.000000, 0.000000, 4189.743652, 4169.230469, 4203.589844, 4192.307617, 4186.666504, 4201.025391, 4205.641113, 4192.307617, 4161.538574, 4197.948730, 4203.076660, 4214.871582, 4214.871582, 4214.871582, 0.000000, 8224.000000, 8023.000000, 0.000000, 0.000000, 0.000000, 25586.000000, 480.512817, 4.000000, 4.000000, 4.000000, 4.000000, 4.000000, 4.000000, 4.000000, 4.000000, 4.000000, 4.000000, 4.000000, 4.000000, 4.000000, 4.000000, 4.000000, 4.000000
45.000000, 0.000000, 4191.281738, 4172.307617, 4204.102539, 4189.230469, 4186.666504, 4202.051270, 4212.307617, 4202.051270, 4168.717773, 4194.871582, 4206.666504, 4218.974121, 4220.000000, 4215.897461, 0.000000, 8246.000000, 8037.000000, 0.000000, 0.000000, 0.000000, 25586.000000, 488.205109, 4.000000, 4.000000, 4.000000, 4.000000, 4.000000, 4.000000, 4.000000, 4.000000, 4.000000, 4.000000, 4.000000, 4.000000, 4.000000, 4.000000, 4.000000, 4.000000
46.000000, 0.000000, 4181.025391, 4152.307617, 4189.230469, 4185.127930, 4179.487305, 4192.307617, 4207.692383, 4191.281738, 4162.563965, 4189.743652, 4198.974121, 4207.692383, 4212.820313, 4201.025391, 0.000000, 8246.000000, 8037.000000, 0.000000, 0.000000, 0.000000, 25586.000000, 495.897430, 4.000000, 4.000000, 4.000000, 4.000000, 4.000000, 4.000000, 4.000000, 4.000000, 4.000000, 4.000000, 4.000000, 4.000000, 4.000000, 4.000000, 4.000000, 4.000000
47.000000, 0.000000, 4169.230469, 4143.076660, 4181.538574, 4173.846191, 4177.948730, 4187.179199, 4201.025391, 4184.102539, 4152.820313, 4186.666504, 4192.820313, 4197.948730, 4206.153809, 4194.358887, 0.000000, 8283.000000, 8089.000000, 0.000000, 0.000000, 0.000000, 25586.000000, 504.102539, 4.000000, 4.000000, 4.000000, 4.000000, 4.000000, 4.000000, 4.000000, 4.000000, 4.000000, 4.000000, 4.000000, 4.000000, 4.000000, 4.000000, 4.000000, 4.000000
48.000000, 0.000000, 4173.333008, 4149.743652, 4189.230469, 4180.000000, 4180.000000, 4189.743652, 4200.000000, 4197.948730, 4160.512695, 4184.615234, 4194.871582, 4203.589844, 4210.256348, 4198.461426, 0.000000, 8283.000000, 8089.000000, 0.000000, 0.000000, 0.000000, 25586.000000, 511.794861, 4.000000, 4.000000, 4.000000, 4.000000, 4.000000, 4.000000, 4.000000, 4.000000, 4.000000, 4.000000, 4.000000, 4.000000, 4.000000, 4.000000, 4.000000, 4.000000
49.000000, 0.000000, 4183.589844, 4156.410156, 4194.358887, 4185.641113, 4176.922852, 4191.281738, 4197.948730, 4206.666504, 4170.769043, 4187.692383, 4194.871582, 4206.153809, 4215.384277, 4200.000000, 0.000000, 8300.000000, 8117.000000, 0.000000, 0.000000, 0.000000, 25586.000000, 519.487183, 4.000000, 4.000000, 4.000000, 4.000000, 4.000000, 4.000000, 4.000000, 4.000000, 4.000000, 4.000000, 4.000000, 4.000000, 4.000000, 4.000000, 4.000000, 4.000000
50.000000, 0.000000, 4186.153809, 4158.974121, 4190.769043, 4183.589844, 4178.974121, 4194.358887, 4198.461426, 4202.051270, 4168.205078, 4189.230469, 4193.846191, 4202.563965, 4215.897461, 4200.000000, 0.000000, 8300.000000, 8117.000000, 0.000000, 0.000000, 0.000000, 25586.000000, 527.179504, 4.000000, 4.000000, 4.000000, 4.000000, 4.000000, 4.000000, 4.000000, 4.000000, 4.000000, 4.000000, 4.000000, 4.000000, 4.000000, 4.000000, 4.000000, 4.000000
51.000000, 0.000000, 4182.051270, 4156.922852, 4184.615234, 4186.666504, 4180.512695, 4194.358887, 4205.641113, 4202.563965, 4164.615234, 4182.563965, 4194.358887, 4200.000000, 4214.358887, 4196.922852, 0.000000, 8317.000000, 8160.000000, 0.000000, 0.000000, 0.000000, 25586.000000, 535.384583, 4.000000, 4.000000, 4.000000, 4.000000, 4.000000, 4.000000, 4.000000, 4.000000, 4.000000, 4.000000, 4.000000, 4.000000, 4.000000, 4.000000, 4.000000, 4.000000
52.000000, 0.000000, 4177.948730, 4158.974121, 4183.076660, 4184.615234, 4178.974121, 4192.820313, 4200.512695, 4197.948730, 4164.102539, 4178.461426, 4194.358887, 4196.922852, 4214.871582, 4194.358887, 0.000000, 8317.000000, 8160.000000, 0.000000, 0.000000, 0.000000, 25586.000000, 543.076904, 4.000000, 4.000000, 4.000000, 4.000000, 4.000000, 4.000000, 4.000000, 4.000000, 4.000000, 4.000000, 4.000000, 4.000000, 4.000000, 4.000000, 4.000000, 4.000000
53.000000, 0.000000, 4184.102539, 4166.666504, 4187.692383, 4188.205078, 4182.051270, 4195.384277, 4186.153809, 4186.153809, 4165.641113, 4181.025391, 4200.000000, 4199.487305, 4222.051270, 4202.051270, 0.000000, 8315.000000, 8173.000000, 0.000000, 0.000000, 0.000000, 25586.000000, 551.282043, 4.000000, 4.000000, 4.000000, 4.000000, 4.000000, 4.000000, 4.000000, 4.000000, 4.000000, 4.000000, 4.000000, 4.000000, 4.000000, 4.000000, 4.000000, 4.000000
54.000000, 0.000000, 4180.512695, 4164.102539, 4189.230469, 4184.615234, 4184.102539, 4197.948730, 4192.820313, 4191.281738, 4167.179199, 4180.000000, 4200.512695, 4206.153809, 4219.487305, 4203.589844, 0.000000, 8315.000000, 8173.000000, 0.000000, 0.000000, 0.000000, 25586.000000, 558.974365, 4.000000, 4.000000, 4.000000, 4.000000, 4.000000, 4.000000, 4.000000, 4.000000, 4.000000, 4.000000, 4.000000, 4.000000, 4.000000, 4.000000, 4.000000, 4.000000
55.000000, 0.000000, 4162.051270, 4149.230469, 4182.051270, 4177.436035, 4180.512695, 4193.333008, 4202.051270, 4193.846191, 4161.538574, 4165.641113, 4184.615234, 4200.000000, 4199.487305, 4187.692383, 0.000000, 8312.000000, 8187.000000, 0.000000, 0.000000, 0.000000, 25586.000000, 567.179443, 4.000000, 4.000000, 4.000000, 4.000000, 4.000000, 4.000000, 4.000000, 4.000000, 4.000000, 4.000000, 4.000000, 4.000000, 4.000000, 4.000000, 4.000000, 4.000000
56.000000, 0.000000, 4156.410156, 4147.692383, 4171.794922, 4180.512695, 4178.461426, 4187.179199, 4187.179199, 4170.769043, 4151.794922, 4152.820313, 4176.410156, 4185.127930, 4193.333008, 4177.948730, 0.000000, 8312.000000, 8187.000000, 0.000000, 0.000000, 0.000000, 25586.000000, 574.871765, 4.000000, 4.000000, 4.000000, 4.000000, 4.000000, 4.000000, 4.000000, 4.000000, 4.000000, 4.000000, 4.000000, 4.000000, 4.000000, 4.000000, 4.000000, 4.000000
57.000000, 0.000000, 4161.538574, 4155.384277, 4166.153809, 4176.410156, 4182.563965, 4186.153809, 4173.846191, 4159.487305, 4146.666504, 4150.256348, 4182.563965, 4177.436035, 4208.205078, 4182.563965, 0.000000, 8290.000000, 8183.000000, 0.000000, 0.000000, 0.000000, 25586.000000, 583.076904, 4.000000, 4.000000, 4.000000, 4.000000, 4.000000, 4.000000, 4.000000, 4.000000, 4.000000, 4.000000, 4.000000, 4.000000, 4.000000, 4.000000, 4.000000, 4.000000
58.000000, 0.000000, 4164.615234, 4151.281738, 4173.333008, 4180.000000, 4181.025391, 4187.179199, 4185.127930, 4176.410156, 4150.256348, 4150.256348, 4187.692383, 4184.102539, 4216.922852, 4188.205078, 0.000000, 8290.000000, 8183.000000, 0.000000, 0.000000, 0.000000, 25586.000000, 590.769226, 4.000000, 4.000000, 4.000000, 4.000000, 4.000000, 4.000000, 4.000000, 4.000000, 4.000000, 4.000000, 4.000000, 4.000000, 4.000000, 4.000000, 4.000000, 4.000000
59.000000, 0.000000, 4170.256348, 4150.769043, 4180.000000, 4181.538574, 4175.897461, 4187.692383, 4188.717773, 4187.692383, 4156.410156, 4151.794922, 4196.410156, 4190.769043, 4222.051270, 4196.410156, 0.000000, 8269.000000, 8174.000000, 0.000000, 0.000000, 0.000000, 25586.000000, 598.461548, 4.000000, 4.000000, 4.000000, 4.000000, 4.000000, 4.000000, 4.000000, 4.000000, 4.000000, 4.000000, 4.000000, 4.000000, 4.000000, 4.000000, 4.000000, 4.000000
60.000000, 0.000000, 4176.410156, 4153.846191, 4175.384277, 4175.897461, 4175.384277, 4182.563965, 4172.307617, 4186.153809, 4155.897461, 4151.281738, 4203.076660, 4188.717773, 4232.307617, 4202.563965, 0.000000, 8269.000000, 8174.000000, 0.000000, 0.000000, 0.000000, 25586.000000, 606.666626, 4.000000, 4.000000, 4.000000, 4.000000, 4.000000, 4.000000, 4.000000, 4.000000, 4.000000, 4.000000, 4.000000, 4.000000, 4.000000, 4.000000, 4.000000, 4.000000
61.000000, 0.000000, 4172.820313, 4145.641113, 4175.897461, 4178.974121, 4178.974121, 4182.051270, 4177.436035, 4182.051270, 4150.769043, 4150.256348, 4200.512695, 4193.846191, 4235.384277, 4201.538574, 0.000000, 8238.000000, 8154.000000, 0.000000, 0.000000, 0.000000, 25586.000000, 614.871765, 4.000000, 4.000000, 4.000000, 4.000000, 4.000000, 4.000000, 4.000000, 4.000000, 4.000000, 4.000000, 4.000000, 4.000000, 4.000000, 4.000000, 4.000000, 4.000000
62.000000, 0.000000, 4169.743652, 4144.102539, 4186.153809, 4175.897461, 4178.461426, 4190.256348, 4194.871582, 4186.666504, 4155.384277, 4152.307617, 4201.025391, 4205.127930, 4231.794922, 4205.127930, 0.000000, 8238.000000, 8154.000000, 0.000000, 0.000000, 0.000000, 25586.000000, 622.564087, 4.000000, 4.000000, 4.000000, 4.000000, 4.000000, 4.000000, 4.000000, 4.000000, 4.000000, 4.000000, 4.000000, 4.000000, 4.000000, 4.000000, 4.000000, 4.000000
63.000000, 0.000000, 4175.384277, 4149.230469, 4192.820313, 4177.436035, 4170.769043, 4185.641113, 4183.076660, 4201.025391, 4163.589844, 4152.307617, 4203.589844, 4208.717773, 4231.794922, 4211.281738, 0.000000, 8213.000000, 8155.000000, 0.000000, 0.000000, 0.000000, 25586.000000, 630.256409, 4.000000, 4.000000, 4.000000, 4.000000, 4.000000, 4.000000, 4.000000, 4.000000, 4.000000, 4.000000, 4.000000, 4.000000, 4.000000, 4.000000, 4.000000, 4.000000
64.000000, 0.000000, 4176.922852, 4144.615234, 4196.410156, 4178.461426, 4170.769043, 4174.358887, 4164.102539, 4198.974121, 4162.563965, 4151.281738, 4202.051270, 4209.230469, 4230.256348, 4208.717773, 3482.000000, 8213.000000, 8155.000000, 0.000000, 0.000000, 0.000000, 25586.000000, 638.461548, 4.000000, 4.000000, 4.000000, 4.000000, 4.000000, 4.000000, 4.000000, 4.000000, 4.000000, 4.000000, 4.000000, 4.000000, 4.000000, 4.000000, 4.000000, 4.000000
65.000000, 0.000000, 4174.358887, 4142.563965, 4196.922852, 4178.461426, 4177.948730, 4176.922852, 4169.743652, 4186.666504, 4153.846191, 4153.333008, 4201.538574, 4207.692383, 4223.076660, 4204.615234, 2030.000000, 8172.000000, 8166.000000, 0.000000, 0.000000, 0.000000, 25586.000000, 646.153809, 4.000000, 4.000000, 4.000000, 4.000000, 4.000000, 4.000000, 4.000000, 4.000000, 4.000000, 4.000000, 4.000000, 4.000000, 4.000000, 4.000000, 4.000000, 4.000000
66.000000, 0.000000, 4174.871582, 4147.179199, 4193.846191, 4184.615234, 4183.076660, 4181.025391, 4176.410156, 4186.666504, 4149.230469, 4147.179199, 4195.897461, 4202.051270, 4215.384277, 4200.000000, 3145.000000, 8172.000000, 8166.000000, 0.000000, 0.000000, 0.000000, 25586.000000, 654.358948, 4.000000, 4.000000, 4.000000, 4.000000, 4.000000, 4.000000, 4.000000, 4.000000, 4.000000, 4.000000, 4.000000, 4.000000, 4.000000, 4.000000, 4.000000, 4.000000
67.000000, 0.000000, 4177.948730, 4150.256348, 4195.384277, 4180.000000, 4184.102539, 4176.922852, 4172.820313, 4194.358887, 4154.358887, 4141.025391, 4192.820313, 4199.487305, 4216.922852, 4200.512695, 3552.000000, 8156.000000, 8152.000000, 0.000000, 0.000000, 0.000000, 25586.000000, 662.051270, 4.000000, 4.000000, 4.000000, 4.000000, 4.000000, 4.000000, 4.000000, 4.000000, 4.000000, 4.000000, 4.000000, 4.000000, 4.000000, 4.000000, 4.000000, 4.000000
68.000000, 0.000000, 4180.512695, 4152.820313, 4201.025391, 4183.589844, 4183.589844, 4180.512695, 4182.563965, 4195.384277, 4157.436035, 4147.692383, 4197.948730, 4203.589844, 4221.538574, 4207.692383, 3521.000000, 8156.000000, 8152.000000, 0.000000, 0.000000, 0.000000, 25586.000000, 670.256409, 4.000000, 4.000000, 4.000000, 4.000000, 4.000000, 4.000000, 4.000000, 4.000000, 4.000000, 4.000000, 4.000000, 4.000000, 4.000000, 4.000000, 4.000000, 4.000000
69.000000, 0.000000, 4182.563965, 4157.436035, 4201.538574, 4189.230469, 4187.179199, 4189.230469, 4192.820313, 4194.871582, 4154.871582, 4151.281738, 4200.512695, 4207.179199, 4221.538574, 4208.717773, 3550.000000, 8146.000000, 8140.000000, 0.000000, 0.000000, 0.000000, 25586.000000, 677.948730, 4.000000, 4.000000, 4.000000, 4.000000, 4.000000, 4.000000, 4.000000, 4.000000, 4.000000, 4.000000, 4.000000, 4.000000, 4.000000, 4.000000, 4.000000, 4.000000
70.000000, 0.000000, 4187.179199, 4161.538574, 4203.076660, 4183.076660, 4188.717773, 4186.666504, 4187.692383, 4198.461426, 4154.871582, 4147.692383, 4201.025391, 4209.230469, 4221.538574, 4206.153809, 3481.000000, 8146.000000, 8140.000000, 0.000000, 0.000000, 0.000000, 25586.000000, 685.640991, 4.000000, 4.000000, 4.000000, 4.000000, 4.000000, 4.000000, 4.000000, 4.000000, 4.000000, 4.000000, 4.000000, 4.000000, 4.000000, 4.000000, 4.000000, 4.000000
71.000000, 0.000000, 4187.179199, 4161.025391, 4198.974121, 4185.641113, 4184.102539, 4181.025391, 4180.000000, 4191.794922, 4150.256348, 4147.692383, 4200.512695, 4206.666504, 4219.487305, 4204.102539, 3488.000000, 8134.000000, 8156.000000, 0.000000, 0.000000, 0.000000, 25586.000000, 693.846130, 4.000000, 4.000000, 4.000000, 4.000000, 4.000000, 4.000000, 4.000000, 4.000000, 4.000000, 4.000000, 4.000000, 4.000000, 4.000000, 4.000000, 4.000000, 4.000000
72.000000, 0.000000, 4180.000000, 4155.897461, 4186.666504, 4183.076660, 4183.589844, 4182.051270, 4181.025391, 4192.307617, 4145.641113, 4151.281738, 4195.897461, 4200.000000, 4217.436035, 4200.000000, 3393.000000, 8134.000000, 8156.000000, 0.000000, 0.000000, 0.000000, 25586.000000, 701.538452, 4.000000, 4.000000, 4.000000, 4.000000, 4.000000, 4.000000, 4.000000, 4.000000, 4.000000, 4.000000, 4.000000, 4.000000, 4.000000, 4.000000, 4.000000, 4.000000
73.000000, 0.000000, 4176.922852, 4154.358887, 4186.666504, 4182.051270, 4187.179199, 4183.589844, 4187.692383, 4197.948730, 4146.153809, 4147.692383, 4192.820313, 4202.051270, 4215.897461, 4196.922852, 3524.000000, 8135.000000, 8158.000000, 0.000000, 0.000000, 0.000000, 25586.000000, 709.743591, 4.000000, 4.000000, 4.000000, 4.000000, 4.000000, 4.000000, 4.000000, 4.000000, 4.000000, 4.000000, 4.000000, 4.000000, 4.000000, 4.000000, 4.000000, 4.000000
74.000000, 0.000000, 4181.025391, 4157.948730, 4192.820313, 4183.076660, 4181.025391, 4183.589844, 4183.076660, 4191.794922, 4143.076660, 4141.025391, 4190.256348, 4204.615234, 4209.743652, 4197.436035, 3283.000000, 8135.000000, 8158.000000, 0.000000, 0.000000, 0.000000, 25586.000000, 717.435852, 4.000000, 4.000000, 4.000000, 4.000000, 4.000000, 4.000000, 4.000000, 4.000000, 4.000000, 4.000000, 4.000000, 4.000000, 4.000000, 4.000000, 4.000000, 4.000000
75.000000, 0.000000, 4185.641113, 4157.948730, 4191.281738, 4179.487305, 4173.846191, 4183.589844, 4175.384277, 4187.179199, 4138.461426, 4142.051270, 4187.179199, 4196.922852, 4205.641113, 4195.897461, 3589.000000, 8144.000000, 8147.000000, 0.000000, 0.000000, 0.000000, 25586.000000, 725.640991, 4.000000, 4.000000, 4.000000, 4.000000, 4.000000, 4.000000, 4.000000, 4.000000, 4.000000, 4.000000, 4.000000, 4.000000, 4.000000, 4.000000, 4.000000, 4.000000
76.000000, 0.000000, 4184.102539, 4163.589844, 4187.179199, 4187.179199, 4178.461426, 4183.076660, 4181.025391, 4190.769043, 4145.127930, 4150.769043, 4190.769043, 4193.333008, 4211.281738, 4195.897461, 3515.000000, 8144.000000, 8147.000000, 0.000000, 0.000000, 0.000000, 25586.000000, 733.333313, 4.000000, 4.000000, 4.000000, 4.000000, 4.000000, 4.000000, 4.000000, 4.000000, 4.000000, 4.000000, 4.000000, 4.000000, 4.000000, 4.000000, 4.000000, 4.000000
77.000000, 0.000000, 4185.641113, 4173.333008, 4187.179199, 4186.153809, 4187.692383, 4186.666504, 4189.743652, 4199.487305, 4158.974121, 4157.948730, 4195.384277, 4199.487305, 4218.461426, 4198.461426, 3452.000000, 8151.000000, 8139.000000, 0.000000, 0.000000, 0.000000, 25586.000000, 741.025635, 4.000000, 4.000000, 4.000000, 4.000000, 4.000000, 4.000000, 4.000000, 4.000000, 4.000000, 4.000000, 4.000000, 4.000000, 4.000000, 4.000000, 4.000000, 4.000000
78.000000, 0.000000, 4188.717773, 4173.333008, 4188.205078, 4182.563965, 4192.307617, 4194.358887, 4192.820313, 4200.000000, 4155.897461, 4156.410156, 4188.717773, 4202.051270, 4213.333008, 4192.307617, 3283.000000, 8151.000000, 8139.000000, 0.000000, 0.000000, 0.000000, 25586.000000, 748.717957, 4.000000, 4.000000, 4.000000, 4.000000, 4.000000, 4.000000, 4.000000, 4.000000, 4.000000, 4.000000, 4.000000, 4.000000, 4.000000, 4.000000, 4.000000, 4.000000
79.000000, 0.000000, 4180.000000, 4164.102539, 4185.127930, 4185.127930, 4192.307617, 4199.487305, 4196.410156, 4188.205078, 4137.436035, 4149.743652, 4177.948730, 4191.794922, 4196.922852, 4181.025391, 3589.000000, 8163.000000, 8138.000000, 0.000000, 0.000000, 0.000000, 25586.000000, 756.923035, 4.000000, 4.000000, 4.000000, 4.000000, 4.000000, 4.000000, 4.000000, 4.000000, 4.000000, 4.000000, 4.000000, 4.000000, 4.000000, 4.000000, 4.000000, 4.000000
80.000000, 0.000000, 4168.205078, 4154.358887, 4182.563965, 4178.974121, 4191.281738, 4202.051270, 4198.461426, 4183.076660, 4136.410156, 4152.307617, 4178.461426, 4182.563965, 4190.769043, 4176.922852, 3515.000000, 8163.000000, 8138.000000, 0.000000, 0.000000, 0.000000, 25586.000000, 764.615356, 4.000000, 4.000000, 4.000000, 4.000000, 4.000000, 4.000000, 4.000000, 4.000000, 4.000000, 4.000000, 4.000000, 4.000000, 4.000000, 4.000000, 4.000000, 4.000000
81.000000, 0.000000, 4169.743652, 4147.692383, 4185.127930, 4180.512695, 4187.692383, 4200.000000, 4192.820313, 4200.000000, 4154.871582, 4163.589844, 4183.589844, 4189.230469, 4197.948730, 4180.000000, 3452.000000, 8181.000000, 8129.000000, 0.000000, 0.000000, 0.000000, 25586.000000, 772.820496, 4.000000, 4.000000, 4.000000, 4.000000, 4.000000, 4.000000, 4.000000, 4.000000, 4.000000, 4.000000, 4.000000, 4.000000, 4.000000, 4.000000, 4.000000, 4.000000
82.000000, 0.000000, 4174.871582, 4151.794922, 4180.512695, 4177.436035, 4183.589844, 4189.230469, 4183.589844, 4207.179199, 4158.461426, 4171.794922, 4184.102539, 4192.820313, 4201.025391, 4182.051270, 3283.000000, 8181.000000, 8129.000000, 0.000000, 0.000000, 0.000000, 25586.000000, 780.512817, 4.000000, 4.000000, 4.000000, 4.000000, 4.000000, 4.000000, 4.000000, 4.000000, 4.000000, 4.000000, 4.000000, 4.000000, 4.000000, 4.000000, 4.000000, 4.000000
83.000000, 0.000000, 4181.025391, 4165.127930, 4176.922852, 4176.410156, 4182.563965, 4182.051270, 4173.333008, 4185.641113, 4146.666504, 4175.897461, 4188.717773, 4188.205078, 4206.153809, 4186.153809, 3589.000000, 8185.000000, 8125.000000, 0.000000, 0.000000, 0.000000, 25586.000000, 788.205139, 4.000000, 4.000000, 4.000000, 4.000000, 4.000000, 4.000000, 4.000000, 4.000000, 4.000000, 4.000000, 4.000000, 4.000000, 4.000000, 4.000000, 4.000000, 4.000000
84.000000, 0.000000, 4190.256348, 4172.307617, 4187.179199, 4184.615234, 4186.666504, 4184.102539, 4168.205078, 4174.358887, 4148.717773, 4182.563965, 4198.974121, 4194.871582, 4218.974121, 4194.358887, 3515.000000, 8185.000000, 8125.000000, 0.000000, 0.000000, 0.000000, 25586.000000, 796.410217, 4.000000, 4.000000, 4.000000, 4.000000, 4.000000, 4.000000, 4.000000, 4.000000, 4.000000, 4.000000, 4.000000, 4.000000, 4.000000, 4.000000, 4.000000, 4.000000
85.000000, 0.000000, 4192.307617, 4170.769043, 4192.820313, 4179.487305, 4187.179199, 4185.127930, 4170.769043, 4191.794922, 4156.922852, 4186.666504, 4201.538574, 4200.000000, 4217.436035, 4194.358887, 3452.000000, 8202.000000, 8125.000000, 0.000000, 0.000000, 0.000000, 25586.000000, 804.102539, 4.000000, 4.000000, 4.000000, 4.000000, 4.000000, 4.000000, 4.000000, 4.000000, 4.000000, 4.000000, 4.000000, 4.000000, 4.000000, 4.000000, 4.000000, 4.000000
86.000000, 0.000000, 4185.127930, 4165.641113, 4184.615234, 4178.461426, 4181.538574, 4182.051270, 4175.897461, 4204.615234, 4153.333008, 4182.051270, 4195.897461, 4193.846191, 4206.153809, 4187.179199, 3283.000000, 8202.000000, 8125.000000, 0.000000, 0.000000, 0.000000, 25586.000000, 811.794861, 4.000000, 4.000000, 4.000000, 4.000000, 4.000000, 4.000000, 4.000000, 4.000000, 4.000000, 4.000000, 4.000000, 4.000000, 4.000000, 4.000000, 4.000000, 4.000000
87.000000, 0.000000, 4178.974121, 4161.025391, 4181.025391, 4176.922852, 4182.563965, 4184.615234, 4174.871582, 4185.641113, 4142.051270, 4175.897461, 4193.333008, 4189.743652, 4206.666504, 4188.717773, 3589.000000, 8217.000000, 8122.000000, 0.000000, 0.000000, 0.000000, 25586.000000, 820.000000, 4.000000, 4.000000, 4.000000, 4.000000, 4.000000, 4.000000, 4.000000, 4.000000, 4.000000, 4.000000, 4.000000, 4.000000, 4.000000, 4.000000, 4.000000, 4.000000
88.000000, 0.000000, 4176.922852, 4154.871582, 4181.025391, 4175.384277, 4184.615234, 4183.589844, 4170.769043, 4174.871582, 4136.922852, 4176.410156, 4188.205078, 4190.769043, 4206.666504, 4190.769043, 3515.000000, 8217.000000, 8122.000000, 0.000000, 0.000000, 0.000000, 25586.000000, 827.692261, 4.000000, 4.000000, 4.000000, 4.000000, 4.000000, 4.000000, 4.000000, 4.000000, 4.000000, 4.000000, 4.000000, 4.000000, 4.000000, 4.000000, 4.000000, 4.000000
89.000000, 0.000000, 4178.974121, 4155.384277, 4174.358887, 4178.974121, 4179.487305, 4180.000000, 4175.384277, 4192.307617, 4140.512695, 4182.051270, 4184.615234, 4188.205078, 4202.563965, 4184.615234, 3452.000000, 8247.000000, 8103.000000, 0.000000, 0.000000, 0.000000, 25586.000000, 835.384583, 4.000000, 4.000000, 4.000000, 4.000000, 4.000000, 4.000000, 4.000000, 4.000000, 4.000000, 4.000000, 4.000000, 4.000000, 4.000000, 4.000000, 4.000000, 4.000000
90.000000, 0.000000, 4175.897461, 4157.948730, 4171.281738, 4173.846191, 4173.846191, 4183.076660, 4181.025391, 4182.051270, 4138.974121, 4185.641113, 4184.615234, 4182.563965, 4202.051270, 4178.461426, 3283.000000, 8247.000000, 8103.000000, 0.000000, 0.000000, 0.000000, 25586.000000, 843.076904, 4.000000, 4.000000, 4.000000, 4.000000, 4.000000, 4.000000, 4.000000, 4.000000, 4.000000, 4.000000, 4.000000, 4.000000, 4.000000, 4.000000, 4.000000, 4.000000
91.000000, 0.000000, 4170.256348, 4153.333008, 4174.871582, 4174.871582, 4175.384277, 4184.615234, 4176.410156, 4171.281738, 4140.512695, 4188.205078, 4180.512695, 4182.051270, 4195.384277, 4170.769043, 3589.000000, 8256.000000, 8104.000000, 0.000000, 0.000000, 0.000000, 25586.000000, 851.282043, 4.000000, 4.000000, 4.000000, 4.000000, 4.000000, 4.000000, 4.000000, 4.000000, 4.000000, 4.000000, 4.000000, 4.000000, 4.000000, 4.000000, 4.000000, 4.000000
92.000000, 0.000000, 4176.922852, 4161.538574, 4181.025391, 4175.897461, 4182.051270, 4183.589844, 4171.794922, 4197.436035, 4153.846191, 4201.538574, 4187.692383, 4188.205078, 4202.563965, 4180.000000, 3515.000000, 8256.000000, 8104.000000, 0.000000, 0.000000, 0.000000, 25586.000000, 858.974365, 4.000000, 4.000000, 4.000000, 4.000000, 4.000000, 4.000000, 4.000000, 4.000000, 4.000000, 4.000000, 4.000000, 4.000000, 4.000000, 4.000000, 4.000000, 4.000000
93.000000, 0.000000, 4191.794922, 4179.487305, 4188.717773, 4177.948730, 4186.153809, 4186.153809, 4173.333008, 4199.487305, 4157.948730, 4217.436035, 4204.615234, 4200.512695, 4227.179199, 4204.102539, 3452.000000, 8256.000000, 8116.000000, 0.000000, 0.000000, 0.000000, 25586.000000, 867.179443, 4.000000, 4.000000, 4.000000, 4.000000, 4.000000, 4.000000, 4.000000, 4.000000, 4.000000, 4.000000, 4.000000, 4.000000, 4.000000, 4.000000, 4.000000, 4.000000
94.000000, 0.000000, 4190.256348, 4178.974121, 4191.794922, 4185.641113, 4184.102539, 4184.102539, 4174.871582, 4181.025391, 4147.692383, 4216.410156, 4204.102539, 4204.102539, 4229.230469, 4203.076660, 3283.000000, 8256.000000, 8116.000000, 0.000000, 0.000000, 0.000000, 25586.000000, 874.871765, 4.000000, 4.000000, 4.000000, 4.000000, 4.000000, 4.000000, 4.000000, 4.000000, 4.000000, 4.000000, 4.000000, 4.000000, 4.000000, 4.000000, 4.000000, 4.000000
95.000000, 0.000000, 4179.487305, 4168.717773, 4188.717773, 4177.948730, 4183.076660, 4175.897461, 4172.307617, 4191.281738, 4146.666504, 4205.641113, 4195.384277, 4200.000000, 4211.281738, 4190.769043, 3589.000000, 8269.000000, 8140.000000, 0.000000, 0.000000, 0.000000, 25586.000000, 883.076904, 4.000000, 4.000000, 4.000000, 4.000000, 4.000000, 4.000000, 4.000000, 4.000000, 4.000000, 4.000000, 4.000000, 4.000000, 4.000000, 4.000000, 4.000000, 4.000000
96.000000, 0.000000, 4181.538574, 4167.692383, 4184.615234, 4176.922852, 4184.102539, 4175.897461, 4168.717773, 4192.307617, 4147.692383, 4202.051270, 4194.871582, 4202.563965, 4205.641113, 4191.281738, 3515.000000, 8269.000000, 8140.000000, 0.000000, 0.000000, 0.000000, 25586.000000, 890.769226, 4.000000, 4.000000, 4.000000, 4.000000, 4.000000, 4.000000, 4.000000, 4.000000, 4.000000, 4.000000, 4.000000, 4.000000, 4.000000, 4.000000, 4.000000, 4.000000
97.000000, 0.000000, 4185.127930, 4167.179199, 4183.589844, 4180.512695, 4183.589844, 4180.512695, 4170.769043, 4177.948730, 4142.051270, 4203.076660, 4192.820313, 4203.076660, 4206.153809, 4192.307617, 3452.000000, 8274.000000, 8151.000000, 0.000000, 0.000000, 0.000000, 25586.000000, 898.974365, 4.000000, 4.000000, 4.000000, 4.000000, 4.000000, 4.000000, 4.000000, 4.000000, 4.000000, 4.000000, 4.000000, 4.000000, 4.000000, 4.000000, 4.000000, 4.000000
98.000000, 0.000000, 4184.615234, 4165.127930, 4187.179199, 4178.461426, 4185.127930, 4178.974121, 4174.358887, 4186.153809, 4140.000000, 4202.051270, 4192.307617, 4200.512695, 4202.563965, 4192.820313, 3283.000000, 8274.000000, 8151.000000, 0.000000, 0.000000, 0.000000, 25586.000000, 906.666626, 4.000000, 4.000000, 4.000000, 4.000000, 4.000000, 4.000000, 4.000000, 4.000000, 4.000000, 4.000000, 4.000000, 4.000000, 4.000000, 4.000000, 4.000000, 4.000000
99.000000, 0.000000, 4190.256348, 4171.794922, 4190.256348, 4186.666504, 4189.230469, 4180.000000, 4167.692383, 4186.153809, 4138.461426, 4203.589844, 4195.897461, 4202.563965, 4197.436035, 4197.436035, 3589.000000, 8275.000000, 8189.000000, 0.000000, 0.000000, 0.000000, 25586.000000, 914.358948, 4.000000, 4.000000, 4.000000, 4.000000, 4.000000, 4.000000, 4.000000, 4.000000, 4.000000, 4.000000, 4.000000, 4.000000, 4.000000, 4.000000, 4.000000, 4.000000
100.000000, 0.000000, 4195.384277, 4176.922852, 4187.692383, 4185.127930, 4189.743652, 4186.153809, 4166.666504, 4175.897461, 4140.000000, 4209.743652, 4192.820313, 4204.102539, 4191.281738, 4195.384277, 3515.000000, 8275.000000, 8189.000000, 0.000000, 0.000000, 0.000000, 25586.000000, 922.051270, 4.000000, 4.000000, 4.000000, 4.000000, 4.000000, 4.000000, 4.000000, 4.000000, 4.000000, 4.000000, 4.000000, 4.000000, 4.000000, 4.000000, 4.000000, 4.000000
101.000000, 0.000000, 4191.281738, 4171.794922, 4185.127930, 4181.538574, 4186.153809, 4187.179199, 4182.051270, 4180.000000, 4144.102539, 4210.256348, 4188.205078, 4195.897461, 4187.692383, 4186.666504, 3452.000000, 8278.000000, 8202.000000, 0.000000, 0.000000, 0.000000, 25586.000000, 930.256409, 4.000000, 4.000000, 4.000000, 4.000000, 4.000000, 4.000000, 4.000000, 4.000000, 4.000000, 4.000000, 4.000000, 4.000000, 4.000000, 4.000000, 4.000000, 4.000000
102.000000, 0.000000, 4178.461426, 4163.076660, 4180.000000, 4177.948730, 4180.512695, 4184.615234, 4185.641113, 4181.538574, 4142.563965, 4206.666504, 4185.641113, 4185.127930, 4178.974121, 4180.512695, 3283.000000, 8278.000000, 8202.000000, 0.000000, 0.000000, 0.000000, 25586.000000, 937.948669, 4.000000, 4.000000, 4.000000, 4.000000, 4.000000, 4.000000, 4.000000, 4.000000, 4.000000, 4.000000, 4.000000, 4.000000, 4.000000, 4.000000, 4.000000, 4.000000
103.000000, 0.000000, 4171.794922, 4158.461426, 4171.794922, 4172.307617, 4175.897461, 4183.589844, 4170.256348, 4185.641113, 4144.615234, 4210.769043, 4183.076660, 4180.512695, 4171.281738, 4178.461426, 3589.000000, 8283.000000, 8210.000000, 0.000000, 0.000000, 0.000000, 25586.000000, 945.640991, 4.000000, 4.000000, 4.000000, 4.000000, 4.000000, 4.000000, 4.000000, 4.000000, 4.000000, 4.000000, 4.000000, 4.000000, 4.000000, 4.000000, 4.000000, 4.000000
104.000000, 0.000000, 4175.384277, 4157.436035, 4174.358887, 4177.436035, 4174.871582, 4180.512695, 4163.589844, 4184.615234, 4145.641113, 4211.794922, 4183.589844, 4186.153809, 4171.794922, 4181.025391, 3515.000000, 8283.000000, 8210.000000, 0.000000, 0.000000, 0.000000, 25586.000000, 953.846130, 4.000000, 4.000000, 4.000000, 4.000000, 4.000000, 4.000000, 4.000000, 4.000000, 4.000000, 4.000000, 4.000000, 4.000000, 4.000000, 4.000000, 4.000000, 4.000000
105.000000, 0.000000, 4181.538574, 4161.025391, 4184.102539, 4176.922852, 4175.897461, 4177.436035, 4175.897461, 4178.461426, 4139.487305, 4206.153809, 4185.127930, 4191.794922, 4174.358887, 4186.153809, 3452.000000, 8275.000000, 8227.000000, 0.000000, 0.000000, 0.000000, 25586.000000, 961.538452, 4.000000, 4.000000, 4.000000, 4.000000, 4.000000, 4.000000, 4.000000, 4.000000, 4.000000, 4.000000, 4.000000, 4.000000, 4.000000, 4.000000, 4.000000, 4.000000
106.000000, 0.000000, 4188.205078, 4168.205078, 4188.717773, 4181.538574, 4178.974121, 4177.948730, 4176.410156, 4182.563965, 4138.461426, 4206.666504, 4186.153809, 4191.281738, 4175.897461, 4188.717773, 3283.000000, 8275.000000, 8227.000000, 0.000000, 0.000000, 0.000000, 25586.000000, 969.743591, 4.000000, 4.000000, 4.000000, 4.000000, 4.000000, 4.000000, 4.000000, 4.000000, 4.000000, 4.000000, 4.000000, 4.000000, 4.000000, 4.000000, 4.000000, 4.000000
107.000000, 0.000000, 4190.769043, 4171.794922, 4188.717773, 4183.589844, 4181.025391, 4181.538574, 4172.307617, 4192.307617, 4153.333008, 4212.820313, 4191.281738, 4192.820313, 4182.051270, 4194.358887, 3589.000000, 8267.000000, 8230.000000, 0.000000, 0.000000, 0.000000, 25586.000000, 977.435852, 4.000000, 4.000000, 4.000000, 4.000000, 4.000000, 4.000000, 4.000000, 4.000000, 4.000000, 4.000000, 4.000000, 4.000000, 4.000000, 4.000000, 4.000000, 4.000000
108.000000, 0.000000, 4189.743652, 4171.794922, 4191.794922, 4177.948730, 4186.666504, 4188.717773, 4190.769043, 4209.743652, 4191.794922, 4222.051270, 4199.487305, 4201.538574, 4189.743652, 4201.538574, 3515.000000, 8267.000000, 8230.000000, 0.000000, 0.000000, 0.000000, 25586.000000, 985.640991, 4.000000, 4.000000, 4.000000, 4.000000, 4.000000, 4.000000, 4.000000, 4.000000, 4.000000, 4.000000, 4.000000, 4.000000, 4.000000, 4.000000, 4.000000, 4.000000
109.000000, 0.000000, 4186.153809, 4172.820313, 4192.307617, 4185.641113, 4191.794922, 4199.487305, 4203.076660, 4221.025391, 4230.769043, 4227.692383, 4203.076660, 4206.153809, 4191.794922, 4202.563965, 3452.000000, 8247.000000, 8215.000000, 0.000000, 0.000000, 0.000000, 25586.000000, 993.333313, 4.000000, 4.000000, 4.000000, 4.000000, 4.000000, 4.000000, 4.000000, 4.000000, 4.000000, 4.000000, 4.000000, 4.000000, 4.000000, 4.000000, 4.000000, 4.000000
110.000000, 0.000000, 4183.589844, 4171.281738, 4187.179199, 4182.051270, 4193.333008, 4204.615234, 4198.974121, 4198.974121, 4239.487305, 4225.641113, 4201.025391, 4200.512695, 4189.743652, 4198.974121, 3283.000000, 8247.000000, 8215.000000, 0.000000, 0.000000, 0.000000, 25587.000000, 1.538461, 4.000000, 4.000000, 4.000000, 4.000000, 4.000000, 4.000000, 4.000000, 4.000000, 4.000000, 4.000000, 4.000000, 4.000000, 4.000000, 4.000000, 4.000000, 4.000000
111.000000, 0.000000, 4184.615234, 4168.205078, 4184.615234, 4176.922852, 4191.281738, 4198.974121, 4200.000000, 4178.461426, 4238.974121, 4221.025391, 4200.512695, 4202.051270, 4187.179199, 4195.897461, 3589.000000, 8241.000000, 8208.000000, 0.000000, 0.000000, 0.000000, 25587.000000, 9.230769, 4.000000, 4.000000, 4.000000, 4.000000, 4.000000, 4.000000, 4.000000, 4.000000, 4.000000, 4.000000, 4.000000, 4.000000, 4.000000, 4.000000, 4.000000, 4.000000
112.000000, 0.000000, 4186.153809, 4170.256348, 4186.666504, 4182.051270, 4190.256348, 4190.769043, 4200.000000, 4196.922852, 4257.436035, 4223.589844, 4198.974121, 4208.205078, 4186.666504, 4200.000000, 3515.000000, 8241.000000, 8208.000000, 0.000000, 0.000000, 0.000000, 25587.000000, 17.435898, 4.000000, 4.000000, 4.000000, 4.000000, 4.000000, 4.000000, 4.000000, 4.000000, 4.000000, 4.000000, 4.000000, 4.000000, 4.000000, 4.000000, 4.000000, 4.000000
113.000000, 0.000000, 4185.641113, 4174.358887, 4185.127930, 4178.974121, 4189.743652, 4190.256348, 4195.384277, 4208.717773, 4270.256348, 4221.538574, 4194.871582, 4205.641113, 4187.692383, 4204.615234, 3452.000000, 8230.000000, 8209.000000, 0.000000, 0.000000, 0.000000, 25587.000000, 25.128204, 4.000000, 4.000000, 4.000000, 4.000000, 4.000000, 4.000000, 4.000000, 4.000000, 4.000000, 4.000000, 4.000000, 4.000000, 4.000000, 4.000000, 4.000000, 4.000000
114.000000, 0.000000, 4176.922852, 4168.717773, 4174.871582, 4178.461426, 4186.153809, 4192.820313, 4196.410156, 4194.871582, 4271.281738, 4215.384277, 4190.769043, 4200.000000, 4184.102539, 4195.384277, 3283.000000, 8230.000000, 8209.000000, 0.000000, 0.000000, 0.000000, 25587.000000, 33.333332, 4.000000, 4.000000, 4.000000, 4.000000, 4.000000, 4.000000, 4.000000, 4.000000, 4.000000, 4.000000, 4.000000, 4.000000, 4.000000, 4.000000, 4.000000, 4.000000
115.000000, 0.000000, 4169.230469, 4160.512695, 4167.692383, 4173.846191, 4185.641113, 4190.256348, 4191.281738, 4188.717773, 4279.487305, 4219.487305, 4188.717773, 4197.948730, 4180.000000, 4185.641113, 3589.000000, 8211.000000, 8202.000000, 0.000000, 0.000000, 0.000000, 25587.000000, 41.025639, 4.000000, 4.000000, 4.000000, 4.000000, 4.000000, 4.000000, 4.000000, 4.000000, 4.000000, 4.000000, 4.000000, 4.000000, 4.000000, 4.000000, 4.000000, 4.000000
116.000000, 0.000000, 4175.897461, 4163.076660, 4175.384277, 4172.307617, 4184.615234, 4183.589844, 4181.025391, 4185.127930, 4285.127930, 4220.512695, 4193.333008, 4200.512695, 4181.025391, 4189.230469, 3515.000000, 8211.000000, 8202.000000, 0.000000, 0.000000, 0.000000, 25587.000000, 48.717949, 4.000000, 4.000000, 4.000000, 4.000000, 4.000000, 4.000000, 4.000000, 4.000000, 4.000000, 4.000000, 4.000000, 4.000000, 4.000000, 4.000000, 4.000000, 4.000000
117.000000, 0.000000, 4184.102539, 4169.230469, 4184.102539, 4177.948730, 4182.563965, 4183.589844, 4185.127930, 4182.563965, 4285.641113, 4215.384277, 4196.410156, 4201.538574, 4180.512695, 4194.871582, 3452.000000, 8202.000000, 8189.000000, 0.000000, 0.000000, 0.000000, 25587.000000, 56.923077, 4.000000, 4.000000, 4.000000, 4.000000, 4.000000, 4.000000, 4.000000, 4.000000, 4.000000, 4.000000, 4.000000, 4.000000, 4.000000, 4.000000, 4.000000, 4.000000
118.000000, 0.000000, 4188.205078, 4172.307617, 4187.692383, 4174.358887, 4184.615234, 4185.641113, 4186.153809, 4189.743652, 4294.358887, 4216.410156, 4193.846191, 4201.538574, 4180.000000, 4197.948730, 3283.000000, 8202.000000, 8189.000000, 0.000000, 0.000000, 0.000000, 25587.000000, 65.128204, 4.000000, 4.000000, 4.000000, 4.000000, 4.000000, 4.000000, 4.000000, 4.000000, 4.000000, 4.000000, 4.000000, 4.000000, 4.000000, 4.000000, 4.000000, 4.000000
119.000000, 0.000000, 4188.717773, 4170.769043, 4186.153809, 4177.436035, 4185.641113, 4183.076660, 4173.333008, 4187.692383, 4303.076660, 4217.948730, 4189.230469, 4201.538574, 4181.025391, 4194.871582, 3589.000000, 8181.000000, 8179.000000, 0.000000, 0.000000, 0.000000, 25587.000000, 72.820511, 4.000000, 4.000000, 4.000000, 4.000000, 4.000000, 4.000000, 4.000000, 4.000000, 4.000000, 4.000000, 4.000000, 4.000000, 4.000000, 4.000000, 4.000000, 4.000000
120.000000, 0.000000, 4185.127930, 4168.717773, 4182.051270, 4178.461426, 4184.102539, 4181.538574, 4170.769043, 4177.436035, 4302.563965, 4215.384277, 4188.717773, 4197.948730, 4180.000000, 4188.717773, 3515.000000, 8181.000000, 8179.000000, 0.000000, 0.000000, 0.000000, 25587.000000, 80.512817, 4.000000, 4.000000, 4.000000, 4.000000, 4.000000, 4.000000, 4.000000, 4.000000, 4.000000, 4.000000, 4.000000, 4.000000, 4.000000, 4.000000, 4.000000, 4.000000
121.000000, 0.000000, 4187.692383, 4175.897461, 4184.102539, 4178.461426, 4183.589844, 4183.076660, 4182.563965, 4183.589844, 4307.692383, 4213.846191, 4191.794922, 4196.922852, 4182.051270, 4191.281738, 3452.000000, 8171.000000, 8174.000000, 0.000000, 0.000000, 0.000000, 25587.000000, 88.717949, 4.000000, 4.000000, 4.000000, 4.000000, 4.000000, 4.000000, 4.000000, 4.000000, 4.000000, 4.000000, 4.000000, 4.000000, 4.000000, 4.000000, 4.000000, 4.000000
122.000000, 0.000000, 4197.948730, 4186.153809, 4195.384277, 4186.666504, 4186.153809, 4185.127930, 4193.333008, 4204.102539, 4321.025391, 4217.436035, 4198.461426, 4206.153809, 4190.769043, 4206.153809, 3283.000000, 8171.000000, 8174.000000, 0.000000, 0.000000, 0.000000, 25587.000000, 96.410255, 4.000000, 4.000000, 4.000000, 4.000000, 4.000000, 4.000000, 4.000000, 4.000000, 4.000000, 4.000000, 4.000000, 4.000000, 4.000000, 4.000000, 4.000000, 4.000000
123.000000, 0.000000, 4204.615234, 4188.717773, 4204.102539, 4184.102539, 4189.743652, 4185.641113, 4187.692383, 4206.153809, 4327.692383, 4221.025391, 4205.641113, 4214.358887, 4197.948730, 4217.436035, 3589.000000, 8174.000000, 8158.000000, 0.000000, 0.000000, 0.000000, 25587.000000, 104.615379, 4.000000, 4.000000, 4.000000, 4.000000, 4.000000, 4.000000, 4.000000, 4.000000, 4.000000, 4.000000, 4.000000, 4.000000, 4.000000, 4.000000, 4.000000, 4.000000
124.000000, 0.000000, 4204.102539, 4190.256348, 4202.563965, 4187.179199, 4192.820313, 4184.615234, 4173.846191, 4183.076660, 4320.000000, 4218.461426, 4201.025391, 4213.333008, 4194.358887, 4213.333008, 3515.000000, 8174.000000, 8158.000000, 0.000000, 0.000000, 0.000000, 25587.000000, 112.307686, 4.000000, 4.000000, 4.000000, 4.000000, 4.000000, 4.000000, 4.000000, 4.000000, 4.000000, 4.000000, 4.000000, 4.000000, 4.000000, 4.000000, 4.000000, 4.000000
125.000000, 0.000000, 4197.948730, 4190.769043, 4196.410156, 4185.641113, 4191.794922, 4184.102539, 4176.410156, 4180.512695, 4316.922852, 4215.384277, 4197.436035, 4211.281738, 4190.769043, 4206.666504, 3452.000000, 8176.000000, 8156.000000, 0.000000, 0.000000, 0.000000, 25587.000000, 120.512817, 4.000000, 4.000000, 4.000000, 4.000000, 4.000000, 4.000000, 4.000000, 4.000000, 4.000000, 4.000000, 4.000000, 4.000000, 4.000000, 4.000000, 4.000000, 4.000000
126.000000, 0.000000, 4187.692383, 4169.230469, 4190.769043, 4176.410156, 4188.717773, 4184.102539, 4188.205078, 4202.563965, 4328.205078, 4216.410156, 4201.538574, 4210.256348, 4189.743652, 4203.589844, 3283.000000, 8176.000000, 8156.000000, 0.000000, 0.000000, 0.000000, 25587.000000, 128.205124, 4.000000, 4.000000, 4.000000, 4.000000, 4.000000, 4.000000, 4.000000, 4.000000, 4.000000, 4.000000, 4.000000, 4.000000, 4.000000, 4.000000, 4.000000, 4.000000
127.000000, 0.000000, 4182.051270, 4153.846191, 4185.127930, 4179.487305, 4190.256348, 4184.615234, 4185.641113, 4200.512695, 4330.256348, 4215.384277, 4198.461426, 4206.666504, 4187.179199, 4199.487305, 53.000000, 8184.000000, 8147.000000, 0.000000, 0.000000, 0.000000, 25587.000000, 136.410248, 4.000000, 4.000000, 4.000000, 4.000000, 4.000000, 4.000000, 4.000000, 4.000000, 4.000000, 4.000000, 4.000000, 4.000000, 4.000000, 4.000000, 4.000000, 4.000000
0.000000, 0.000000, 4184.615234, 4172.820313, 4182.051270, 4179.487305, 4196.410156, 4183.076660, 4172.820313, 4189.743652, 4325.127930, 4213.846191, 4191.281738, 4198.974121, 4187.179199, 4196.922852, 3226.000000, 8184.000000, 8147.000000, 0.000000, 0.000000, 0.000000, 25587.000000, 144.102554, 4.000000, 4.000000, 4.000000, 4.000000, 4.000000, 4.000000, 4.000000, 4.000000, 4.000000, 4.000000, 4.000000, 4.000000, 4.000000, 4.000000, 4.000000, 4.000000
1.000000, 0.000000, 4193.333008, 4188.205078, 4182.051270, 4184.102539, 4198.461426, 4176.410156, 4161.538574, 4191.281738, 4321.538574, 4214.358887, 4189.230469, 4195.897461, 4186.153809, 4198.461426, 2030.000000, 8193.000000, 8138.000000, 0.000000, 0.000000, 0.000000, 25587.000000, 152.307693, 4.000000, 4.000000, 4.000000, 4.000000, 4.000000, 4.000000, 4.000000, 4.000000, 4.000000, 4.000000, 4.000000, 4.000000, 4.000000, 4.000000, 4.000000, 4.000000
2.000000, 0.000000, 4195.897461, 4183.076660, 4183.076660, 4183.076660, 4197.948730, 4172.307617, 4158.974121, 4182.563965, 4316.410156, 4212.820313, 4190.256348, 4200.000000, 4185.641113, 4198.461426, 3145.000000, 8193.000000, 8138.000000, 0.000000, 0.000000, 0.000000, 25587.000000, 160.000000, 4.000000, 4.000000, 4.000000, 4.000000, 4.000000, 4.000000, 4.000000, 4.000000, 4.000000, 4.000000, 4.000000, 4.000000, 4.000000, 4.000000, 4.000000, 4.000000
3.000000, 0.000000, 4191.794922, 4189.230469, 4184.615234, 4179.487305, 4198.974121, 4178.974121, 4170.256348, 4179.487305, 4318.461426, 4212.307617, 4188.205078, 4200.512695, 4187.179199, 4197.436035, 3552.000000, 8194.000000, 8147.000000, 0.000000, 0.000000, 0.000000, 25587.000000, 168.205124, 4.000000, 4.000000, 4.000000, 4.000000, 4.000000, 4.000000, 4.000000, 4.000000, 4.000000, 4.000000, 4.000000, 4.000000, 4.000000, 4.000000, 4.000000, 4.000000
4.000000, 0.000000, 4193.846191, 4203.076660, 4185.127930, 4192.820313, 4202.563965, 4185.641113, 4174.871582, 4187.692383, 4322.051270, 4209.230469, 4185.127930, 4196.922852, 4181.025391, 4195.384277, 3519.000000, 8194.000000, 8147.000000, 0.000000, 0.000000, 0.000000, 25587.000000, 175.897430, 4.000000, 4.000000, 4.000000, 4.000000, 4.000000, 4.000000, 4.000000, 4.000000, 4.000000, 4.000000, 4.000000, 4.000000, 4.000000, 4.000000, 4.000000, 4.000000
5.000000, 0.000000, 4199.487305, 4205.641113, 4184.615234, 4191.794922, 4204.102539, 4183.076660, 4166.666504, 4179.487305, 4316.922852, 4202.563965, 4176.922852, 4188.717773, 4165.127930, 4188.205078, 3550.000000, 8200.000000, 8145.000000, 0.000000, 0.000000, 0.000000, 25587.000000, 184.102554, 4.000000, 4.000000, 4.000000, 4.000000, 4.000000, 4.000000, 4.000000, 4.000000, 4.000000, 4.000000, 4.000000, 4.000000, 4.000000, 4.000000, 4.000000, 4.000000
6.000000, 0.000000, 4203.076660, 4211.794922, 4184.615234, 4189.743652, 4201.538574, 4183.076660, 4176.410156, 4172.307617, 4314.871582, 4197.948730, 4168.717773, 4187.179199, 4154.358887, 4183.076660, 3481.000000, 8200.000000, 8145.000000, 0.000000, 0.000000, 0.000000, 25587.000000, 191.794861, 4.000000, 4.000000, 4.000000, 4.000000, 4.000000, 4.000000, 4.000000, 4.000000, 4.000000, 4.000000, 4.000000, 4.000000, 4.000000, 4.000000, 4.000000, 4.000000
7.000000, 0.000000, 4200.512695, 4221.538574, 4184.102539, 4192.820313, 4201.538574, 4186.666504, 4187.179199, 4188.205078, 4321.538574, 4195.384277, 4167.692383, 4187.692383, 4150.769043, 4181.538574, 3239.000000, 8198.000000, 8144.000000, 0.000000, 0.000000, 0.000000, 25587.000000, 200.000000, 4.000000, 4.000000, 4.000000, 4.000000, 4.000000, 4.000000, 4.000000, 4.000000, 4.000000, 4.000000, 4.000000, 4.000000, 4.000000, 4.000000, 4.000000, 4.000000
8.000000, 0.000000, 4194.871582, 4219.487305, 4181.025391, 4189.743652, 4203.076660, 4185.127930, 4180.000000, 4195.384277, 4325.127930, 4192.820313, 4168.717773, 4185.641113, 4146.666504, 4178.461426, 3391.000000, 8198.000000, 8144.000000, 0.000000, 0.000000, 0.000000, 25587.000000, 207.692307, 4.000000, 4.000000, 4.000000, 4.000000, 4.000000, 4.000000, 4.000000, 4.000000, 4.000000, 4.000000, 4.000000, 4.000000, 4.000000, 4.000000, 4.000000, 4.000000
9.000000, 0.000000, 4197.436035, 4214.871582, 4186.153809, 4194.358887, 4202.051270, 4184.102539, 4182.563965, 4186.666504, 4326.666504, 4196.410156, 4171.794922, 4193.333008, 4150.256348, 4182.563965, 3524.000000, 8198.000000, 8153.000000, 0.000000, 0.000000, 0.000000, 25587.000000, 215.897430, 4.000000, 4.000000, 4.000000, 4.000000, 4.000000, 4.000000, 4.000000, 4.000000, 4.000000, 4.000000, 4.000000, 4.000000, 4.000000, 4.000000, 4.000000, 4.000000
10.000000, 0.000000, 4203.589844, 4215.897461, 4195.384277, 4193.846191, 4203.589844, 4185.641113, 4184.102539, 4186.153809, 4330.256348, 4203.589844, 4176.922852, 4202.563965, 4157.948730, 4190.256348, 3058.000000, 8198.000000, 8153.000000, 0.000000, 0.000000, 0.000000, 25587.000000, 223.589737, 4.000000, 4.000000, 4.000000, 4.000000, 4.000000, 4.000000, 4.000000, 4.000000, 4.000000, 4.000000, 4.000000, 4.000000, 4.000000, 4.000000, 4.000000, 4.000000
11.000000, 0.000000, 4204.102539, 4218.974121, 4192.307617, 4192.820313, 4205.641113, 4184.102539, 4173.846191, 4187.692383, 4327.179199, 4197.948730, 4173.333008, 4198.461426, 4155.897461, 4187.692383, 3592.000000, 8190.000000, 8163.000000, 0.000000, 0.000000, 0.000000, 25587.000000, 231.794861, 4.000000, 4.000000, 4.000000, 4.000000, 4.000000, 4.000000, 4.000000, 4.000000, 4.000000, 4.000000, 4.000000, 4.000000, 4.000000, 4.000000, 4.000000, 4.000000
12.000000, 0.000000, 4198.461426, 4214.871582, 4185.127930, 4192.307617, 4202.563965, 4184.102539, 4176.922852, 4189.743652, 4324.102539, 4187.179199, 4163.076660, 4189.230469, 4148.717773, 4182.051270, 3267.000000, 8190.000000, 8163.000000, 0.000000, 0.000000, 0.000000, 25587.000000, 239.487167, 4.000000, 4.000000, 4.000000, 4.000000, 4.000000, 4.000000, 4.000000, 4.000000, 4.000000, 4.000000, 4.000000, 4.000000, 4.000000, 4.000000, 4.000000, 4.000000
13.000000, 0.000000, 4193.846191, 4206.153809, 4184.615234, 4187.179199, 4201.025391, 4185.641113, 4176.922852, 4186.666504, 4322.563965, 4183.076660, 4161.538574, 4187.179199, 4145.641113, 4176.922852, 3452.000000, 8182.000000, 8163.000000, 0.000000, 0.000000, 0.000000, 25587.000000, 247.692307, 4.000000, 4.000000, 4.000000, 4.000000, 4.000000, 4.000000, 4.000000, 4.000000, 4.000000, 4.000000, 4.000000, 4.000000, 4.000000, 4.000000, 4.000000, 4.000000
14.000000, 0.000000, 4192.820313, 4200.000000, 4184.615234, 4192.307617, 4200.512695, 4181.025391, 4158.461426, 4179.487305, 4316.410156, 4179.487305, 4162.563965, 4185.127930, 4141.538574, 4171.281738, 3058.000000, 8182.000000, 8163.000000, 0.000000, 0.000000, 0.000000, 25587.000000, 255.384613, 4.000000, 4.000000, 4.000000, 4.000000, 4.000000, 4.000000, 4.000000, 4.000000, 4.000000, 4.000000, 4.000000, 4.000000, 4.000000, 4.000000, 4.000000, 4.000000
15.000000, 0.000000, 4192.307617, 4199.487305, 4184.615234, 4188.205078, 4195.384277, 4175.384277, 4159.487305, 4188.717773, 4315.897461, 4176.410156, 4160.000000, 4182.563965, 4142.051270, 4171.281738, 3592.000000, 8176.000000, 8179.000000, 0.000000, 0.000000, 0.000000, 25587.000000, 263.589752, 4.000000, 4.000000, 4.000000, 4.000000, 4.000000, 4.000000, 4.000000, 4.000000, 4.000000, 4.000000, 4.000000, 4.000000, 4.000000, 4.000000, 4.000000, 4.000000
16.000000, 0.000000, 4189.230469, 4196.410156, 4184.102539, 4182.563965, 4190.769043, 4173.846191, 4176.410156, 4189.743652, 4312.307617, 4171.281738, 4154.358887, 4184.102539, 4142.051270, 4169.743652, 0.000000, 8176.000000, 8179.000000, 0.000000, 0.000000, 0.000000, 25587.000000, 271.282043, 4.000000, 4.000000, 4.000000, 4.000000, 4.000000, 4.000000, 4.000000, 4.000000, 4.000000, 4.000000, 4.000000, 4.000000, 4.000000, 4.000000, 4.000000, 4.000000
17.000000, 0.000000, 4186.153809, 4193.333008, 4180.512695, 4184.615234, 4192.820313, 4171.281738, 4171.281738, 4175.897461, 4305.641113, 4167.179199, 4150.769043, 4183.076660, 4137.436035, 4164.615234, 0.000000, 8171.000000, 8187.000000, 0.000000, 0.000000, 0.000000, 25587.000000, 279.487183, 4.000000, 4.000000, 4.000000, 4.000000, 4.000000, 4.000000, 4.000000, 4.000000, 4.000000, 4.000000, 4.000000, 4.000000, 4.000000, 4.000000, 4.000000, 4.000000
18.000000, 0.000000, 4191.794922, 4199.487305, 4185.127930, 4185.127930, 4198.461426, 4168.717773, 4152.820313, 4172.820313, 4306.153809, 4170.256348, 4161.025391, 4185.641113, 4144.102539, 4169.743652, 0.000000, 8171.000000, 8187.000000, 0.000000, 0.000000, 0.000000, 25587.000000, 287.692291, 4.000000, 4.000000, 4.000000, 4.000000, 4.000000, 4.000000, 4.000000, 4.000000, 4.000000, 4.000000, 4.000000, 4.000000, 4.000000, 4.000000, 4.000000, 4.000000
19.000000, 0.000000, 4200.000000, 4204.615234, 4191.794922, 4192.820313, 4200.512695, 4168.205078, 4148.717773, 4171.281738, 4306.666504, 4170.256348, 4167.692383, 4189.743652, 4151.281738, 4180.000000, 0.000000, 8157.000000, 8197.000000, 0.000000, 0.000000, 0.000000, 25587.000000, 295.384613, 4.000000, 4.000000, 4.000000, 4.000000, 4.000000, 4.000000, 4.000000, 4.000000, 4.000000, 4.000000, 4.000000, 4.000000, 4.000000, 4.000000, 4.000000, 4.000000
20.000000, 0.000000, 4195.897461, 4201.538574, 4186.666504, 4188.717773, 4198.974121, 4169.743652, 4160.512695, 4167.692383, 4306.666504, 4164.615234, 4161.025391, 4187.692383, 4145.641113, 4178.461426, 0.000000, 8157.000000, 8197.000000, 0.000000, 0.000000, 0.000000, 25587.000000, 303.589722, 4.000000, 4.000000, 4.000000, 4.000000, 4.000000, 4.000000, 4.000000, 4.000000, 4.000000, 4.000000, 4.000000, 4.000000, 4.000000, 4.000000, 4.000000, 4.000000
21.000000, 0.000000, 4190.256348, 4198.461426, 4183.076660, 4185.127930, 4197.948730, 4173.333008, 4171.281738, 4176.410156, 4308.717773, 4163.076660, 4155.384277, 4185.127930, 4144.102539, 4171.794922, 0.000000, 8150.000000, 8207.000000, 0.000000, 0.000000, 0.000000, 25587.000000, 311.282043, 4.000000, 4.000000, 4.000000, 4.000000, 4.000000, 4.000000, 4.000000, 4.000000, 4.000000, 4.000000, 4.000000, 4.000000, 4.000000, 4.000000, 4.000000, 4.000000
22.000000, 0.000000, 4191.281738, 4198.461426, 4186.666504, 4189.743652, 4197.948730, 4174.871582, 4167.692383, 4175.384277, 4308.205078, 4165.127930, 4156.410156, 4185.641113, 4147.692383, 4169.743652, 0.000000, 8150.000000, 8207.000000, 0.000000, 0.000000, 0.000000, 25587.000000, 319.487183, 4.000000, 4.000000, 4.000000, 4.000000, 4.000000, 4.000000, 4.000000, 4.000000, 4.000000, 4.000000, 4.000000, 4.000000, 4.000000, 4.000000, 4.000000, 4.000000
23.000000, 0.000000, 4192.820313, 4200.000000, 4187.692383, 4186.153809, 4198.461426, 4174.358887, 4164.615234, 4167.692383, 4308.205078, 4162.051270, 4160.512695, 4181.538574, 4147.179199, 4170.769043, 0.000000, 8143.000000, 8213.000000, 0.000000, 0.000000, 0.000000, 25587.000000, 327.179474, 4.000000, 4.000000, 4.000000, 4.000000, 4.000000, 4.000000, 4.000000, 4.000000, 4.000000, 4.000000, 4.000000, 4.000000, 4.000000, 4.000000, 4.000000, 4.000000
24.000000, 0.000000, 4193.846191, 4199.487305, 4187.692383, 4190.256348, 4198.974121, 4177.436035, 4171.281738, 4176.922852, 4309.230469, 4156.410156, 4162.051270, 4180.512695, 4145.641113, 4170.256348, 0.000000, 8143.000000, 8213.000000, 0.000000, 0.000000, 0.000000, 25587.000000, 334.871796, 4.000000, 4.000000, 4.000000, 4.000000, 4.000000, 4.000000, 4.000000, 4.000000, 4.000000, 4.000000, 4.000000, 4.000000, 4.000000, 4.000000, 4.000000, 4.000000
25.000000, 0.000000, 4191.281738, 4196.410156, 4184.102539, 4187.692383, 4202.051270, 4181.025391, 4171.281738, 4176.410156, 4305.641113, 4152.820313, 4158.974121, 4182.563965, 4145.641113, 4169.743652, 0.000000, 8138.000000, 8217.000000, 0.000000, 0.000000, 0.000000, 25587.000000, 343.076904, 4.000000, 4.000000, 4.000000, 4.000000, 4.000000, 4.000000, 4.000000, 4.000000, 4.000000, 4.000000, 4.000000, 4.000000, 4.000000, 4.000000, 4.000000, 4.000000
26.000000, 0.000000, 4189.743652, 4201.025391, 4175.897461, 4182.563965, 4202.563965, 4185.127930, 4170.769043, 4166.153809, 4305.641113, 4153.846191, 4158.461426, 4180.512695, 4145.641113, 4170.256348, 0.000000, 8138.000000, 8217.000000, 0.000000, 0.000000, 0.000000, 25587.000000, 351.282043, 4.000000, 4.000000, 4.000000, 4.000000, 4.000000, 4.000000, 4.000000, 4.000000, 4.000000, 4.000000, 4.000000, 4.000000, 4.000000, 4.000000, 4.000000, 4.000000
27.000000, 0.000000, 4189.743652, 4199.487305, 4170.769043, 4187.179199, 4201.025391, 4191.281738, 4185.641113, 4180.000000, 4313.846191, 4160.512695, 4167.692383, 4181.025391, 4148.717773, 4170.256348, 0.000000, 8136.000000, 8218.000000, 0.000000, 0.000000, 0.000000, 25587.000000, 358.974365, 4.000000, 4.000000, 4.000000, 4.000000, 4.000000, 4.000000, 4.000000, 4.000000, 4.000000, 4.000000, 4.000000, 4.000000, 4.000000, 4.000000, 4.000000, 4.000000
28.000000, 0.000000, 4187.692383, 4188.205078, 4169.743652, 4181.538574, 4200.512695, 4192.307617, 4191.281738, 4192.820313, 4317.436035, 4166.153809, 4171.794922, 4182.563965, 4149.743652, 4168.205078, 0.000000, 8136.000000, 8218.000000, 0.000000, 0.000000, 0.000000, 25587.000000, 367.179474, 4.000000, 4.000000, 4.000000, 4.000000, 4.000000, 4.000000, 4.000000, 4.000000, 4.000000, 4.000000, 4.000000, 4.000000, 4.000000, 4.000000, 4.000000, 4.000000
29.000000, 0.000000, 4188.717773, 4197.948730, 4175.384277, 4187.179199, 4203.076660, 4187.179199, 4180.512695, 4177.948730, 4309.230469, 4167.692383, 4168.205078, 4181.538574, 4149.743652, 4167.692383, 0.000000, 8145.000000, 8214.000000, 0.000000, 0.000000, 0.000000, 25587.000000, 374.871796, 4.000000, 4.000000, 4.000000, 4.000000, 4.000000, 4.000000, 4.000000, 4.000000, 4.000000, 4.000000, 4.000000, 4.000000, 4.000000, 4.000000, 4.000000, 4.000000
30.000000, 0.000000, 4196.922852, 4221.025391, 4183.076660, 4195.897461, 4211.794922, 4189.230469, 4183.589844, 4174.358887, 4306.666504, 4167.179199, 4170.256348, 4181.538574, 4156.410156, 4172.820313, 0.000000, 8145.000000, 8214.000000, 0.000000, 0.000000, 0.000000, 25587.000000, 382.564087, 4.000000, 4.000000, 4.000000, 4.000000, 4.000000, 4.000000, 4.000000, 4.000000, 4.000000, 4.000000, 4.000000, 4.000000, 4.000000, 4.000000, 4.000000, 4.000000
31.000000, 0.000000, 4203.076660, 4226.153809, 4183.589844, 4194.358887, 4216.410156, 4194.358887, 4186.666504, 4193.333008, 4314.358887, 4167.179199, 4171.794922, 4181.025391, 4156.922852, 4172.820313, 0.000000, 8151.000000, 8207.000000, 0.000000, 0.000000, 0.000000, 25587.000000, 390.769226, 4.000000, 4.000000, 4.000000, 4.000000, 4.000000, 4.000000, 4.000000, 4.000000, 4.000000, 4.000000, 4.000000, 4.000000, 4.000000, 4.000000, 4.000000, 4.000000
32.000000, 0.000000, 4199.487305, 4222.563965, 4180.512695, 4197.436035, 4213.846191, 4188.717773, 4176.922852, 4191.794922, 4315.384277, 4166.153809, 4168.717773, 4178.461426, 4149.743652, 4168.717773, 0.000000, 8151.000000, 8207.000000, 0.000000, 0.000000, 0.000000, 25587.000000, 398.974335, 4.000000, 4.000000, 4.000000, 4.000000, 4.000000, 4.000000, 4.000000, 4.000000, 4.000000, 4.000000, 4.000000, 4.000000, 4.000000, 4.000000, 4.000000, 4.000000
33.000000, 0.000000, 4198.461426, 4226.153809, 4179.487305, 4193.846191, 4214.358887, 4189.230469, 4180.000000, 4179.487305, 4312.820313, 4168.205078, 4168.717773, 4181.538574, 4152.307617, 4171.794922, 0.000000, 8158.000000, 8203.000000, 0.000000, 0.000000, 0.000000, 25587.000000, 406.666656, 4.000000, 4.000000, 4.000000, 4.000000, 4.000000, 4.000000, 4.000000, 4.000000, 4.000000, 4.000000, 4.000000, 4.000000, 4.000000, 4.000000, 4.000000, 4.000000
34.000000, 0.000000, 4198.461426, 4221.025391, 4180.512695, 4191.281738, 4211.794922, 4195.897461, 4191.794922, 4183.076660, 4312.307617, 4165.127930, 4168.717773, 4185.641113, 4155.384277, 4172.307617, 0.000000, 8158.000000, 8203.000000, 0.000000, 0.000000, 0.000000, 25587.000000, 414.871796, 4.000000, 4.000000, 4.000000, 4.000000, 4.000000, 4.000000, 4.000000, 4.000000, 4.000000, 4.000000, 4.000000, 4.000000, 4.000000, 4.000000, 4.000000, 4.000000
35.000000, 0.000000, 4194.871582, 4213.333008, 4182.051270, 4188.717773, 4202.563965, 4193.846191, 4191.794922, 4190.256348, 4313.333008, 4161.538574, 4168.205078, 4185.127930, 4153.333008, 4167.179199, 0.000000, 8162.000000, 8194.000000, 0.000000, 0.000000, 0.000000, 25587.000000, 422.564087, 4.000000, 4.000000, 4.000000, 4.000000, 4.000000, 4.000000, 4.000000, 4.000000, 4.000000, 4.000000, 4.000000, 4.000000, 4.000000, 4.000000, 4.000000, 4.000000
36.000000, 0.000000, 4198.974121, 4216.922852, 4185.641113, 4187.179199, 4200.000000, 4192.307617, 4189.743652, 4195.897461, 4316.922852, 4167.179199, 4170.769043, 4190.256348, 4154.871582, 4175.897461, 0.000000, 8162.000000, 8194.000000, 0.000000, 0.000000, 0.000000, 25587.000000, 430.769226, 4.000000, 4.000000, 4.000000, 4.000000, 4.000000, 4.000000, 4.000000, 4.000000, 4.000000, 4.000000, 4.000000, 4.000000, 4.000000, 4.000000, 4.000000, 4.000000
37.000000, 0.000000, 4200.000000, 4216.922852, 4186.666504, 4195.384277, 4203.589844, 4193.333008, 4189.743652, 4201.025391, 4316.410156, 4169.743652, 4172.307617, 4194.358887, 4156.410156, 4183.589844, 0.000000, 8158.000000, 8178.000000, 0.000000, 0.000000, 0.000000, 25587.000000, 438.461517, 4.000000, 4.000000, 4.000000, 4.000000, 4.000000, 4.000000, 4.000000, 4.000000, 4.000000, 4.000000, 4.000000, 4.000000, 4.000000, 4.000000, 4.000000, 4.000000
38.000000, 0.000000, 4195.897461, 4213.846191, 4186.153809, 4191.281738, 4204.102539, 4187.179199, 4181.025391, 4197.436035, 4313.333008, 4162.563965, 4170.256348, 4188.717773, 4155.897461, 4175.384277, 0.000000, 8158.000000, 8178.000000, 0.000000, 0.000000, 0.000000, 25587.000000, 446.666656, 4.000000, 4.000000, 4.000000, 4.000000, 4.000000, 4.000000, 4.000000, 4.000000, 4.000000, 4.000000, 4.000000, 4.000000, 4.000000, 4.000000, 4.000000, 4.000000
39.000000, 0.000000, 4195.897461, 4208.717773, 4186.153809, 4190.256348, 4203.076660, 4183.076660, 4176.410156, 4190.769043, 4309.230469, 4154.358887, 4169.230469, 4186.153809, 4153.333008, 4168.717773, 0.000000, 8160.000000, 8137.000000, 0.000000, 0.000000, 0.000000, 25587.000000, 454.358978, 4.000000, 4.000000, 4.000000, 4.000000, 4.000000, 4.000000, 4.000000, 4.000000, 4.000000, 4.000000, 4.000000, 4.000000, 4.000000, 4.000000, 4.000000, 4.000000
40.000000, 0.000000, 4194.358887, 4202.563965, 4186.153809, 4189.743652, 4202.563965, 4186.666504, 4173.333008, 4191.281738, 4303.076660, 4148.717773, 4165.641113, 4187.179199, 4144.615234, 4165.641113, 0.000000, 8160.000000, 8137.000000, 0.000000, 0.000000, 0.000000, 25587.000000, 462.564087, 4.000000, 4.000000, 4.000000, 4.000000, 4.000000, 4.000000, 4.000000, 4.000000, 4.000000, 4.000000, 4.000000, 4.000000, 4.000000, 4.000000, 4.000000, 4.000000
41.000000, 0.000000, 4187.179199, 4201.025391, 4183.076660, 4182.563965, 4200.512695, 4185.127930, 4167.692383, 4183.589844, 4294.871582, 4146.153809, 4157.436035, 4177.948730, 4141.538574, 4162.051270, 0.000000, 8159.000000, 8110.000000, 0.000000, 0.000000, 0.000000, 25587.000000, 470.256409, 4.000000, 4.000000, 4.000000, 4.000000, 4.000000, 4.000000, 4.000000, 4.000000, 4.000000, 4.000000, 4.000000, 4.000000, 4.000000, 4.000000, 4.000000, 4.000000
42.000000, 0.000000, 4181.538574, 4195.897461, 4175.897461, 4185.127930, 4200.512695, 4183.589844, 4175.384277, 4180.000000, 4292.820313, 4145.127930, 4152.307617, 4172.820313, 4146.666504, 4160.000000, 0.000000, 8159.000000, 8110.000000, 0.000000, 0.000000, 0.000000, 25587.000000, 478.461517, 4.000000, 4.000000, 4.000000, 4.000000, 4.000000, 4.000000, 4.000000, 4.000000, 4.000000, 4.000000, 4.000000, 4.000000, 4.000000, 4.000000, 4.000000, 4.000000
43.000000, 0.000000, 4182.563965, 4192.820313, 4169.230469, 4181.025391, 4202.051270, 4186.153809, 4183.076660, 4189.743652, 4295.384277, 4144.615234, 4152.820313, 4175.897461, 4147.692383, 4162.563965, 0.000000, 8159.000000, 8090.000000, 0.000000, 0.000000, 0.000000, 25587.000000, 486.153839, 4.000000, 4.000000, 4.000000, 4.000000, 4.000000, 4.000000, 4.000000, 4.000000, 4.000000, 4.000000, 4.000000, 4.000000, 4.000000, 4.000000, 4.000000, 4.000000
44.000000, 0.000000, 4184.615234, 4196.922852, 4168.717773, 4182.563965, 4201.538574, 4183.589844, 4171.794922, 4185.641113, 4289.743652, 4145.641113, 4160.000000, 4175.897461, 4147.692383, 4165.127930, 0.000000, 8159.000000, 8090.000000, 0.000000, 0.000000, 0.000000, 25587.000000, 493.846130, 4.000000, 4.000000, 4.000000, 4.000000, 4.000000, 4.000000, 4.000000, 4.000000, 4.000000, 4.000000, 4.000000, 4.000000, 4.000000, 4.000000, 4.000000, 4.000000
45.000000, 0.000000, 4189.230469, 4201.538574, 4176.410156, 4188.205078, 4201.538574, 4182.051270, 4168.205078, 4184.615234, 4288.205078, 4154.358887, 4168.717773, 4177.948730, 4160.000000, 4169.743652, 0.000000, 8167.000000, 8093.000000, 0.000000, 0.000000, 0.000000, 25587.000000, 502.051270, 4.000000, 4.000000, 4.000000, 4.000000, 4.000000, 4.000000, 4.000000, 4.000000, 4.000000, 4.000000, 4.000000, 4.000000, 4.000000, 4.000000, 4.000000, 4.000000
46.000000, 0.000000, 4198.461426, 4206.153809, 4183.589844, 4187.179199, 4203.589844, 4187.179199, 4188.717773, 4201.025391, 4294.871582, 4161.538574, 4172.307617, 4184.102539, 4170.256348, 4177.436035, 0.000000, 8167.000000, 8093.000000, 0.000000, 0.000000, 0.000000, 25587.000000, 509.743591, 4.000000, 4.000000, 4.000000, 4.000000, 4.000000, 4.000000, 4.000000, 4.000000, 4.000000, 4.000000, 4.000000, 4.000000, 4.000000, 4.000000, 4.000000, 4.000000
47.000000, 0.000000, 4203.589844, 4209.743652, 4186.666504, 4193.333008, 4210.256348, 4191.794922, 4193.333008, 4201.025391, 4296.410156, 4164.102539, 4175.384277, 4189.230469, 4168.717773, 4185.127930, 0.000000, 8179.000000, 8091.000000, 0.000000, 0.000000, 0.000000, 25587.000000, 517.948730, 4.000000, 4.000000, 4.000000, 4.000000, 4.000000, 4.000000, 4.000000, 4.000000, 4.000000, 4.000000, 4.000000, 4.000000, 4.000000, 4.000000, 4.000000, 4.000000
48.000000, 0.000000, 4199.487305, 4210.769043, 4186.666504, 4190.769043, 4214.871582, 4189.743652, 4170.769043, 4188.717773, 4290.769043, 4164.615234, 4177.948730, 4188.717773, 4172.820313, 4186.153809, 0.000000, 8179.000000, 8091.000000, 0.000000, 0.000000, 0.000000, 25587.000000, 525.640991, 4.000000, 4.000000, 4.000000, 4.000000, 4.000000, 4.000000, 4.000000, 4.000000, 4.000000, 4.000000, 4.000000, 4.000000, 4.000000, 4.000000, 4.000000, 4.000000
49.000000, 0.000000, 4196.410156, 4208.717773, 4182.563965, 4187.179199, 4208.205078, 4185.641113, 4166.666504, 4183.589844, 4279.487305, 4156.922852, 4172.307617, 4180.512695, 4170.256348, 4174.871582, 0.000000, 8199.000000, 8085.000000, 0.000000, 0.000000, 0.000000, 25587.000000, 533.846130, 4.000000, 4.000000, 4.000000, 4.000000, 4.000000, 4.000000, 4.000000, 4.000000, 4.000000, 4.000000, 4.000000, 4.000000, 4.000000, 4.000000, 4.000000, 4.000000
50.000000, 0.000000, 4197.436035, 4207.692383, 4177.948730, 4189.743652, 4200.000000, 4184.102539, 4176.410156, 4169.230469, 4265.127930, 4148.205078, 4163.076660, 4174.871582, 4157.436035, 4169.743652, 0.000000, 8199.000000, 8085.000000, 0.000000, 0.000000, 0.000000, 25587.000000, 541.538452, 4.000000, 4.000000, 4.000000, 4.000000, 4.000000, 4.000000, 4.000000, 4.000000, 4.000000, 4.000000, 4.000000, 4.000000, 4.000000, 4.000000, 4.000000, 4.000000
51.000000, 0.000000, 4194.358887, 4205.127930, 4176.410156, 4186.153809, 4204.102539, 4187.692383, 4173.846191, 4167.692383, 4261.025391, 4150.769043, 4159.487305, 4175.384277, 4154.358887, 4173.333008, 0.000000, 8208.000000, 8103.000000, 0.000000, 0.000000, 0.000000, 25587.000000, 549.743591, 4.000000, 4.000000, 4.000000, 4.000000, 4.000000, 4.000000, 4.000000, 4.000000, 4.000000, 4.000000, 4.000000, 4.000000, 4.000000, 4.000000, 4.000000, 4.000000
52.000000, 0.000000, 4185.641113, 4193.846191, 4171.281738, 4188.205078, 4208.205078, 4196.410156, 4176.410156, 4189.230469, 4268.205078, 4146.666504, 4153.333008, 4173.333008, 4149.230469, 4162.563965, 0.000000, 8208.000000, 8103.000000, 0.000000, 0.000000, 0.000000, 25587.000000, 557.435913, 4.000000, 4.000000, 4.000000, 4.000000, 4.000000, 4.000000, 4.000000, 4.000000, 4.000000, 4.000000, 4.000000, 4.000000, 4.000000, 4.000000, 4.000000, 4.000000
53.000000, 0.000000, 4175.897461, 4184.102539, 4163.589844, 4182.563965, 4202.563965, 4204.102539, 4192.307617, 4189.230469, 4275.384277, 4143.076660, 4148.717773, 4166.153809, 4138.461426, 4148.717773, 0.000000, 8214.000000, 8120.000000, 0.000000, 0.000000, 0.000000, 25587.000000, 565.640991, 4.000000, 4.000000, 4.000000, 4.000000, 4.000000, 4.000000, 4.000000, 4.000000, 4.000000, 4.000000, 4.000000, 4.000000, 4.000000, 4.000000, 4.000000, 4.000000
54.000000, 0.000000, 4176.922852, 4181.538574, 4165.641113, 4177.948730, 4200.000000, 4201.025391, 4198.974121, 4188.717773, 4285.127930, 4157.436035, 4158.461426, 4170.256348, 4141.538574, 4155.897461, 0.000000, 8214.000000, 8120.000000, 0.000000, 0.000000, 0.000000, 25587.000000, 573.333313, 4.000000, 4.000000, 4.000000, 4.000000, 4.000000, 4.000000, 4.000000, 4.000000, 4.000000, 4.000000, 4.000000, 4.000000, 4.000000, 4.000000, 4.000000, 4.000000
55.000000, 0.000000, 4182.051270, 4184.102539, 4173.846191, 4184.615234, 4201.538574, 4188.717773, 4187.692383, 4202.051270, 4287.692383, 4165.127930, 4167.179199, 4178.974121, 4152.820313, 4167.692383, 0.000000, 8222.000000, 8120.000000, 0.000000, 0.000000, 0.000000, 25587.000000, 581.538452, 4.000000, 4.000000, 4.000000, 4.000000, 4.000000, 4.000000, 4.000000, 4.000000, 4.000000, 4.000000, 4.000000, 4.000000, 4.000000, 4.000000, 4.000000, 4.000000
56.000000, 0.000000, 4186.153809, 4194.358887, 4180.000000, 4184.102539, 4201.538574, 4184.102539, 4170.769043, 4190.769043, 4280.000000, 4156.410156, 4169.743652, 4182.563965, 4158.461426, 4173.846191, 0.000000, 8222.000000, 8120.000000, 0.000000, 0.000000, 0.000000, 25587.000000, 589.230774, 4.000000, 4.000000, 4.000000, 4.000000, 4.000000, 4.000000, 4.000000, 4.000000, 4.000000, 4.000000, 4.000000, 4.000000, 4.000000, 4.000000, 4.000000, 4.000000
57.000000, 0.000000, 4196.410156, 4209.230469, 4186.153809, 4188.205078, 4202.563965, 4185.641113, 4160.512695, 4188.205078, 4284.102539, 4160.512695, 4177.948730, 4191.794922, 4165.641113, 4183.076660, 0.000000, 8224.000000, 8123.000000, 0.000000, 0.000000, 0.000000, 25587.000000, 597.435913, 4.000000, 4.000000, 4.000000, 4.000000, 4.000000, 4.000000, 4.000000, 4.000000, 4.000000, 4.000000, 4.000000, 4.000000, 4.000000, 4.000000, 4.000000, 4.000000
58.000000, 0.000000, 4201.025391, 4212.307617, 4189.230469, 4186.153809, 4204.615234, 4185.641113, 4170.256348, 4211.794922, 4299.487305, 4178.461426, 4188.205078, 4202.051270, 4172.307617, 4190.256348, 0.000000, 8224.000000, 8123.000000, 0.000000, 0.000000, 0.000000, 25587.000000, 605.128174, 4.000000, 4.000000, 4.000000, 4.000000, 4.000000, 4.000000, 4.000000, 4.000000, 4.000000, 4.000000, 4.000000, 4.000000, 4.000000, 4.000000, 4.000000, 4.000000
59.000000, 0.000000, 4193.846191, 4199.487305, 4187.692383, 4181.538574, 4204.615234, 4185.641113, 4185.127930, 4211.281738, 4297.948730, 4174.358887, 4182.051270, 4198.974121, 4169.743652, 4184.615234, 0.000000, 8229.000000, 8134.000000, 0.000000, 0.000000, 0.000000, 25587.000000, 613.333313, 4.000000, 4.000000, 4.000000, 4.000000, 4.000000, 4.000000, 4.000000, 4.000000, 4.000000, 4.000000, 4.000000, 4.000000, 4.000000, 4.000000, 4.000000, 4.000000
60.000000, 0.000000, 4187.179199, 4195.897461, 4186.153809, 4185.641113, 4202.051270, 4186.666504, 4177.948730, 4193.333008, 4284.102539, 4155.384277, 4170.769043, 4186.666504, 4162.051270, 4173.333008, 0.000000, 8229.000000, 8134.000000, 0.000000, 0.000000, 0.000000, 25587.000000, 621.025635, 4.000000, 4.000000, 4.000000, 4.000000, 4.000000, 4.000000, 4.000000, 4.000000, 4.000000, 4.000000, 4.000000, 4.000000, 4.000000, 4.000000, 4.000000, 4.000000
61.000000, 0.000000, 4188.717773, 4203.076660, 4187.179199, 4183.076660, 4204.615234, 4185.641113, 4165.641113, 4186.666504, 4279.487305, 4153.846191, 4171.794922, 4181.538574, 4154.871582, 4171.794922, 0.000000, 8232.000000, 8111.000000, 0.000000, 0.000000, 0.000000, 25587.000000, 629.230774, 4.000000, 4.000000, 4.000000, 4.000000, 4.000000, 4.000000, 4.000000, 4.000000, 4.000000, 4.000000, 4.000000, 4.000000, 4.000000, 4.000000, 4.000000, 4.000000
62.000000, 0.000000, 4193.333008, 4203.076660, 4186.153809, 4184.102539, 4207.692383, 4183.076660, 4165.641113, 4188.717773, 4277.948730, 4160.000000, 4172.820313, 4187.179199, 4156.410156, 4178.461426, 0.000000, 8232.000000, 8111.000000, 0.000000, 0.000000, 0.000000, 25587.000000, 636.923035, 4.000000, 4.000000, 4.000000, 4.000000, 4.000000, 4.000000, 4.000000, 4.000000, 4.000000, 4.000000, 4.000000, 4.000000, 4.000000, 4.000000, 4.000000, 4.000000
63.000000, 0.000000, 4194.358887, 4201.025391, 4183.076660, 4185.127930, 4204.102539, 4181.538574, 4168.717773, 4197.436035, 4277.436035, 4158.974121, 4170.769043, 4188.205078, 4165.127930, 4182.051270, 0.000000, 8245.000000, 8079.000000, 0.000000, 0.000000, 0.000000, 25587.000000, 645.128174, 4.000000, 4.000000, 4.000000, 4.000000, 4.000000, 4.000000, 4.000000, 4.000000, 4.000000, 4.000000, 4.000000, 4.000000, 4.000000, 4.000000, 4.000000, 4.000000
64.000000, 0.000000, 4194.358887, 4202.563965, 4183.076660, 4185.641113, 4205.641113, 4183.076660, 4173.846191, 4194.358887, 4275.384277, 4160.000000, 4172.820313, 4186.153809, 4171.281738, 4182.563965, 3425.000000, 8245.000000, 8079.000000, 0.000000, 0.000000, 0.000000, 25587.000000, 652.820496, 4.000000, 4.000000, 4.000000, 4.000000, 4.000000, 4.000000, 4.000000, 4.000000, 4.000000, 4.000000, 4.000000, 4.000000, 4.000000, 4.000000, 4.000000, 4.000000
65.000000, 0.000000, 4192.820313, 4203.076660, 4183.076660, 4188.717773, 4208.717773, 4186.666504, 4185.641113, 4186.153809, 4276.410156, 4164.102539, 4173.846191, 4185.641113, 4169.743652, 4180.000000, 2035.000000, 8250.000000, 8081.000000, 0.000000, 0.000000, 0.000000, 25587.000000, 661.025635, 4.000000, 4.000000, 4.000000, 4.000000, 4.000000, 4.000000, 4.000000, 4.000000, 4.000000, 4.000000, 4.000000, 4.000000, 4.000000, 4.000000, 4.000000, 4.000000
66.000000, 0.000000, 4187.179199, 4201.025391, 4182.051270, 4183.076660, 4206.153809, 4187.692383, 4183.589844, 4190.256348, 4280.512695, 4162.051270, 4169.743652, 4182.563965, 4165.127930, 4171.794922, 3145.000000, 8250.000000, 8081.000000, 0.000000, 0.000000, 0.000000, 25587.000000, 668.717957, 4.000000, 4.000000, 4.000000, 4.000000, 4.000000, 4.000000, 4.000000, 4.000000, 4.000000, 4.000000, 4.000000, 4.000000, 4.000000, 4.000000, 4.000000, 4.000000
67.000000, 0.000000, 4188.717773, 4200.512695, 4183.589844, 4187.179199, 4204.102539, 4186.666504, 4169.743652, 4194.871582, 4281.025391, 4164.102539, 4169.743652, 4183.589844, 4164.102539, 4168.717773, 3553.000000, 8253.000000, 8087.000000, 0.000000, 0.000000, 0.000000, 25587.000000, 676.923035, 4.000000, 4.000000, 4.000000, 4.000000, 4.000000, 4.000000, 4.000000, 4.000000, 4.000000, 4.000000, 4.000000, 4.000000, 4.000000, 4.000000, 4.000000, 4.000000
68.000000, 0.000000, 4196.410156, 4204.615234, 4184.102539, 4189.743652, 4205.127930, 4182.051270, 4169.743652, 4186.153809, 4276.922852, 4168.717773, 4173.333008, 4185.641113, 4161.025391, 4173.333008, 3515.000000, 8253.000000, 8087.000000, 0.000000, 0.000000, 0.000000, 25587.000000, 685.128174, 4.000000, 4.000000, 4.000000, 4.000000, 4.000000, 4.000000, 4.000000, 4.000000, 4.000000, 4.000000, 4.000000, 4.000000, 4.000000, 4.000000, 4.000000, 4.000000
69.000000, 0.000000, 4190.256348, 4201.025391, 4178.974121, 4185.127930, 4204.615234, 4175.384277, 4172.307617, 4183.076660, 4274.358887, 4158.974121, 4169.743652, 4177.948730, 4141.025391, 4164.615234, 3550.000000, 8258.000000, 8074.000000, 0.000000, 0.000000, 0.000000, 25587.000000, 692.820496, 4.000000, 4.000000, 4.000000, 4.000000, 4.000000, 4.000000, 4.000000, 4.000000, 4.000000, 4.000000, 4.000000, 4.000000, 4.000000, 4.000000, 4.000000, 4.000000
70.000000, 0.000000, 4178.461426, 4187.692383, 4175.897461, 4188.205078, 4202.563965, 4174.358887, 4166.153809, 4193.846191, 4275.897461, 4149.230469, 4163.076660, 4173.846191, 4127.692383, 4149.230469, 3476.000000, 8258.000000, 8074.000000, 0.000000, 0.000000, 0.000000, 25587.000000, 700.512817, 4.000000, 4.000000, 4.000000, 4.000000, 4.000000, 4.000000, 4.000000, 4.000000, 4.000000, 4.000000, 4.000000, 4.000000, 4.000000, 4.000000, 4.000000, 4.000000
71.000000, 0.000000, 4181.025391, 4184.102539, 4174.871582, 4182.051270, 4201.025391, 4176.922852, 4167.179199, 4190.256348, 4270.256348, 4157.436035, 4165.127930, 4176.922852, 4144.615234, 4158.461426, 3425.000000, 8269.000000, 8077.000000, 0.000000, 0.000000, 0.000000, 25587.000000, 708.717957, 4.000000, 4.000000, 4.000000, 4.000000, 4.000000, 4.000000, 4.000000, 4.000000, 4.000000, 4.000000, 4.000000, 4.000000, 4.000000, 4.000000, 4.000000, 4.000000
72.000000, 0.000000, 4188.717773, 4191.281738, 4177.436035, 4183.076660, 4199.487305, 4178.461426, 4176.410156, 4176.410156, 4263.076660, 4169.743652, 4173.333008, 4178.974121, 4162.563965, 4176.410156, 3383.000000, 8269.000000, 8077.000000, 0.000000, 0.000000, 0.000000, 25587.000000, 716.410217, 4.000000, 4.000000, 4.000000, 4.000000, 4.000000, 4.000000, 4.000000, 4.000000, 4.000000, 4.000000, 4.000000, 4.000000, 4.000000, 4.000000, 4.000000, 4.000000
73.000000, 0.000000, 4190.769043, 4189.743652, 4182.563965, 4186.153809, 4201.538574, 4182.563965, 4176.410156, 4177.436035, 4266.153809, 4178.974121, 4180.512695, 4181.025391, 4165.127930, 4182.051270, 3524.000000, 8292.000000, 8088.000000, 0.000000, 0.000000, 0.000000, 25587.000000, 724.615356, 4.000000, 4.000000, 4.000000, 4.000000, 4.000000, 4.000000, 4.000000, 4.000000, 4.000000, 4.000000, 4.000000, 4.000000, 4.000000, 4.000000, 4.000000, 4.000000
74.000000, 0.000000, 4193.333008, 4188.717773, 4188.205078, 4182.563965, 4204.102539, 4188.717773, 4171.794922, 4189.230469, 4277.436035, 4190.256348, 4191.281738, 4187.692383, 4179.487305, 4191.794922, 3242.000000, 8292.000000, 8088.000000, 0.000000, 0.000000, 0.000000, 25587.000000, 732.307678, 4.000000, 4.000000, 4.000000, 4.000000, 4.000000, 4.000000, 4.000000, 4.000000, 4.000000, 4.000000, 4.000000, 4.000000, 4.000000, 4.000000, 4.000000, 4.000000
75.000000, 0.000000, 4189.743652, 4186.666504, 4188.717773, 4186.666504, 4204.615234, 4188.717773, 4173.333008, 4191.794922, 4280.512695, 4197.948730, 4197.436035, 4190.769043, 4195.384277, 4199.487305, 3595.000000, 8296.000000, 8089.000000, 0.000000, 0.000000, 0.000000, 25587.000000, 740.512817, 4.000000, 4.000000, 4.000000, 4.000000, 4.000000, 4.000000, 4.000000, 4.000000, 4.000000, 4.000000, 4.000000, 4.000000, 4.000000, 4.000000, 4.000000, 4.000000
76.000000, 0.000000, 4184.615234, 4173.846191, 4178.461426, 4176.410156, 4199.487305, 4184.615234, 4171.281738, 4193.333008, 4273.333008, 4201.025391, 4194.358887, 4189.230469, 4194.358887, 4195.384277, 3469.000000, 8296.000000, 8089.000000, 0.000000, 0.000000, 0.000000, 25587.000000, 748.205139, 4.000000, 4.000000, 4.000000, 4.000000, 4.000000, 4.000000, 4.000000, 4.000000, 4.000000, 4.000000, 4.000000, 4.000000, 4.000000, 4.000000, 4.000000, 4.000000
77.000000, 0.000000, 4184.615234, 4163.076660, 4172.307617, 4172.307617, 4192.820313, 4182.051270, 4167.692383, 4200.512695, 4271.794922, 4203.589844, 4197.436035, 4195.897461, 4197.948730, 4196.922852, 3452.000000, 8294.000000, 8097.000000, 0.000000, 0.000000, 0.000000, 25587.000000, 756.410217, 4.000000, 4.000000, 4.000000, 4.000000, 4.000000, 4.000000, 4.000000, 4.000000, 4.000000, 4.000000, 4.000000, 4.000000, 4.000000, 4.000000, 4.000000, 4.000000
78.000000, 0.000000, 4184.102539, 4164.102539, 4180.512695, 4180.000000, 4198.461426, 4188.205078, 4177.948730, 4197.436035, 4272.307617, 4206.666504, 4206.153809, 4203.589844, 4207.692383, 4206.153809, 3242.000000, 8294.000000, 8097.000000, 0.000000, 0.000000, 0.000000, 25587.000000, 764.102539, 4.000000, 4.000000, 4.000000, 4.000000, 4.000000, 4.000000, 4.000000, 4.000000, 4.000000, 4.000000, 4.000000, 4.000000, 4.000000, 4.000000, 4.000000, 4.000000
79.000000, 0.000000, 4184.102539, 4168.717773, 4188.717773, 4178.974121, 4206.153809, 4201.538574, 4190.769043, 4191.281738, 4267.179199, 4211.794922, 4205.641113, 4198.974121, 4207.692383, 4207.692383, 3595.000000, 8288.000000, 8100.000000, 0.000000, 0.000000, 0.000000, 25587.000000, 772.307678, 4.000000, 4.000000, 4.000000, 4.000000, 4.000000, 4.000000, 4.000000, 4.000000, 4.000000, 4.000000, 4.000000, 4.000000, 4.000000, 4.000000, 4.000000, 4.000000
80.000000, 0.000000, 4188.205078, 4166.153809, 4187.692383, 4183.076660, 4203.589844, 4199.487305, 4187.179199, 4198.974121, 4266.153809, 4210.256348, 4199.487305, 4192.820313, 4202.563965, 4202.563965, 3469.000000, 8288.000000, 8100.000000, 0.000000, 0.000000, 0.000000, 25587.000000, 780.000000, 4.000000, 4.000000, 4.000000, 4.000000, 4.000000, 4.000000, 4.000000, 4.000000, 4.000000, 4.000000, 4.000000, 4.000000, 4.000000, 4.000000, 4.000000, 4.000000
81.000000, 0.000000, 4185.127930, 4154.871582, 4183.076660, 4181.025391, 4200.512695, 4187.692383, 4180.512695, 4210.769043, 4272.820313, 4202.051270, 4196.922852, 4194.358887, 4196.922852, 4198.461426, 3452.000000, 8286.000000, 8097.000000, 0.000000, 0.000000, 0.000000, 25587.000000, 788.205139, 4.000000, 4.000000, 4.000000, 4.000000, 4.000000, 4.000000, 4.000000, 4.000000, 4.000000, 4.000000, 4.000000, 4.000000, 4.000000, 4.000000, 4.000000, 4.000000
82.000000, 0.000000, 4183.589844, 4150.256348, 4183.589844, 4178.461426, 4201.538574, 4188.205078, 4182.563965, 4185.641113, 4257.948730, 4200.000000, 4198.974121, 4198.461426, 4193.846191, 4201.538574, 3242.000000, 8286.000000, 8097.000000, 0.000000, 0.000000, 0.000000, 25587.000000, 795.897400, 4.000000, 4.000000, 4.000000, 4.000000, 4.000000, 4.000000, 4.000000, 4.000000, 4.000000, 4.000000, 4.000000, 4.000000, 4.000000, 4.000000, 4.000000, 4.000000
83.000000, 0.000000, 4193.846191, 4162.051270, 4195.384277, 4184.102539, 4201.025391, 4194.358887, 4185.127930, 4176.922852, 4247.692383, 4211.281738, 4208.205078, 4207.179199, 4203.076660, 4212.820313, 3595.000000, 8272.000000, 8101.000000, 0.000000, 0.000000, 0.000000, 25587.000000, 804.102539, 4.000000, 4.000000, 4.000000, 4.000000, 4.000000, 4.000000, 4.000000, 4.000000, 4.000000, 4.000000, 4.000000, 4.000000, 4.000000, 4.000000, 4.000000, 4.000000
84.000000, 0.000000, 4201.538574, 4173.846191, 4209.230469, 4186.666504, 4208.205078, 4197.436035, 4183.589844, 4217.948730, 4270.256348, 4226.666504, 4220.512695, 4216.410156, 4217.436035, 4220.000000, 3469.000000, 8272.000000, 8101.000000, 0.000000, 0.000000, 0.000000, 25587.000000, 811.794861, 4.000000, 4.000000, 4.000000, 4.000000, 4.000000, 4.000000, 4.000000, 4.000000, 4.000000, 4.000000, 4.000000, 4.000000, 4.000000, 4.000000, 4.000000, 4.000000
85.000000, 0.000000, 4194.871582, 4166.153809, 4200.512695, 4189.230469, 4213.333008, 4198.974121, 4183.589844, 4209.743652, 4266.666504, 4227.692383, 4214.358887, 4210.769043, 4213.333008, 4210.769043, 3452.000000, 8273.000000, 8106.000000, 0.000000, 0.000000, 0.000000, 25587.000000, 820.000000, 4.000000, 4.000000, 4.000000, 4.000000, 4.000000, 4.000000, 4.000000, 4.000000, 4.000000, 4.000000, 4.000000, 4.000000, 4.000000, 4.000000, 4.000000, 4.000000
86.000000, 0.000000, 4186.153809, 4154.358887, 4183.589844, 4181.538574, 4205.641113, 4200.000000, 4186.666504, 4181.025391, 4246.153809, 4227.179199, 4202.051270, 4196.922852, 4201.025391, 4200.000000, 3242.000000, 8273.000000, 8106.000000, 0.000000, 0.000000, 0.000000, 25587.000000, 827.692261, 4.000000, 4.000000, 4.000000, 4.000000, 4.000000, 4.000000, 4.000000, 4.000000, 4.000000, 4.000000, 4.000000, 4.000000, 4.000000, 4.000000, 4.000000, 4.000000
87.000000, 0.000000, 4188.717773, 4154.871582, 4188.717773, 4181.538574, 4199.487305, 4194.871582, 4186.153809, 4212.307617, 4259.487305, 4238.461426, 4204.615234, 4199.487305, 4198.974121, 4199.487305, 3595.000000, 8262.000000, 8118.000000, 0.000000, 0.000000, 0.000000, 25587.000000, 835.897400, 4.000000, 4.000000, 4.000000, 4.000000, 4.000000, 4.000000, 4.000000, 4.000000, 4.000000, 4.000000, 4.000000, 4.000000, 4.000000, 4.000000, 4.000000, 4.000000
88.000000, 0.000000, 4191.794922, 4159.487305, 4201.538574, 4189.743652, 4198.974121, 4188.717773, 4184.102539, 4228.717773, 4265.641113, 4249.230469, 4207.692383, 4210.769043, 4201.538574, 4201.025391, 3469.000000, 8262.000000, 8118.000000, 0.000000, 0.000000, 0.000000, 25587.000000, 843.589722, 4.000000, 4.000000, 4.000000, 4.000000, 4.000000, 4.000000, 4.000000, 4.000000, 4.000000, 4.000000, 4.000000, 4.000000, 4.000000, 4.000000, 4.000000, 4.000000
89.000000, 0.000000, 4188.205078, 4156.410156, 4197.948730, 4180.512695, 4191.281738, 4185.641113, 4188.205078, 4201.538574, 4247.179199, 4249.230469, 4202.563965, 4210.769043, 4200.512695, 4201.538574, 3452.000000, 8254.000000, 8114.000000, 0.000000, 0.000000, 0.000000, 25587.000000, 851.794861, 4.000000, 4.000000, 4.000000, 4.000000, 4.000000, 4.000000, 4.000000, 4.000000, 4.000000, 4.000000, 4.000000, 4.000000, 4.000000, 4.000000, 4.000000, 4.000000
90.000000, 0.000000, 4186.666504, 4151.794922, 4190.769043, 4180.512695, 4184.102539, 4184.102539, 4195.897461, 4196.922852, 4241.538574, 4246.666504, 4202.051270, 4209.743652, 4199.487305, 4200.512695, 3242.000000, 8254.000000, 8114.000000, 0.000000, 0.000000, 0.000000, 25587.000000, 859.487183, 4.000000, 4.000000, 4.000000, 4.000000, 4.000000, 4.000000, 4.000000, 4.000000, 4.000000, 4.000000, 4.000000, 4.000000, 4.000000, 4.000000, 4.000000, 4.000000
91.000000, 0.000000, 4185.127930, 4151.794922, 4188.717773, 4180.512695, 4184.615234, 4183.076660, 4193.333008, 4204.102539, 4239.487305, 4247.179199, 4203.589844, 4209.743652, 4195.897461, 4198.461426, 3595.000000, 8247.000000, 8119.000000, 0.000000, 0.000000, 0.000000, 25587.000000, 867.692261, 4.000000, 4.000000, 4.000000, 4.000000, 4.000000, 4.000000, 4.000000, 4.000000, 4.000000, 4.000000, 4.000000, 4.000000, 4.000000, 4.000000, 4.000000, 4.000000
92.000000, 0.000000, 4186.666504, 4154.871582, 4187.179199, 4175.384277, 4185.641113, 4182.563965, 4188.717773, 4210.256348, 4238.974121, 4251.281738, 4202.563965, 4205.127930, 4194.871582, 4198.974121, 3469.000000, 8247.000000, 8119.000000, 0.000000, 0.000000, 0.000000, 25587.000000, 875.384583, 4.000000, 4.000000, 4.000000, 4.000000, 4.000000, 4.000000, 4.000000, 4.000000, 4.000000, 4.000000, 4.000000, 4.000000, 4.000000, 4.000000, 4.000000, 4.000000
93.000000, 0.000000, 4187.179199, 4153.333008, 4184.615234, 4177.948730, 4184.615234, 4185.641113, 4197.436035, 4220.512695, 4246.666504, 4258.974121, 4200.512695, 4200.000000, 4194.358887, 4196.410156, 3452.000000, 8237.000000, 8098.000000, 0.000000, 0.000000, 0.000000, 25587.000000, 883.589722, 4.000000, 4.000000, 4.000000, 4.000000, 4.000000, 4.000000, 4.000000, 4.000000, 4.000000, 4.000000, 4.000000, 4.000000, 4.000000, 4.000000, 4.000000, 4.000000
94.000000, 0.000000, 4180.000000, 4149.743652, 4184.615234, 4174.871582, 4188.205078, 4188.717773, 4204.102539, 4212.307617, 4243.589844, 4261.538574, 4197.436035, 4197.948730, 4186.666504, 4189.743652, 3242.000000, 8237.000000, 8098.000000, 0.000000, 0.000000, 0.000000, 25587.000000, 891.282043, 4.000000, 4.000000, 4.000000, 4.000000, 4.000000, 4.000000, 4.000000, 4.000000, 4.000000, 4.000000, 4.000000, 4.000000, 4.000000, 4.000000, 4.000000, 4.000000
95.000000, 0.000000, 4180.512695, 4150.256348, 4186.666504, 4178.974121, 4194.871582, 4188.205078, 4195.897461, 4197.436035, 4232.307617, 4263.076660, 4195.897461, 4200.512695, 4188.205078, 4189.743652, 3595.000000, 8233.000000, 8074.000000, 0.000000, 0.000000, 0.000000, 25587.000000, 899.487183, 4.000000, 4.000000, 4.000000, 4.000000, 4.000000, 4.000000, 4.000000, 4.000000, 4.000000, 4.000000, 4.000000, 4.000000, 4.000000, 4.000000, 4.000000, 4.000000
96.000000, 0.000000, 4185.641113, 4151.281738, 4187.179199, 4180.000000, 4196.410156, 4187.692383, 4191.281738, 4197.948730, 4233.333008, 4274.871582, 4202.051270, 4201.025391, 4199.487305, 4193.846191, 3469.000000, 8233.000000, 8074.000000, 0.000000, 0.000000, 0.000000, 25587.000000, 907.179443, 4.000000, 4.000000, 4.000000, 4.000000, 4.000000, 4.000000, 4.000000, 4.000000, 4.000000, 4.000000, 4.000000, 4.000000, 4.000000, 4.000000, 4.000000, 4.000000
97.000000, 0.000000, 4178.461426, 4147.179199, 4183.589844, 4174.358887, 4192.820313, 4185.127930, 4199.487305, 4210.256348, 4240.000000, 4282.563965, 4198.461426, 4194.871582, 4195.384277, 4187.692383, 3452.000000, 8243.000000, 8048.000000, 0.000000, 0.000000, 0.000000, 25587.000000, 915.384583, 4.000000, 4.000000, 4.000000, 4.000000, 4.000000, 4.000000, 4.000000, 4.000000, 4.000000, 4.000000, 4.000000, 4.000000, 4.000000, 4.000000, 4.000000, 4.000000
98.000000, 0.000000, 4174.871582, 4149.230469, 4181.025391, 4180.000000, 4196.410156, 4192.820313, 4202.051270, 4215.897461, 4241.538574, 4288.717773, 4189.743652, 4193.333008, 4190.256348, 4182.563965, 3242.000000, 8243.000000, 8048.000000, 0.000000, 0.000000, 0.000000, 25587.000000, 923.076904, 4.000000, 4.000000, 4.000000, 4.000000, 4.000000, 4.000000, 4.000000, 4.000000, 4.000000, 4.000000, 4.000000, 4.000000, 4.000000, 4.000000, 4.000000, 4.000000
99.000000, 0.000000, 4186.666504, 4163.076660, 4186.153809, 4182.563965, 4206.153809, 4204.102539, 4191.794922, 4206.666504, 4238.461426, 4309.230469, 4195.897461, 4198.461426, 4203.076660, 4190.256348, 3595.000000, 8254.000000, 8047.000000, 0.000000, 0.000000, 0.000000, 25587.000000, 931.282043, 4.000000, 4.000000, 4.000000, 4.000000, 4.000000, 4.000000, 4.000000, 4.000000, 4.000000, 4.000000, 4.000000, 4.000000, 4.000000, 4.000000, 4.000000, 4.000000
100.000000, 0.000000, 4189.743652, 4163.076660, 4188.205078, 4183.076660, 4201.025391, 4197.436035, 4183.589844, 4196.410156, 4232.820313, 4317.948730, 4195.897461, 4194.358887, 4206.666504, 4188.717773, 3469.000000, 8254.000000, 8047.000000, 0.000000, 0.000000, 0.000000, 25587.000000, 938.974365, 4.000000, 4.000000, 4.000000, 4.000000, 4.000000, 4.000000, 4.000000, 4.000000, 4.000000, 4.000000, 4.000000, 4.000000, 4.000000, 4.000000, 4.000000, 4.000000
101.000000, 0.000000, 4178.461426, 4148.717773, 4178.461426, 4176.410156, 4186.153809, 4185.641113, 4188.717773, 4201.538574, 4229.743652, 4311.794922, 4183.076660, 4183.076660, 4193.846191, 4174.358887, 3452.000000, 8261.000000, 8045.000000, 0.000000, 0.000000, 0.000000, 25587.000000, 947.179443, 4.000000, 4.000000, 4.000000, 4.000000, 4.000000, 4.000000, 4.000000, 4.000000, 4.000000, 4.000000, 4.000000, 4.000000, 4.000000, 4.000000, 4.000000, 4.000000
102.000000, 0.000000, 4180.512695, 4154.358887, 4176.410156, 4176.410156, 4185.127930, 4186.666504, 4197.436035, 4207.692383, 4230.769043, 4325.127930, 4188.717773, 4184.615234, 4197.948730, 4174.871582, 3242.000000, 8261.000000, 8045.000000, 0.000000, 0.000000, 0.000000, 25587.000000, 954.871765, 4.000000, 4.000000, 4.000000, 4.000000, 4.000000, 4.000000, 4.000000, 4.000000, 4.000000, 4.000000, 4.000000, 4.000000, 4.000000, 4.000000, 4.000000, 4.000000
103.000000, 0.000000, 4190.769043, 4169.743652, 4185.641113, 4187.692383, 4190.256348, 4188.717773, 4193.333008, 4198.461426, 4230.256348, 4347.692383, 4200.512695, 4197.436035, 4209.743652, 4188.205078, 3595.000000, 8265.000000, 8063.000000, 0.000000, 0.000000, 0.000000, 25587.000000, 963.076904, 4.000000, 4.000000, 4.000000, 4.000000, 4.000000, 4.000000, 4.000000, 4.000000, 4.000000, 4.000000, 4.000000, 4.000000, 4.000000, 4.000000, 4.000000, 4.000000
104.000000, 0.000000, 4183.076660, 4161.538574, 4187.179199, 4179.487305, 4187.179199, 4185.641113, 4187.179199, 4186.153809, 4227.179199, 4347.692383, 4192.820313, 4200.000000, 4197.948730, 4183.589844, 3469.000000, 8265.000000, 8063.000000, 0.000000, 0.000000, 0.000000, 25587.000000, 971.282043, 4.000000, 4.000000, 4.000000, 4.000000, 4.000000, 4.000000, 4.000000, 4.000000, 4.000000, 4.000000, 4.000000, 4.000000, 4.000000, 4.000000, 4.000000, 4.000000
105.000000, 0.000000, 4180.512695, 4153.333008, 4185.127930, 4176.410156, 4182.051270, 4183.589844, 4184.102539, 4184.615234, 4223.589844, 4343.589844, 4188.205078, 4198.974121, 4188.205078, 4176.410156, 3452.000000, 8265.000000, 8080.000000, 0.000000, 0.000000, 0.000000, 25587.000000, 978.974365, 4.000000, 4.000000, 4.000000, 4.000000, 4.000000, 4.000000, 4.000000, 4.000000, 4.000000, 4.000000, 4.000000, 4.000000, 4.000000, 4.000000, 4.000000, 4.000000
106.000000, 0.000000, 4192.307617, 4168.205078, 4186.153809, 4182.563965, 4184.615234, 4181.025391, 4182.051270, 4196.410156, 4228.717773, 4357.948730, 4203.076660, 4205.641113, 4206.666504, 4191.794922, 3242.000000, 8265.000000, 8080.000000, 0.000000, 0.000000, 0.000000, 25587.000000, 987.179443, 4.000000, 4.000000, 4.000000, 4.000000, 4.000000, 4.000000, 4.000000, 4.000000, 4.000000, 4.000000, 4.000000, 4.000000, 4.000000, 4.000000, 4.000000, 4.000000
107.000000, 0.000000, 4195.897461, 4174.358887, 4187.179199, 4180.512695, 4183.589844, 4181.538574, 4189.743652, 4210.256348, 4237.948730, 4369.743652, 4213.333008, 4209.743652, 4223.076660, 4205.641113, 3595.000000, 8243.000000, 8126.000000, 0.000000, 0.000000, 0.000000, 25587.000000, 994.871765, 4.000000, 4.000000, 4.000000, 4.000000, 4.000000, 4.000000, 4.000000, 4.000000, 4.000000, 4.000000, 4.000000, 4.000000, 4.000000, 4.000000, 4.000000, 4.000000
108.000000, 0.000000, 4194.871582, 4165.127930, 4191.794922, 4183.076660, 4182.051270, 4185.641113, 4204.102539, 4212.820313, 4238.461426, 4368.717773, 4215.384277, 4209.743652, 4220.512695, 4204.615234, 3469.000000, 8243.000000, 8126.000000, 0.000000, 0.000000, 0.000000, 25588.000000, 2.564102, 4.000000, 4.000000, 4.000000, 4.000000, 4.000000, 4.000000, 4.000000, 4.000000, 4.000000, 4.000000, 4.000000, 4.000000, 4.000000, 4.000000, 4.000000, 4.000000
109.000000, 0.000000, 4198.461426, 4168.717773, 4196.922852, 4181.025391, 4184.102539, 4186.666504, 4200.000000, 4207.692383, 4233.333008, 4367.179199, 4217.436035, 4209.230469, 4222.051270, 4208.717773, 3452.000000, 8229.000000, 8144.000000, 0.000000, 0.000000, 0.000000, 25588.000000, 10.769231, 4.000000, 4.000000, 4.000000, 4.000000, 4.000000, 4.000000, 4.000000, 4.000000, 4.000000, 4.000000, 4.000000, 4.000000, 4.000000, 4.000000, 4.000000, 4.000000
110.000000, 0.000000, 4193.333008, 4170.256348, 4192.307617, 4179.487305, 4183.076660, 4184.102539, 4183.076660, 4200.000000, 4224.615234, 4358.461426, 4209.743652, 4205.641113, 4224.102539, 4209.743652, 3242.000000, 8229.000000, 8144.000000, 0.000000, 0.000000, 0.000000, 25588.000000, 18.974358, 4.000000, 4.000000, 4.000000, 4.000000, 4.000000, 4.000000, 4.000000, 4.000000, 4.000000, 4.000000, 4.000000, 4.000000, 4.000000, 4.000000, 4.000000, 4.000000
111.000000, 0.000000, 4181.538574, 4155.897461, 4185.127930, 4176.922852, 4182.051270, 4183.076660, 4181.538574, 4198.974121, 4216.922852, 4346.666504, 4198.974121, 4198.974121, 4208.717773, 4198.974121, 3595.000000, 8199.000000, 8168.000000, 0.000000, 0.000000, 0.000000, 25588.000000, 26.666666, 4.000000, 4.000000, 4.000000, 4.000000, 4.000000, 4.000000, 4.000000, 4.000000, 4.000000, 4.000000, 4.000000, 4.000000, 4.000000, 4.000000, 4.000000, 4.000000
112.000000, 0.000000, 4185.127930, 4153.333008, 4185.641113, 4172.820313, 4185.127930, 4186.666504, 4189.230469, 4207.179199, 4222.563965, 4347.692383, 4200.512695, 4195.384277, 4202.563965, 4195.897461, 3469.000000, 8199.000000, 8168.000000, 0.000000, 0.000000, 0.000000, 25588.000000, 34.871796, 4.000000, 4.000000, 4.000000, 4.000000, 4.000000, 4.000000, 4.000000, 4.000000, 4.000000, 4.000000, 4.000000, 4.000000, 4.000000, 4.000000, 4.000000, 4.000000
113.000000, 0.000000, 4192.307617, 4158.974121, 4186.666504, 4177.948730, 4183.589844, 4188.205078, 4184.615234, 4209.743652, 4229.743652, 4350.256348, 4202.563965, 4193.846191, 4209.230469, 4200.512695, 3452.000000, 8183.000000, 8186.000000, 0.000000, 0.000000, 0.000000, 25588.000000, 42.564102, 4.000000, 4.000000, 4.000000, 4.000000, 4.000000, 4.000000, 4.000000, 4.000000, 4.000000, 4.000000, 4.000000, 4.000000, 4.000000, 4.000000, 4.000000, 4.000000
114.000000, 0.000000, 4189.743652, 4160.512695, 4185.127930, 4174.358887, 4182.563965, 4183.589844, 4168.205078, 4207.179199, 4226.666504, 4346.666504, 4201.025391, 4191.281738, 4208.717773, 4198.974121, 3242.000000, 8183.000000, 8186.000000, 0.000000, 0.000000, 0.000000, 25588.000000, 50.769230, 4.000000, 4.000000, 4.000000, 4.000000, 4.000000, 4.000000, 4.000000, 4.000000, 4.000000, 4.000000, 4.000000, 4.000000, 4.000000, 4.000000, 4.000000, 4.000000
115.000000, 0.000000, 4187.179199, 4158.974121, 4186.153809, 4174.358887, 4185.641113, 4181.538574, 4168.205078, 4196.922852, 4215.897461, 4340.000000, 4199.487305, 4189.230469, 4200.512695, 4192.820313, 3595.000000, 8164.000000, 8191.000000, 0.000000, 0.000000, 0.000000, 25588.000000, 58.461536, 4.000000, 4.000000, 4.000000, 4.000000, 4.000000, 4.000000, 4.000000, 4.000000, 4.000000, 4.000000, 4.000000, 4.000000, 4.000000, 4.000000, 4.000000, 4.000000
116.000000, 0.000000, 4184.102539, 4154.358887, 4187.179199, 4178.974121, 4183.076660, 4185.127930, 4184.615234, 4183.076660, 4203.076660, 4327.692383, 4195.384277, 4184.102539, 4198.974121, 4185.641113, 3469.000000, 8164.000000, 8191.000000, 0.000000, 0.000000, 0.000000, 25588.000000, 66.666664, 4.000000, 4.000000, 4.000000, 4.000000, 4.000000, 4.000000, 4.000000, 4.000000, 4.000000, 4.000000, 4.000000, 4.000000, 4.000000, 4.000000, 4.000000, 4.000000
117.000000, 0.000000, 4187.692383, 4156.922852, 4187.692383, 4174.871582, 4178.974121, 4184.615234, 4186.153809, 4187.692383, 4200.512695, 4315.384277, 4195.897461, 4184.102539, 4203.589844, 4188.717773, 3452.000000, 8129.000000, 8190.000000, 0.000000, 0.000000, 0.000000, 25588.000000, 74.358971, 4.000000, 4.000000, 4.000000, 4.000000, 4.000000, 4.000000, 4.000000, 4.000000, 4.000000, 4.000000, 4.000000, 4.000000, 4.000000, 4.000000, 4.000000, 4.000000
118.000000, 0.000000, 4190.256348, 4160.512695, 4188.205078, 4176.410156, 4181.025391, 4181.538574, 4181.538574, 4203.076660, 4204.615234, 4309.743652, 4199.487305, 4192.820313, 4202.051270, 4195.897461, 3242.000000, 8129.000000, 8190.000000, 0.000000, 0.000000, 0.000000, 25588.000000, 82.564102, 4.000000, 4.000000, 4.000000, 4.000000, 4.000000, 4.000000, 4.000000, 4.000000, 4.000000, 4.000000, 4.000000, 4.000000, 4.000000, 4.000000, 4.000000, 4.000000
119.000000, 0.000000, 4185.127930, 4157.948730, 4187.179199, 4171.794922, 4185.127930, 4185.127930, 4184.615234, 4200.512695, 4206.153809, 4310.256348, 4200.000000, 4198.461426, 4201.025391, 4198.974121, 3595.000000, 8106.000000, 8199.000000, 0.000000, 0.000000, 0.000000, 25588.000000, 90.256409, 4.000000, 4.000000, 4.000000, 4.000000, 4.000000, 4.000000, 4.000000, 4.000000, 4.000000, 4.000000, 4.000000, 4.000000, 4.000000, 4.000000, 4.000000, 4.000000
120.000000, 0.000000, 4190.769043, 4161.538574, 4186.666504, 4171.794922, 4186.153809, 4187.692383, 4186.153809, 4197.436035, 4208.205078, 4312.307617, 4203.076660, 4203.589844, 4208.205078, 4204.615234, 3469.000000, 8106.000000, 8199.000000, 0.000000, 0.000000, 0.000000, 25588.000000, 98.461533, 4.000000, 4.000000, 4.000000, 4.000000, 4.000000, 4.000000, 4.000000, 4.000000, 4.000000, 4.000000, 4.000000, 4.000000, 4.000000, 4.000000, 4.000000, 4.000000
121.000000, 0.000000, 4197.436035, 4165.127930, 4193.333008, 4176.410156, 4185.641113, 4185.127930, 4189.743652, 4215.897461, 4216.922852, 4318.461426, 4213.333008, 4212.820313, 4215.897461, 4209.743652, 3452.000000, 8069.000000, 8207.000000, 0.000000, 0.000000, 0.000000, 25588.000000, 106.153847, 4.000000, 4.000000, 4.000000, 4.000000, 4.000000, 4.000000, 4.000000, 4.000000, 4.000000, 4.000000, 4.000000, 4.000000, 4.000000, 4.000000, 4.000000, 4.000000
122.000000, 0.000000, 4190.769043, 4160.512695, 4198.974121, 4171.281738, 4186.153809, 4185.641113, 4200.000000, 4223.589844, 4221.538574, 4315.897461, 4219.487305, 4212.307617, 4218.974121, 4207.692383, 3242.000000, 8069.000000, 8207.000000, 0.000000, 0.000000, 0.000000, 25588.000000, 114.358971, 4.000000, 4.000000, 4.000000, 4.000000, 4.000000, 4.000000, 4.000000, 4.000000, 4.000000, 4.000000, 4.000000, 4.000000, 4.000000, 4.000000, 4.000000, 4.000000
123.000000, 0.000000, 4190.769043, 4161.025391, 4195.384277, 4176.410156, 4187.692383, 4188.717773, 4203.589844, 4212.820313, 4214.358887, 4301.538574, 4214.871582, 4205.127930, 4217.436035, 4205.641113, 3595.000000, 8061.000000, 8203.000000, 0.000000, 0.000000, 0.000000, 25588.000000, 122.051277, 4.000000, 4.000000, 4.000000, 4.000000, 4.000000, 4.000000, 4.000000, 4.000000, 4.000000, 4.000000, 4.000000, 4.000000, 4.000000, 4.000000, 4.000000, 4.000000
124.000000, 0.000000, 4196.922852, 4164.615234, 4188.205078, 4175.384277, 4184.615234, 4187.179199, 4201.538574, 4212.820313, 4206.153809, 4292.820313, 4211.794922, 4204.615234, 4212.820313, 4208.205078, 3469.000000, 8061.000000, 8203.000000, 0.000000, 0.000000, 0.000000, 25588.000000, 130.256409, 4.000000, 4.000000, 4.000000, 4.000000, 4.000000, 4.000000, 4.000000, 4.000000, 4.000000, 4.000000, 4.000000, 4.000000, 4.000000, 4.000000, 4.000000, 4.000000
125.000000, 0.000000, 4190.769043, 4155.897461, 4185.641113, 4166.666504, 4179.487305, 4184.615234, 4202.563965, 4219.487305, 4208.717773, 4284.615234, 4212.307617, 4207.692383, 4209.230469, 4204.615234, 3452.000000, 8056.000000, 8196.000000, 0.000000, 0.000000, 0.000000, 25588.000000, 137.948715, 4.000000, 4.000000, 4.000000, 4.000000, 4.000000, 4.000000, 4.000000, 4.000000, 4.000000, 4.000000, 4.000000, 4.000000, 4.000000, 4.000000, 4.000000, 4.000000
126.000000, 0.000000, 4189.743652, 4151.794922, 4186.153809, 4171.281738, 4178.461426, 4191.281738, 4205.641113, 4220.512695, 4213.846191, 4276.922852, 4208.717773, 4209.230469, 4207.692383, 4198.974121, 3242.000000, 8056.000000, 8196.000000, 0.000000, 0.000000, 0.000000, 25588.000000, 146.153839, 4.000000, 4.000000, 4.000000, 4.000000, 4.000000, 4.000000, 4.000000, 4.000000, 4.000000, 4.000000, 4.000000, 4.000000, 4.000000, 4.000000, 4.000000, 4.000000
127.000000, 0.000000, 4196.922852, 4165.127930, 4186.666504, 4174.871582, 4185.127930, 4200.000000, 4210.769043, 4216.410156, 4207.692383, 4276.410156, 4208.717773, 4208.717773, 4214.871582, 4208.717773, 53.000000, 8055.000000, 8167.000000, 0.000000, 0.000000, 0.000000, 25588.000000, 153.846146, 4.000000, 4.000000, 4.000000, 4.000000, 4.000000, 4.000000, 4.000000, 4.000000, 4.000000, 4.000000, 4.000000, 4.000000, 4.000000, 4.000000, 4.000000, 4.000000
0.000000, 0.000000, 4191.281738, 4172.820313, 4187.179199, 4178.461426, 4191.281738, 4202.051270, 4214.871582, 4222.051270, 4204.102539, 4276.410156, 4214.871582, 4204.615234, 4226.153809, 4218.974121, 3476.000000, 8055.000000, 8167.000000, 0.000000, 0.000000, 0.000000, 25588.000000, 162.051285, 4.000000, 4.000000, 4.000000, 4.000000, 4.000000, 4.000000, 4.000000, 4.000000, 4.000000, 4.000000, 4.000000, 4.000000, 4.000000, 4.000000, 4.000000, 4.000000
1.000000, 0.000000, 4181.538574, 4162.051270, 4183.589844, 4172.307617, 4190.769043, 4202.051270, 4220.512695, 4234.871582, 4209.743652, 4270.256348, 4213.846191, 4198.461426, 4222.563965, 4209.743652, 2045.000000, 8056.000000, 8152.000000, 0.000000, 0.000000, 0.000000, 25588.000000, 170.256409, 4.000000, 4.000000, 4.000000, 4.000000, 4.000000, 4.000000, 4.000000, 4.000000, 4.000000, 4.000000, 4.000000, 4.000000, 4.000000, 4.000000, 4.000000, 4.000000
2.000000, 0.000000, 4182.051270, 4155.384277, 4176.410156, 4166.153809, 4188.205078, 4204.615234, 4223.589844, 4231.794922, 4204.102539, 4264.102539, 4204.615234, 4195.384277, 4208.717773, 4196.410156, 3145.000000, 8056.000000, 8152.000000, 0.000000, 0.000000, 0.000000, 25588.000000, 177.948715, 4.000000, 4.000000, 4.000000, 4.000000, 4.000000, 4.000000, 4.000000, 4.000000, 4.000000, 4.000000, 4.000000, 4.000000, 4.000000, 4.000000, 4.000000, 4.000000
3.000000, 0.000000, 4185.127930, 4168.717773, 4176.922852, 4174.358887, 4186.666504, 4203.589844, 4218.461426, 4215.897461, 4196.410156, 4260.512695, 4201.538574, 4196.410156, 4209.743652, 4200.512695, 3559.000000, 8050.000000, 8127.000000, 0.000000, 0.000000, 0.000000, 25588.000000, 186.153839, 4.000000, 4.000000, 4.000000, 4.000000, 4.000000, 4.000000, 4.000000, 4.000000, 4.000000, 4.000000, 4.000000, 4.000000, 4.000000, 4.000000, 4.000000, 4.000000
4.000000, 0.000000, 4182.051270, 4168.717773, 4181.538574, 4170.256348, 4187.179199, 4201.025391, 4213.333008, 4213.846191, 4203.589844, 4253.846191, 4204.102539, 4198.461426, 4216.922852, 4203.589844, 3515.000000, 8050.000000, 8127.000000, 0.000000, 0.000000, 0.000000, 25588.000000, 193.846146, 4.000000, 4.000000, 4.000000, 4.000000, 4.000000, 4.000000, 4.000000, 4.000000, 4.000000, 4.000000, 4.000000, 4.000000, 4.000000, 4.000000, 4.000000, 4.000000
5.000000, 0.000000, 4179.487305, 4154.358887, 4185.127930, 4169.743652, 4192.820313, 4202.051270, 4207.692383, 4223.589844, 4208.205078, 4247.179199, 4207.179199, 4204.102539, 4213.333008, 4198.461426, 3550.000000, 8051.000000, 8115.000000, 0.000000, 0.000000, 0.000000, 25588.000000, 202.051270, 4.000000, 4.000000, 4.000000, 4.000000, 4.000000, 4.000000, 4.000000, 4.000000, 4.000000, 4.000000, 4.000000, 4.000000, 4.000000, 4.000000, 4.000000, 4.000000
6.000000, 0.000000, 4188.717773, 4169.230469, 4191.794922, 4177.948730, 4201.025391, 4202.563965, 4202.051270, 4232.820313, 4209.743652, 4242.563965, 4211.794922, 4209.230469, 4214.358887, 4209.230469, 3475.000000, 8051.000000, 8115.000000, 0.000000, 0.000000, 0.000000, 25588.000000, 209.743591, 4.000000, 4.000000, 4.000000, 4.000000, 4.000000, 4.000000, 4.000000, 4.000000, 4.000000, 4.000000, 4.000000, 4.000000, 4.000000, 4.000000, 4.000000, 4.000000
7.000000, 0.000000, 4200.512695, 4192.307617, 4196.922852, 4179.487305, 4200.000000, 4201.025391, 4202.051270, 4224.102539, 4206.666504, 4235.897461, 4210.256348, 4207.692383, 4217.948730, 4219.487305, 3476.000000, 8055.000000, 8083.000000, 0.000000, 0.000000, 0.000000, 25588.000000, 217.948715, 4.000000, 4.000000, 4.000000, 4.000000, 4.000000, 4.000000, 4.000000, 4.000000, 4.000000, 4.000000, 4.000000, 4.000000, 4.000000, 4.000000, 4.000000, 4.000000
8.000000, 0.000000, 4200.000000, 4188.717773, 4194.358887, 4178.974121, 4193.846191, 4200.512695, 4198.461426, 4193.846191, 4189.743652, 4225.127930, 4201.538574, 4206.153809, 4212.307617, 4212.820313, 3387.000000, 8055.000000, 8083.000000, 0.000000, 0.000000, 0.000000, 25588.000000, 225.641022, 4.000000, 4.000000, 4.000000, 4.000000, 4.000000, 4.000000, 4.000000, 4.000000, 4.000000, 4.000000, 4.000000, 4.000000, 4.000000, 4.000000, 4.000000, 4.000000
9.000000, 0.000000, 4198.461426, 4188.205078, 4192.307617, 4175.897461, 4191.794922, 4197.948730, 4184.102539, 4184.102539, 4181.025391, 4220.512695, 4202.563965, 4208.717773, 4214.871582, 4213.846191, 3513.000000, 8062.000000, 8079.000000, 0.000000, 0.000000, 0.000000, 25588.000000, 233.846146, 4.000000, 4.000000, 4.000000, 4.000000, 4.000000, 4.000000, 4.000000, 4.000000, 4.000000, 4.000000, 4.000000, 4.000000, 4.000000, 4.000000, 4.000000, 4.000000
10.000000, 0.000000, 4203.076660, 4191.281738, 4192.307617, 4181.025391, 4187.692383, 4189.230469, 4179.487305, 4201.538574, 4185.127930, 4214.871582, 4204.615234, 4208.717773, 4218.461426, 4216.410156, 3280.000000, 8062.000000, 8079.000000, 0.000000, 0.000000, 0.000000, 25588.000000, 241.538452, 4.000000, 4.000000, 4.000000, 4.000000, 4.000000, 4.000000, 4.000000, 4.000000, 4.000000, 4.000000, 4.000000, 4.000000, 4.000000, 4.000000, 4.000000, 4.000000
11.000000, 0.000000, 4195.897461, 4175.897461, 4186.153809, 4178.974121, 4185.641113, 4182.563965, 4188.205078, 4201.025391, 4181.538574, 4204.615234, 4192.820313, 4199.487305, 4206.153809, 4202.563965, 3594.000000, 8062.000000, 8080.000000, 0.000000, 0.000000, 0.000000, 25588.000000, 249.743576, 4.000000, 4.000000, 4.000000, 4.000000, 4.000000, 4.000000, 4.000000, 4.000000, 4.000000, 4.000000, 4.000000, 4.000000, 4.000000, 4.000000, 4.000000, 4.000000
12.000000, 0.000000, 4184.615234, 4169.230469, 4183.076660, 4173.333008, 4188.717773, 4183.076660, 4187.692383, 4191.281738, 4175.897461, 4203.589844, 4186.666504, 4192.307617, 4198.974121, 4193.846191, 3508.000000, 8062.000000, 8080.000000, 0.000000, 0.000000, 0.000000, 25588.000000, 257.435883, 4.000000, 4.000000, 4.000000, 4.000000, 4.000000, 4.000000, 4.000000, 4.000000, 4.000000, 4.000000, 4.000000, 4.000000, 4.000000, 4.000000, 4.000000, 4.000000
13.000000, 0.000000, 4190.256348, 4176.410156, 4192.307617, 4181.025391, 4189.743652, 4182.563965, 4180.000000, 4205.127930, 4182.563965, 4213.333008, 4197.436035, 4198.461426, 4209.743652, 4201.538574, 3452.000000, 8090.000000, 8100.000000, 0.000000, 0.000000, 0.000000, 25588.000000, 265.641022, 4.000000, 4.000000, 4.000000, 4.000000, 4.000000, 4.000000, 4.000000, 4.000000, 4.000000, 4.000000, 4.000000, 4.000000, 4.000000, 4.000000, 4.000000, 4.000000
14.000000, 1.000000, 4191.794922, 4179.487305, 4193.333008, 4182.051270, 4191.281738, 4182.051270, 4181.025391, 4205.127930, 4183.076660, 4214.358887, 4197.948730, 4198.974121, 4211.281738, 4202.563965, 2877.000000, 8090.000000, 8100.000000, 0.000000, 0.000000, 0.000000, 25588.000000, 273.333313, 4.000000, 4.000000, 4.000000, 4.000000, 4.000000, 4.000000, 4.000000, 4.000000, 4.000000, 4.000000, 4.000000, 4.000000, 4.000000, 4.000000, 4.000000, 4.000000
15.000000, 1.000000, 4193.333008, 4182.563965, 4194.358887, 4183.076660, 4192.820313, 4182.051270, 4182.563965, 4205.127930, 4183.589844, 4215.384277, 4198.461426, 4199.487305, 4213.333008, 4203.589844, 2302.000000, 8090.000000, 8100.000000, 0.000000, 0.000000, 0.000000, 25588.000000, 281.538452, 4.000000, 4.000000, 4.000000, 4.000000, 4.000000, 4.000000, 4.000000, 4.000000, 4.000000, 4.000000, 4.000000, 4.000000, 4.000000, 4.000000, 4.000000, 4.000000
16.000000, 1.000000, 4194.871582, 4185.641113, 4195.384277, 4184.615234, 4194.358887, 4181.538574, 4183.589844, 4205.127930, 4184.102539, 4215.897461, 4198.974121, 4200.000000, 4215.384277, 4204.615234, 1727.000000, 8090.000000, 8100.000000, 0.000000, 0.000000, 0.000000, 25588.000000, 289.230774, 4.000000, 4.000000, 4.000000, 4.000000, 4.000000, 4.000000, 4.000000, 4.000000, 4.000000, 4.000000, 4.000000, 4.000000, 4.000000, 4.000000, 4.000000, 4.000000
17.000000, 1.000000, 4196.410156, 4188.717773, 4196.410156, 4185.641113, 4195.897461, 4181.538574, 4184.615234, 4205.127930, 4184.615234, 4216.922852, 4198.974121, 4200.512695, 4217.436035, 4205.641113, 1152.000000, 8090.000000, 8100.000000, 0.000000, 0.000000, 0.000000, 25588.000000, 296.923065, 4.000000, 4.000000, 4.000000, 4.000000, 4.000000, 4.000000, 4.000000, 4.000000, 4.000000, 4.000000, 4.000000, 4.000000, 4.000000, 4.000000, 4.000000, 4.000000
18.000000, 1.000000, 4197.948730, 4192.307617, 4197.436035, 4186.666504, 4197.436035, 4181.025391, 4185.641113, 4205.127930, 4185.127930, 4217.948730, 4199.487305, 4201.025391, 4218.974121, 4206.666504, 577.000000, 8090.000000, 8100.000000, 0.000000, 0.000000, 0.000000, 25588.000000, 305.128204, 4.000000, 4.000000, 4.000000, 4.000000, 4.000000, 4.000000, 4.000000, 4.000000, 4.000000, 4.000000, 4.000000, 4.000000, 4.000000, 4.000000, 4.000000, 4.000000
19.000000, 0.000000, 4199.487305, 4195.384277, 4198.461426, 4187.692383, 4198.974121, 4180.000000, 4187.692383, 4205.641113, 4185.641113, 4218.974121, 4200.512695, 4202.051270, 4221.538574, 4207.692383, 0.000000, 8090.000000, 8100.000000, 0.000000, 0.000000, 0.000000, 25588.000000, 312.820496, 4.000000, 4.000000, 4.000000, 4.000000, 4.000000, 4.000000, 4.000000, 4.000000, 4.000000, 4.000000, 4.000000, 4.000000, 4.000000, 4.000000, 4.000000, 4.000000
20.000000, 0.000000, 4211.794922, 4203.076660, 4205.641113, 4188.205078, 4198.974121, 4180.512695, 4173.846191, 4203.589844, 4186.153809, 4220.512695, 4209.743652, 4210.256348, 4235.384277, 4220.512695, 0.000000, 8090.000000, 8100.000000, 0.000000, 0.000000, 0.000000, 25588.000000, 320.512817, 4.000000, 4.000000, 4.000000, 4.000000, 4.000000, 4.000000, 4.000000, 4.000000, 4.000000, 4.000000, 4.000000, 4.000000, 4.000000, 4.000000, 4.000000, 4.000000
21.000000, 0.000000, 4212.307617, 4209.230469, 4204.615234, 4191.794922, 4203.589844, 4186.153809, 4180.000000, 4195.897461, 4181.538574, 4213.333008, 4205.127930, 4204.102539, 4233.846191, 4215.384277, 0.000000, 8124.000000, 8126.000000, 0.000000, 0.000000, 0.000000, 25588.000000, 328.717926, 4.000000, 4.000000, 4.000000, 4.000000, 4.000000, 4.000000, 4.000000, 4.000000, 4.000000, 4.000000, 4.000000, 4.000000, 4.000000, 4.000000, 4.000000, 4.000000
22.000000, 0.000000, 4203.076660, 4204.102539, 4198.974121, 4186.153809, 4202.051270, 4186.153809, 4198.974121, 4210.256348, 4185.641113, 4206.666504, 4200.000000, 4196.922852, 4227.692383, 4207.179199, 0.000000, 8124.000000, 8126.000000, 0.000000, 0.000000, 0.000000, 25588.000000, 336.410248, 4.000000, 4.000000, 4.000000, 4.000000, 4.000000, 4.000000, 4.000000, 4.000000, 4.000000, 4.000000, 4.000000, 4.000000, 4.000000, 4.000000, 4.000000, 4.000000
23.000000, 0.000000, 4205.127930, 4202.563965, 4203.076660, 4188.205078, 4198.461426, 4183.589844, 4200.512695, 4220.512695, 4186.153809, 4207.692383, 4201.025391, 4207.692383, 4232.820313, 4212.307617, 0.000000, 8131.000000, 8141.000000, 0.000000, 0.000000, 0.000000, 25588.000000, 344.102570, 4.000000, 4.000000, 4.000000, 4.000000, 4.000000, 4.000000, 4.000000, 4.000000, 4.000000, 4.000000, 4.000000, 4.000000, 4.000000, 4.000000, 4.000000, 4.000000
24.000000, 0.000000, 4207.179199, 4204.615234, 4205.127930, 4189.230469, 4200.512695, 4184.615234, 4190.256348, 4204.615234, 4172.820313, 4201.025391, 4202.051270, 4214.358887, 4235.897461, 4216.922852, 0.000000, 8131.000000, 8141.000000, 0.000000, 0.000000, 0.000000, 25588.000000, 352.307678, 4.000000, 4.000000, 4.000000, 4.000000, 4.000000, 4.000000, 4.000000, 4.000000, 4.000000, 4.000000, 4.000000, 4.000000, 4.000000, 4.000000, 4.000000, 4.000000
25.000000, 0.000000, 4204.615234, 4203.589844, 4202.051270, 4190.256348, 4206.666504, 4183.076660, 4184.102539, 4204.102539, 4174.358887, 4201.025391, 4206.666504, 4215.897461, 4237.948730, 4217.436035, 0.000000, 8135.000000, 8149.000000, 0.000000, 0.000000, 0.000000, 25588.000000, 360.000000, 4.000000, 4.000000, 4.000000, 4.000000, 4.000000, 4.000000, 4.000000, 4.000000, 4.000000, 4.000000, 4.000000, 4.000000, 4.000000, 4.000000, 4.000000, 4.000000
26.000000, 0.000000, 4207.179199, 4206.153809, 4201.025391, 4192.307617, 4209.743652, 4182.563965, 4184.102539, 4216.410156, 4186.666504, 4211.281738, 4212.307617, 4218.461426, 4241.538574, 4218.974121, 0.000000, 8135.000000, 8149.000000, 0.000000, 0.000000, 0.000000, 25588.000000, 367.692291, 4.000000, 4.000000, 4.000000, 4.000000, 4.000000, 4.000000, 4.000000, 4.000000, 4.000000, 4.000000, 4.000000, 4.000000, 4.000000, 4.000000, 4.000000, 4.000000
27.000000, 0.000000, 4210.769043, 4213.333008, 4201.025391, 4187.692383, 4212.820313, 4185.641113, 4186.666504, 4212.820313, 4184.615234, 4215.384277, 4214.358887, 4213.333008, 4241.538574, 4221.538574, 0.000000, 8144.000000, 8154.000000, 0.000000, 0.000000, 0.000000, 25588.000000, 375.897430, 4.000000, 4.000000, 4.000000, 4.000000, 4.000000, 4.000000, 4.000000, 4.000000, 4.000000, 4.000000, 4.000000, 4.000000, 4.000000, 4.000000, 4.000000, 4.000000
28.000000, 0.000000, 4206.666504, 4216.922852, 4202.051270, 4193.333008, 4216.922852, 4187.692383, 4193.333008, 4207.692383, 4177.948730, 4211.281738, 4210.769043, 4207.692383, 4237.948730, 4220.512695, 0.000000, 8144.000000, 8154.000000, 0.000000, 0.000000, 0.000000, 25588.000000, 383.589722, 4.000000, 4.000000, 4.000000, 4.000000, 4.000000, 4.000000, 4.000000, 4.000000, 4.000000, 4.000000, 4.000000, 4.000000, 4.000000, 4.000000, 4.000000, 4.000000
29.000000, 0.000000, 4195.897461, 4205.127930, 4195.897461, 4189.230469, 4211.281738, 4189.743652, 4201.025391, 4214.358887, 4176.922852, 4198.461426, 4195.897461, 4200.512695, 4225.641113, 4204.102539, 0.000000, 8151.000000, 8157.000000, 0.000000, 0.000000, 0.000000, 25588.000000, 391.282043, 4.000000, 4.000000, 4.000000, 4.000000, 4.000000, 4.000000, 4.000000, 4.000000, 4.000000, 4.000000, 4.000000, 4.000000, 4.000000, 4.000000, 4.000000, 4.000000
30.000000, 0.000000, 4183.076660, 4186.153809, 4183.076660, 4176.922852, 4201.538574, 4197.948730, 4202.563965, 4221.025391, 4173.333008, 4184.102539, 4177.948730, 4188.717773, 4205.127930, 4183.076660, 0.000000, 8151.000000, 8157.000000, 0.000000, 0.000000, 0.000000, 25588.000000, 398.974335, 4.000000, 4.000000, 4.000000, 4.000000, 4.000000, 4.000000, 4.000000, 4.000000, 4.000000, 4.000000, 4.000000, 4.000000, 4.000000, 4.000000, 4.000000, 4.000000
31.000000, 0.000000, 4180.000000, 4180.512695, 4181.538574, 4182.563965, 4201.538574, 4204.615234, 4205.127930, 4216.922852, 4170.256348, 4184.615234, 4178.974121, 4186.666504, 4198.974121, 4181.025391, 0.000000, 8167.000000, 8163.000000, 0.000000, 0.000000, 0.000000, 25588.000000, 406.666656, 4.000000, 4.000000, 4.000000, 4.000000, 4.000000, 4.000000, 4.000000, 4.000000, 4.000000, 4.000000, 4.000000, 4.000000, 4.000000, 4.000000, 4.000000, 4.000000
32.000000, 0.000000, 4180.512695, 4184.615234, 4186.666504, 4183.589844, 4203.076660, 4196.922852, 4203.589844, 4205.127930, 4169.743652, 4195.384277, 4185.127930, 4187.179199, 4209.743652, 4187.692383, 0.000000, 8167.000000, 8163.000000, 0.000000, 0.000000, 0.000000, 25588.000000, 414.358978, 4.000000, 4.000000, 4.000000, 4.000000, 4.000000, 4.000000, 4.000000, 4.000000, 4.000000, 4.000000, 4.000000, 4.000000, 4.000000, 4.000000, 4.000000, 4.000000
33.000000, 0.000000, 4177.948730, 4186.666504, 4184.615234, 4181.025391, 4198.461426, 4183.589844, 4192.307617, 4198.461426, 4166.153809, 4195.384277, 4182.051270, 4179.487305, 4214.358887, 4184.102539, 0.000000, 8173.000000, 8167.000000, 0.000000, 0.000000, 0.000000, 25588.000000, 422.051270, 4.000000, 4.000000, 4.000000, 4.000000, 4.000000, 4.000000, 4.000000, 4.000000, 4.000000, 4.000000, 4.000000, 4.000000, 4.000000, 4.000000, 4.000000, 4.000000
34.000000, 0.000000, 4186.666504, 4196.922852, 4183.589844, 4184.615234, 4201.538574, 4181.538574, 4183.076660, 4203.076660, 4165.641113, 4198.974121, 4187.179199, 4178.974121, 4215.384277, 4184.615234, 0.000000, 8173.000000, 8167.000000, 0.000000, 0.000000, 0.000000, 25588.000000, 429.743591, 4.000000, 4.000000, 4.000000, 4.000000, 4.000000, 4.000000, 4.000000, 4.000000, 4.000000, 4.000000, 4.000000, 4.000000, 4.000000, 4.000000, 4.000000, 4.000000
35.000000, 0.000000, 4195.384277, 4209.743652, 4187.692383, 4187.692383, 4207.179199, 4185.127930, 4183.589844, 4203.589844, 4169.230469, 4207.692383, 4197.436035, 4187.179199, 4224.102539, 4196.922852, 0.000000, 8181.000000, 8174.000000, 0.000000, 0.000000, 0.000000, 25588.000000, 437.948700, 4.000000, 4.000000, 4.000000, 4.000000, 4.000000, 4.000000, 4.000000, 4.000000, 4.000000, 4.000000, 4.000000, 4.000000, 4.000000, 4.000000, 4.000000, 4.000000
36.000000, 0.000000, 4192.820313, 4209.743652, 4190.769043, 4189.743652, 4205.127930, 4184.102539, 4184.102539, 4198.461426, 4182.563965, 4205.641113, 4197.948730, 4192.820313, 4230.256348, 4200.000000, 0.000000, 8181.000000, 8174.000000, 0.000000, 0.000000, 0.000000, 25588.000000, 445.641022, 4.000000, 4.000000, 4.000000, 4.000000, 4.000000, 4.000000, 4.000000, 4.000000, 4.000000, 4.000000, 4.000000, 4.000000, 4.000000, 4.000000, 4.000000, 4.000000
37.000000, 0.000000, 4198.974121, 4208.717773, 4196.922852, 4187.692383, 4205.127930, 4185.127930, 4186.153809, 4203.076660, 4208.717773, 4209.230469, 4201.538574, 4202.563965, 4234.871582, 4207.179199, 0.000000, 8203.000000, 8169.000000, 0.000000, 0.000000, 0.000000, 25588.000000, 453.333313, 4.000000, 4.000000, 4.000000, 4.000000, 4.000000, 4.000000, 4.000000, 4.000000, 4.000000, 4.000000, 4.000000, 4.000000, 4.000000, 4.000000, 4.000000, 4.000000
38.000000, 0.000000, 4207.179199, 4204.102539, 4202.563965, 4191.794922, 4204.615234, 4185.641113, 4185.641113, 4210.256348, 4230.256348, 4214.358887, 4206.153809, 4207.692383, 4231.794922, 4214.358887, 0.000000, 8203.000000, 8169.000000, 0.000000, 0.000000, 0.000000, 25588.000000, 461.025635, 4.000000, 4.000000, 4.000000, 4.000000, 4.000000, 4.000000, 4.000000, 4.000000, 4.000000, 4.000000, 4.000000, 4.000000, 4.000000, 4.000000, 4.000000, 4.000000
39.000000, 0.000000, 4195.384277, 4197.436035, 4194.871582, 4188.205078, 4201.538574, 4183.076660, 4175.384277, 4203.076660, 4233.846191, 4203.076660, 4193.333008, 4190.256348, 4217.436035, 4197.948730, 0.000000, 8212.000000, 8163.000000, 0.000000, 0.000000, 0.000000, 25588.000000, 468.717926, 4.000000, 4.000000, 4.000000, 4.000000, 4.000000, 4.000000, 4.000000, 4.000000, 4.000000, 4.000000, 4.000000, 4.000000, 4.000000, 4.000000, 4.000000, 4.000000
40.000000, 0.000000, 4191.281738, 4207.179199, 4183.076660, 4184.102539, 4205.127930, 4183.589844, 4173.846191, 4192.307617, 4230.256348, 4192.820313, 4179.487305, 4172.820313, 4210.769043, 4186.153809, 0.000000, 8212.000000, 8163.000000, 0.000000, 0.000000, 0.000000, 25588.000000, 476.410248, 4.000000, 4.000000, 4.000000, 4.000000, 4.000000, 4.000000, 4.000000, 4.000000, 4.000000, 4.000000, 4.000000, 4.000000, 4.000000, 4.000000, 4.000000, 4.000000
41.000000, 0.000000, 4204.102539, 4219.487305, 4182.563965, 4195.384277, 4213.333008, 4186.666504, 4184.615234, 4194.358887, 4236.922852, 4202.563965, 4187.179199, 4179.487305, 4221.538574, 4196.922852, 0.000000, 8227.000000, 8145.000000, 0.000000, 0.000000, 0.000000, 25588.000000, 484.102539, 4.000000, 4.000000, 4.000000, 4.000000, 4.000000, 4.000000, 4.000000, 4.000000, 4.000000, 4.000000, 4.000000, 4.000000, 4.000000, 4.000000, 4.000000, 4.000000
42.000000, 0.000000, 4206.153809, 4217.948730, 4191.281738, 4193.846191, 4217.948730, 4188.717773, 4187.179199, 4208.205078, 4252.307617, 4216.410156, 4203.076660, 4193.846191, 4232.820313, 4206.666504, 0.000000, 8227.000000, 8145.000000, 0.000000, 0.000000, 0.000000, 25588.000000, 492.307678, 4.000000, 4.000000, 4.000000, 4.000000, 4.000000, 4.000000, 4.000000, 4.000000, 4.000000, 4.000000, 4.000000, 4.000000, 4.000000, 4.000000, 4.000000, 4.000000
43.000000, 0.000000, 4203.589844, 4213.846191, 4199.487305, 4191.794922, 4214.358887, 4189.743652, 4189.743652, 4216.410156, 4263.076660, 4217.436035, 4206.153809, 4201.538574, 4231.794922, 4209.743652, 0.000000, 8227.000000, 8146.000000, 0.000000, 0.000000, 0.000000, 25588.000000, 500.000000, 4.000000, 4.000000, 4.000000, 4.000000, 4.000000, 4.000000, 4.000000, 4.000000, 4.000000, 4.000000, 4.000000, 4.000000, 4.000000, 4.000000, 4.000000, 4.000000
44.000000, 0.000000, 4206.666504, 4213.333008, 4200.512695, 4192.307617, 4204.615234, 4186.666504, 4191.281738, 4210.256348, 4264.102539, 4217.436035, 4202.563965, 4202.051270, 4231.794922, 4215.384277, 0.000000, 8227.000000, 8146.000000, 0.000000, 0.000000, 0.000000, 25588.000000, 507.692291, 4.000000, 4.000000, 4.000000, 4.000000, 4.000000, 4.000000, 4.000000, 4.000000, 4.000000, 4.000000, 4.000000, 4.000000, 4.000000, 4.000000, 4.000000, 4.000000
45.000000, 0.000000, 4207.692383, 4209.743652, 4197.436035, 4186.153809, 4202.563965, 4182.563965, 4182.051270, 4200.512695, 4266.153809, 4217.948730, 4207.692383, 4200.512695, 4233.333008, 4218.974121, 0.000000, 8223.000000, 8149.000000, 0.000000, 0.000000, 0.000000, 25588.000000, 515.384583, 4.000000, 4.000000, 4.000000, 4.000000, 4.000000, 4.000000, 4.000000, 4.000000, 4.000000, 4.000000, 4.000000, 4.000000, 4.000000, 4.000000, 4.000000, 4.000000
46.000000, 0.000000, 4209.743652, 4212.820313, 4200.000000, 4191.794922, 4213.846191, 4185.127930, 4181.025391, 4203.076660, 4272.307617, 4216.410156, 4217.948730, 4209.230469, 4235.384277, 4223.076660, 0.000000, 8223.000000, 8149.000000, 0.000000, 0.000000, 0.000000, 25588.000000, 523.076904, 4.000000, 4.000000, 4.000000, 4.000000, 4.000000, 4.000000, 4.000000, 4.000000, 4.000000, 4.000000, 4.000000, 4.000000, 4.000000, 4.000000, 4.000000, 4.000000
