title:neutral-7, recorded:15.05.18 10.02.48, timestamp started:2018-05-12T20:28:52.032863+02:00            , sampling:128, subject:Noé, labels:COUNTER INTERPOLATED AF3 F7 F3 FC5 T7 P7 O1 O2 P8 T8 FC6 F4 F8 AF4 RAW_CQ GYROX GYROY MARKER MARKER_HARDWARE SYNC TIME_STAMP_s TIME_STAMP_ms CQ_AF3 CQ_F7 CQ_F3 CQ_FC5 CQ_T7 CQ_P7 CQ_O1 CQ_O2 CQ_P8 CQ_T8 CQ_FC6 CQ_F4 CQ_F8 CQ_AF4 CQ_CMS CQ_DRL, chan:40, samples:7631, units:emotiv
111.000000, 0.000000, 4203.589844, 4193.846191, 4178.974121, 4178.974121, 4193.846191, 4215.897461, 4219.487305, 4213.333008, 4211.794922, 4208.717773, 4183.589844, 4102.051270, 4184.615234, 4178.461426, 3540.000000, 8069.000000, 8202.000000, 0.000000, 0.000000, 0.000000, 25029.000000, 348.205109, 4.000000, 4.000000, 4.000000, 4.000000, 4.000000, 4.000000, 4.000000, 4.000000, 4.000000, 4.000000, 4.000000, 4.000000, 4.000000, 4.000000, 4.000000, 4.000000
112.000000, 0.000000, 4207.179199, 4203.076660, 4178.461426, 4180.000000, 4184.615234, 4219.487305, 4217.948730, 4208.717773, 4216.410156, 4216.410156, 4188.717773, 4103.589844, 4191.281738, 4180.000000, 3541.000000, 8069.000000, 8202.000000, 0.000000, 0.000000, 0.000000, 25029.000000, 355.897430, 4.000000, 4.000000, 4.000000, 4.000000, 4.000000, 4.000000, 4.000000, 4.000000, 4.000000, 4.000000, 4.000000, 4.000000, 4.000000, 4.000000, 4.000000, 4.000000
113.000000, 0.000000, 4201.025391, 4194.871582, 4179.487305, 4180.512695, 4191.794922, 4217.948730, 4220.000000, 4207.179199, 4220.000000, 4216.922852, 4186.666504, 4105.641113, 4183.589844, 4172.820313, 3546.000000, 8044.000000, 8215.000000, 0.000000, 0.000000, 0.000000, 25029.000000, 364.102570, 4.000000, 4.000000, 4.000000, 4.000000, 4.000000, 4.000000, 4.000000, 4.000000, 4.000000, 4.000000, 4.000000, 4.000000, 4.000000, 4.000000, 4.000000, 4.000000
114.000000, 0.000000, 4200.000000, 4180.000000, 4174.358887, 4174.358887, 4203.589844, 4215.897461, 4225.641113, 4215.384277, 4218.461426, 4211.281738, 4180.000000, 4106.153809, 4176.922852, 4165.641113, 2615.000000, 8044.000000, 8215.000000, 0.000000, 0.000000, 0.000000, 25029.000000, 371.794861, 4.000000, 4.000000, 4.000000, 4.000000, 4.000000, 4.000000, 4.000000, 4.000000, 4.000000, 4.000000, 4.000000, 4.000000, 4.000000, 4.000000, 4.000000, 4.000000
115.000000, 0.000000, 4205.127930, 4190.769043, 4174.358887, 4174.358887, 4202.563965, 4217.436035, 4222.563965, 4220.512695, 4218.461426, 4212.307617, 4192.307617, 4108.717773, 4193.333008, 4175.897461, 3540.000000, 8032.000000, 8223.000000, 0.000000, 0.000000, 0.000000, 25029.000000, 379.487183, 4.000000, 4.000000, 4.000000, 4.000000, 4.000000, 4.000000, 4.000000, 4.000000, 4.000000, 4.000000, 4.000000, 4.000000, 4.000000, 4.000000, 4.000000, 4.000000
116.000000, 0.000000, 4211.281738, 4203.076660, 4182.051270, 4185.127930, 4202.563965, 4216.410156, 4219.487305, 4215.384277, 4218.974121, 4218.974121, 4204.102539, 4114.358887, 4208.205078, 4188.717773, 3541.000000, 8032.000000, 8223.000000, 0.000000, 0.000000, 0.000000, 25029.000000, 387.179474, 4.000000, 4.000000, 4.000000, 4.000000, 4.000000, 4.000000, 4.000000, 4.000000, 4.000000, 4.000000, 4.000000, 4.000000, 4.000000, 4.000000, 4.000000, 4.000000
117.000000, 0.000000, 4206.153809, 4192.307617, 4183.076660, 4187.692383, 4205.127930, 4217.948730, 4224.102539, 4205.641113, 4213.333008, 4218.974121, 4201.538574, 4117.436035, 4204.615234, 4191.794922, 3546.000000, 8017.000000, 8242.000000, 0.000000, 0.000000, 0.000000, 25029.000000, 394.871796, 4.000000, 4.000000, 4.000000, 4.000000, 4.000000, 4.000000, 4.000000, 4.000000, 4.000000, 4.000000, 4.000000, 4.000000, 4.000000, 4.000000, 4.000000, 4.000000
118.000000, 0.000000, 4204.615234, 4182.563965, 4182.051270, 4184.615234, 4203.076660, 4224.102539, 4224.615234, 4200.512695, 4211.794922, 4216.410156, 4209.230469, 4120.512695, 4210.256348, 4197.948730, 2615.000000, 8017.000000, 8242.000000, 0.000000, 0.000000, 0.000000, 25029.000000, 402.564087, 4.000000, 4.000000, 4.000000, 4.000000, 4.000000, 4.000000, 4.000000, 4.000000, 4.000000, 4.000000, 4.000000, 4.000000, 4.000000, 4.000000, 4.000000, 4.000000
119.000000, 0.000000, 4212.307617, 4183.589844, 4186.153809, 4184.615234, 4205.127930, 4230.256348, 4227.692383, 4207.692383, 4222.051270, 4223.076660, 4222.051270, 4124.102539, 4222.051270, 4206.666504, 3540.000000, 8015.000000, 8247.000000, 0.000000, 0.000000, 0.000000, 25029.000000, 410.769226, 4.000000, 4.000000, 4.000000, 4.000000, 4.000000, 4.000000, 4.000000, 4.000000, 4.000000, 4.000000, 4.000000, 4.000000, 4.000000, 4.000000, 4.000000, 4.000000
120.000000, 0.000000, 4206.666504, 4180.000000, 4185.127930, 4183.589844, 4207.179199, 4233.846191, 4234.871582, 4210.769043, 4228.205078, 4231.281738, 4221.538574, 4123.076660, 4212.820313, 4203.076660, 3541.000000, 8015.000000, 8247.000000, 0.000000, 0.000000, 0.000000, 25029.000000, 418.461517, 4.000000, 4.000000, 4.000000, 4.000000, 4.000000, 4.000000, 4.000000, 4.000000, 4.000000, 4.000000, 4.000000, 4.000000, 4.000000, 4.000000, 4.000000, 4.000000
121.000000, 0.000000, 4205.127930, 4183.076660, 4184.102539, 4184.615234, 4203.589844, 4231.794922, 4226.666504, 4204.615234, 4228.205078, 4235.384277, 4221.538574, 4122.563965, 4204.102539, 4202.051270, 3546.000000, 8019.000000, 8246.000000, 0.000000, 0.000000, 0.000000, 25029.000000, 426.153839, 4.000000, 4.000000, 4.000000, 4.000000, 4.000000, 4.000000, 4.000000, 4.000000, 4.000000, 4.000000, 4.000000, 4.000000, 4.000000, 4.000000, 4.000000, 4.000000
122.000000, 0.000000, 4206.666504, 4188.717773, 4185.127930, 4186.153809, 4196.922852, 4223.076660, 4211.794922, 4201.538574, 4229.230469, 4232.820313, 4223.589844, 4123.076660, 4204.615234, 4207.692383, 2615.000000, 8019.000000, 8246.000000, 0.000000, 0.000000, 0.000000, 25029.000000, 433.846130, 4.000000, 4.000000, 4.000000, 4.000000, 4.000000, 4.000000, 4.000000, 4.000000, 4.000000, 4.000000, 4.000000, 4.000000, 4.000000, 4.000000, 4.000000, 4.000000
123.000000, 0.000000, 4202.563965, 4182.563965, 4186.666504, 4188.717773, 4197.948730, 4220.000000, 4214.358887, 4206.153809, 4230.769043, 4227.179199, 4221.025391, 4123.076660, 4202.051270, 4207.179199, 3540.000000, 8047.000000, 8248.000000, 0.000000, 0.000000, 0.000000, 25029.000000, 441.538452, 4.000000, 4.000000, 4.000000, 4.000000, 4.000000, 4.000000, 4.000000, 4.000000, 4.000000, 4.000000, 4.000000, 4.000000, 4.000000, 4.000000, 4.000000, 4.000000
124.000000, 0.000000, 4208.205078, 4190.256348, 4198.974121, 4198.461426, 4214.358887, 4230.256348, 4225.127930, 4214.871582, 4240.512695, 4236.922852, 4229.230469, 4133.333008, 4208.205078, 4213.846191, 3541.000000, 8047.000000, 8248.000000, 0.000000, 0.000000, 0.000000, 25029.000000, 449.230743, 4.000000, 4.000000, 4.000000, 4.000000, 4.000000, 4.000000, 4.000000, 4.000000, 4.000000, 4.000000, 4.000000, 4.000000, 4.000000, 4.000000, 4.000000, 4.000000
125.000000, 0.000000, 4208.717773, 4200.000000, 4204.615234, 4206.153809, 4224.102539, 4236.922852, 4228.205078, 4223.589844, 4250.769043, 4249.743652, 4237.436035, 4145.127930, 4211.794922, 4220.512695, 3546.000000, 8061.000000, 8250.000000, 0.000000, 0.000000, 0.000000, 25029.000000, 457.435883, 4.000000, 4.000000, 4.000000, 4.000000, 4.000000, 4.000000, 4.000000, 4.000000, 4.000000, 4.000000, 4.000000, 4.000000, 4.000000, 4.000000, 4.000000, 4.000000
126.000000, 0.000000, 4204.102539, 4182.563965, 4192.307617, 4198.461426, 4212.307617, 4227.179199, 4220.512695, 4221.025391, 4241.538574, 4237.948730, 4224.615234, 4139.487305, 4201.538574, 4209.743652, 2615.000000, 8061.000000, 8250.000000, 0.000000, 0.000000, 0.000000, 25029.000000, 465.128204, 4.000000, 4.000000, 4.000000, 4.000000, 4.000000, 4.000000, 4.000000, 4.000000, 4.000000, 4.000000, 4.000000, 4.000000, 4.000000, 4.000000, 4.000000, 4.000000
127.000000, 0.000000, 4204.102539, 4171.794922, 4186.666504, 4188.717773, 4206.153809, 4217.436035, 4212.820313, 4214.358887, 4230.256348, 4230.256348, 4213.846191, 4129.743652, 4196.410156, 4198.461426, 56.000000, 8091.000000, 8259.000000, 0.000000, 0.000000, 0.000000, 25029.000000, 472.820496, 4.000000, 4.000000, 4.000000, 4.000000, 4.000000, 4.000000, 4.000000, 4.000000, 4.000000, 4.000000, 4.000000, 4.000000, 4.000000, 4.000000, 4.000000, 4.000000
0.000000, 0.000000, 4209.230469, 4186.153809, 4192.820313, 4194.358887, 4213.333008, 4218.974121, 4219.487305, 4216.410156, 4234.871582, 4248.205078, 4226.666504, 4134.358887, 4203.589844, 4205.127930, 3753.000000, 8091.000000, 8259.000000, 0.000000, 0.000000, 0.000000, 25029.000000, 480.512817, 4.000000, 4.000000, 4.000000, 4.000000, 4.000000, 4.000000, 4.000000, 4.000000, 4.000000, 4.000000, 4.000000, 4.000000, 4.000000, 4.000000, 4.000000, 4.000000
1.000000, 0.000000, 4211.794922, 4190.769043, 4190.256348, 4201.538574, 4205.641113, 4219.487305, 4225.641113, 4218.974121, 4235.897461, 4247.179199, 4233.846191, 4138.974121, 4204.102539, 4211.794922, 3572.000000, 8107.000000, 8266.000000, 0.000000, 0.000000, 0.000000, 25029.000000, 488.205109, 4.000000, 4.000000, 4.000000, 4.000000, 4.000000, 4.000000, 4.000000, 4.000000, 4.000000, 4.000000, 4.000000, 4.000000, 4.000000, 4.000000, 4.000000, 4.000000
2.000000, 0.000000, 4205.127930, 4181.538574, 4188.205078, 4199.487305, 4194.358887, 4213.846191, 4215.384277, 4217.436035, 4228.717773, 4226.666504, 4221.538574, 4134.358887, 4198.461426, 4207.692383, 1635.000000, 8107.000000, 8266.000000, 0.000000, 0.000000, 0.000000, 25029.000000, 496.410248, 4.000000, 4.000000, 4.000000, 4.000000, 4.000000, 4.000000, 4.000000, 4.000000, 4.000000, 4.000000, 4.000000, 4.000000, 4.000000, 4.000000, 4.000000, 4.000000
3.000000, 0.000000, 4208.717773, 4189.230469, 4200.000000, 4199.487305, 4207.692383, 4213.846191, 4214.358887, 4217.948730, 4230.769043, 4234.871582, 4220.000000, 4134.358887, 4201.538574, 4209.743652, 3575.000000, 8151.000000, 8253.000000, 0.000000, 0.000000, 0.000000, 25029.000000, 504.102539, 4.000000, 4.000000, 4.000000, 4.000000, 4.000000, 4.000000, 4.000000, 4.000000, 4.000000, 4.000000, 4.000000, 4.000000, 4.000000, 4.000000, 4.000000, 4.000000
4.000000, 0.000000, 4213.846191, 4197.948730, 4205.127930, 4205.641113, 4221.538574, 4220.000000, 4225.641113, 4221.025391, 4237.436035, 4250.256348, 4228.205078, 4140.512695, 4206.666504, 4218.461426, 3317.000000, 8151.000000, 8253.000000, 0.000000, 0.000000, 0.000000, 25029.000000, 511.794861, 4.000000, 4.000000, 4.000000, 4.000000, 4.000000, 4.000000, 4.000000, 4.000000, 4.000000, 4.000000, 4.000000, 4.000000, 4.000000, 4.000000, 4.000000, 4.000000
5.000000, 0.000000, 4205.127930, 4185.641113, 4192.820313, 4200.512695, 4211.794922, 4220.512695, 4227.179199, 4218.974121, 4237.948730, 4242.051270, 4223.589844, 4136.922852, 4198.461426, 4212.307617, 3593.000000, 8170.000000, 8252.000000, 0.000000, 0.000000, 0.000000, 25029.000000, 519.487183, 4.000000, 4.000000, 4.000000, 4.000000, 4.000000, 4.000000, 4.000000, 4.000000, 4.000000, 4.000000, 4.000000, 4.000000, 4.000000, 4.000000, 4.000000, 4.000000
6.000000, 0.000000, 4202.563965, 4176.410156, 4181.538574, 4190.256348, 4201.025391, 4213.333008, 4221.025391, 4216.922852, 4228.205078, 4224.102539, 4209.230469, 4124.102539, 4187.179199, 4195.384277, 3062.000000, 8170.000000, 8252.000000, 0.000000, 0.000000, 0.000000, 25029.000000, 527.179504, 4.000000, 4.000000, 4.000000, 4.000000, 4.000000, 4.000000, 4.000000, 4.000000, 4.000000, 4.000000, 4.000000, 4.000000, 4.000000, 4.000000, 4.000000, 4.000000
7.000000, 0.000000, 4204.615234, 4181.538574, 4182.051270, 4187.179199, 4200.512695, 4208.717773, 4217.436035, 4213.846191, 4216.922852, 4217.948730, 4203.076660, 4119.487305, 4190.256348, 4188.717773, 3495.000000, 8186.000000, 8245.000000, 0.000000, 0.000000, 0.000000, 25029.000000, 534.871765, 4.000000, 4.000000, 4.000000, 4.000000, 4.000000, 4.000000, 4.000000, 4.000000, 4.000000, 4.000000, 4.000000, 4.000000, 4.000000, 4.000000, 4.000000, 4.000000
8.000000, 0.000000, 4205.641113, 4185.127930, 4184.102539, 4187.692383, 4203.589844, 4209.743652, 4215.897461, 4205.127930, 4217.436035, 4221.025391, 4209.230469, 4126.153809, 4196.410156, 4196.410156, 3546.000000, 8186.000000, 8245.000000, 0.000000, 0.000000, 0.000000, 25029.000000, 543.076904, 4.000000, 4.000000, 4.000000, 4.000000, 4.000000, 4.000000, 4.000000, 4.000000, 4.000000, 4.000000, 4.000000, 4.000000, 4.000000, 4.000000, 4.000000, 4.000000
9.000000, 0.000000, 4205.127930, 4182.563965, 4185.641113, 4188.717773, 4201.538574, 4208.205078, 4215.384277, 4201.538574, 4215.897461, 4221.538574, 4212.820313, 4127.179199, 4194.871582, 4202.563965, 3549.000000, 8213.000000, 8222.000000, 0.000000, 0.000000, 0.000000, 25029.000000, 550.769226, 4.000000, 4.000000, 4.000000, 4.000000, 4.000000, 4.000000, 4.000000, 4.000000, 4.000000, 4.000000, 4.000000, 4.000000, 4.000000, 4.000000, 4.000000, 4.000000
10.000000, 0.000000, 4203.076660, 4183.076660, 4187.179199, 4188.717773, 4192.307617, 4202.563965, 4209.743652, 4197.948730, 4206.153809, 4216.922852, 4206.153809, 4123.589844, 4190.769043, 4196.922852, 2768.000000, 8213.000000, 8222.000000, 0.000000, 0.000000, 0.000000, 25029.000000, 558.461548, 4.000000, 4.000000, 4.000000, 4.000000, 4.000000, 4.000000, 4.000000, 4.000000, 4.000000, 4.000000, 4.000000, 4.000000, 4.000000, 4.000000, 4.000000, 4.000000
11.000000, 0.000000, 4205.127930, 4183.589844, 4187.179199, 4190.769043, 4190.256348, 4199.487305, 4201.538574, 4187.179199, 4203.076660, 4212.820313, 4203.589844, 4130.769043, 4186.666504, 4190.256348, 3537.000000, 8226.000000, 8207.000000, 0.000000, 0.000000, 0.000000, 25029.000000, 566.153809, 4.000000, 4.000000, 4.000000, 4.000000, 4.000000, 4.000000, 4.000000, 4.000000, 4.000000, 4.000000, 4.000000, 4.000000, 4.000000, 4.000000, 4.000000, 4.000000
12.000000, 0.000000, 4207.179199, 4185.127930, 4193.846191, 4196.410156, 4200.512695, 4200.512695, 4197.948730, 4187.179199, 4210.256348, 4217.436035, 4215.897461, 4140.512695, 4190.256348, 4195.897461, 3537.000000, 8226.000000, 8207.000000, 0.000000, 0.000000, 0.000000, 25029.000000, 573.846130, 4.000000, 4.000000, 4.000000, 4.000000, 4.000000, 4.000000, 4.000000, 4.000000, 4.000000, 4.000000, 4.000000, 4.000000, 4.000000, 4.000000, 4.000000, 4.000000
13.000000, 0.000000, 4208.205078, 4188.717773, 4203.076660, 4200.512695, 4203.076660, 4198.461426, 4201.538574, 4197.948730, 4214.871582, 4226.666504, 4225.127930, 4144.102539, 4196.922852, 4203.589844, 3546.000000, 8225.000000, 8191.000000, 0.000000, 0.000000, 0.000000, 25029.000000, 581.538452, 4.000000, 4.000000, 4.000000, 4.000000, 4.000000, 4.000000, 4.000000, 4.000000, 4.000000, 4.000000, 4.000000, 4.000000, 4.000000, 4.000000, 4.000000, 4.000000
14.000000, 0.000000, 4209.743652, 4191.281738, 4204.102539, 4201.538574, 4197.436035, 4198.974121, 4208.717773, 4199.487305, 4214.358887, 4230.769043, 4225.127930, 4148.205078, 4195.897461, 4206.153809, 2768.000000, 8225.000000, 8191.000000, 0.000000, 0.000000, 0.000000, 25029.000000, 589.743591, 4.000000, 4.000000, 4.000000, 4.000000, 4.000000, 4.000000, 4.000000, 4.000000, 4.000000, 4.000000, 4.000000, 4.000000, 4.000000, 4.000000, 4.000000, 4.000000
15.000000, 0.000000, 4209.230469, 4198.461426, 4207.692383, 4209.230469, 4203.589844, 4210.256348, 4216.922852, 4206.153809, 4218.461426, 4232.820313, 4231.794922, 4155.384277, 4200.000000, 4215.384277, 3537.000000, 8221.000000, 8178.000000, 0.000000, 0.000000, 0.000000, 25029.000000, 597.435913, 4.000000, 4.000000, 4.000000, 4.000000, 4.000000, 4.000000, 4.000000, 4.000000, 4.000000, 4.000000, 4.000000, 4.000000, 4.000000, 4.000000, 4.000000, 4.000000
16.000000, 0.000000, 4210.769043, 4205.127930, 4216.410156, 4215.384277, 4207.692383, 4219.487305, 4221.538574, 4215.897461, 4222.563965, 4237.948730, 4241.538574, 4160.000000, 4207.692383, 4224.102539, 0.000000, 8221.000000, 8178.000000, 0.000000, 0.000000, 0.000000, 25029.000000, 605.128174, 4.000000, 4.000000, 4.000000, 4.000000, 4.000000, 4.000000, 4.000000, 4.000000, 4.000000, 4.000000, 4.000000, 4.000000, 4.000000, 4.000000, 4.000000, 4.000000
17.000000, 0.000000, 4204.615234, 4199.487305, 4214.871582, 4209.230469, 4202.563965, 4212.307617, 4216.410156, 4206.666504, 4216.922852, 4238.974121, 4234.871582, 4158.974121, 4201.538574, 4220.512695, 0.000000, 8212.000000, 8177.000000, 0.000000, 0.000000, 0.000000, 25029.000000, 612.820496, 4.000000, 4.000000, 4.000000, 4.000000, 4.000000, 4.000000, 4.000000, 4.000000, 4.000000, 4.000000, 4.000000, 4.000000, 4.000000, 4.000000, 4.000000, 4.000000
18.000000, 0.000000, 4200.512695, 4194.871582, 4208.205078, 4205.127930, 4203.076660, 4202.051270, 4206.666504, 4194.871582, 4209.230469, 4230.769043, 4224.102539, 4156.410156, 4194.871582, 4214.871582, 0.000000, 8212.000000, 8177.000000, 0.000000, 0.000000, 0.000000, 25029.000000, 620.512817, 4.000000, 4.000000, 4.000000, 4.000000, 4.000000, 4.000000, 4.000000, 4.000000, 4.000000, 4.000000, 4.000000, 4.000000, 4.000000, 4.000000, 4.000000, 4.000000
19.000000, 0.000000, 4206.153809, 4197.948730, 4210.256348, 4206.666504, 4204.102539, 4203.076660, 4206.666504, 4200.512695, 4213.333008, 4228.717773, 4229.230469, 4155.384277, 4198.461426, 4217.436035, 0.000000, 8191.000000, 8173.000000, 0.000000, 0.000000, 0.000000, 25029.000000, 628.205139, 4.000000, 4.000000, 4.000000, 4.000000, 4.000000, 4.000000, 4.000000, 4.000000, 4.000000, 4.000000, 4.000000, 4.000000, 4.000000, 4.000000, 4.000000, 4.000000
20.000000, 0.000000, 4206.666504, 4198.974121, 4208.717773, 4206.153809, 4201.025391, 4205.641113, 4212.307617, 4207.692383, 4218.974121, 4233.846191, 4235.897461, 4157.436035, 4199.487305, 4219.487305, 0.000000, 8191.000000, 8173.000000, 0.000000, 0.000000, 0.000000, 25029.000000, 636.410217, 4.000000, 4.000000, 4.000000, 4.000000, 4.000000, 4.000000, 4.000000, 4.000000, 4.000000, 4.000000, 4.000000, 4.000000, 4.000000, 4.000000, 4.000000, 4.000000
21.000000, 0.000000, 4206.666504, 4197.436035, 4202.563965, 4202.563965, 4202.563965, 4201.538574, 4211.794922, 4204.102539, 4215.897461, 4231.281738, 4230.769043, 4156.410156, 4196.410156, 4218.974121, 0.000000, 8175.000000, 8173.000000, 0.000000, 0.000000, 0.000000, 25029.000000, 644.102539, 4.000000, 4.000000, 4.000000, 4.000000, 4.000000, 4.000000, 4.000000, 4.000000, 4.000000, 4.000000, 4.000000, 4.000000, 4.000000, 4.000000, 4.000000, 4.000000
22.000000, 0.000000, 4204.102539, 4195.384277, 4202.563965, 4201.025391, 4206.666504, 4200.512695, 4205.127930, 4199.487305, 4214.358887, 4223.589844, 4227.179199, 4149.743652, 4193.846191, 4214.358887, 0.000000, 8175.000000, 8173.000000, 0.000000, 0.000000, 0.000000, 25029.000000, 651.794861, 4.000000, 4.000000, 4.000000, 4.000000, 4.000000, 4.000000, 4.000000, 4.000000, 4.000000, 4.000000, 4.000000, 4.000000, 4.000000, 4.000000, 4.000000, 4.000000
23.000000, 0.000000, 4203.076660, 4190.256348, 4197.436035, 4201.538574, 4204.102539, 4198.974121, 4202.051270, 4196.922852, 4212.307617, 4217.948730, 4222.051270, 4142.051270, 4189.230469, 4205.127930, 0.000000, 8162.000000, 8168.000000, 0.000000, 0.000000, 0.000000, 25029.000000, 659.487183, 4.000000, 4.000000, 4.000000, 4.000000, 4.000000, 4.000000, 4.000000, 4.000000, 4.000000, 4.000000, 4.000000, 4.000000, 4.000000, 4.000000, 4.000000, 4.000000
24.000000, 0.000000, 4205.641113, 4187.179199, 4188.717773, 4197.948730, 4200.000000, 4191.794922, 4202.563965, 4197.948730, 4205.127930, 4215.384277, 4215.384277, 4139.487305, 4186.666504, 4198.461426, 0.000000, 8162.000000, 8168.000000, 0.000000, 0.000000, 0.000000, 25029.000000, 667.179443, 4.000000, 4.000000, 4.000000, 4.000000, 4.000000, 4.000000, 4.000000, 4.000000, 4.000000, 4.000000, 4.000000, 4.000000, 4.000000, 4.000000, 4.000000, 4.000000
25.000000, 0.000000, 4200.000000, 4183.589844, 4189.743652, 4190.256348, 4197.436035, 4187.179199, 4199.487305, 4198.461426, 4205.641113, 4216.410156, 4215.384277, 4141.025391, 4188.205078, 4198.974121, 0.000000, 8157.000000, 8167.000000, 0.000000, 0.000000, 0.000000, 25029.000000, 674.871765, 4.000000, 4.000000, 4.000000, 4.000000, 4.000000, 4.000000, 4.000000, 4.000000, 4.000000, 4.000000, 4.000000, 4.000000, 4.000000, 4.000000, 4.000000, 4.000000
26.000000, 0.000000, 4203.076660, 4181.538574, 4194.871582, 4190.769043, 4199.487305, 4192.307617, 4200.000000, 4198.461426, 4213.333008, 4214.871582, 4217.948730, 4140.000000, 4192.820313, 4201.538574, 0.000000, 8157.000000, 8167.000000, 0.000000, 0.000000, 0.000000, 25029.000000, 683.076904, 4.000000, 4.000000, 4.000000, 4.000000, 4.000000, 4.000000, 4.000000, 4.000000, 4.000000, 4.000000, 4.000000, 4.000000, 4.000000, 4.000000, 4.000000, 4.000000
27.000000, 0.000000, 4207.179199, 4190.769043, 4196.410156, 4199.487305, 4201.538574, 4200.512695, 4208.717773, 4208.717773, 4216.922852, 4217.948730, 4218.974121, 4142.051270, 4197.948730, 4202.563965, 0.000000, 8150.000000, 8173.000000, 0.000000, 0.000000, 0.000000, 25029.000000, 690.769226, 4.000000, 4.000000, 4.000000, 4.000000, 4.000000, 4.000000, 4.000000, 4.000000, 4.000000, 4.000000, 4.000000, 4.000000, 4.000000, 4.000000, 4.000000, 4.000000
28.000000, 0.000000, 4203.076660, 4200.000000, 4198.974121, 4203.589844, 4191.794922, 4200.512695, 4213.846191, 4215.897461, 4217.948730, 4224.615234, 4217.948730, 4144.102539, 4195.897461, 4203.076660, 0.000000, 8150.000000, 8173.000000, 0.000000, 0.000000, 0.000000, 25029.000000, 698.461548, 4.000000, 4.000000, 4.000000, 4.000000, 4.000000, 4.000000, 4.000000, 4.000000, 4.000000, 4.000000, 4.000000, 4.000000, 4.000000, 4.000000, 4.000000, 4.000000
29.000000, 0.000000, 4203.589844, 4192.307617, 4198.974121, 4200.000000, 4189.230469, 4197.948730, 4211.794922, 4208.717773, 4215.897461, 4223.589844, 4216.922852, 4143.076660, 4190.769043, 4202.563965, 0.000000, 8140.000000, 8174.000000, 0.000000, 0.000000, 0.000000, 25029.000000, 706.153809, 4.000000, 4.000000, 4.000000, 4.000000, 4.000000, 4.000000, 4.000000, 4.000000, 4.000000, 4.000000, 4.000000, 4.000000, 4.000000, 4.000000, 4.000000, 4.000000
30.000000, 0.000000, 4204.102539, 4186.153809, 4196.410156, 4200.512695, 4203.076660, 4198.461426, 4209.230469, 4205.641113, 4208.717773, 4220.512695, 4218.974121, 4144.102539, 4189.743652, 4201.538574, 0.000000, 8140.000000, 8174.000000, 0.000000, 0.000000, 0.000000, 25029.000000, 713.846130, 4.000000, 4.000000, 4.000000, 4.000000, 4.000000, 4.000000, 4.000000, 4.000000, 4.000000, 4.000000, 4.000000, 4.000000, 4.000000, 4.000000, 4.000000, 4.000000
31.000000, 0.000000, 4205.641113, 4190.256348, 4194.871582, 4200.000000, 4205.127930, 4198.974121, 4207.692383, 4208.205078, 4202.563965, 4221.538574, 4217.436035, 4143.076660, 4188.717773, 4197.948730, 0.000000, 8139.000000, 8177.000000, 0.000000, 0.000000, 0.000000, 25029.000000, 722.051270, 4.000000, 4.000000, 4.000000, 4.000000, 4.000000, 4.000000, 4.000000, 4.000000, 4.000000, 4.000000, 4.000000, 4.000000, 4.000000, 4.000000, 4.000000, 4.000000
32.000000, 0.000000, 4205.127930, 4180.512695, 4192.820313, 4190.769043, 4192.307617, 4197.436035, 4204.102539, 4195.897461, 4199.487305, 4217.436035, 4210.769043, 4136.922852, 4186.666504, 4193.846191, 0.000000, 8139.000000, 8177.000000, 0.000000, 0.000000, 0.000000, 25029.000000, 729.743591, 4.000000, 4.000000, 4.000000, 4.000000, 4.000000, 4.000000, 4.000000, 4.000000, 4.000000, 4.000000, 4.000000, 4.000000, 4.000000, 4.000000, 4.000000, 4.000000
33.000000, 0.000000, 4203.589844, 4173.333008, 4198.461426, 4192.307617, 4196.410156, 4198.974121, 4204.102539, 4188.205078, 4197.948730, 4212.307617, 4212.307617, 4142.563965, 4189.743652, 4196.922852, 0.000000, 8140.000000, 8177.000000, 0.000000, 0.000000, 0.000000, 25029.000000, 737.435852, 4.000000, 4.000000, 4.000000, 4.000000, 4.000000, 4.000000, 4.000000, 4.000000, 4.000000, 4.000000, 4.000000, 4.000000, 4.000000, 4.000000, 4.000000, 4.000000
34.000000, 0.000000, 4205.641113, 4183.589844, 4204.615234, 4199.487305, 4202.051270, 4201.025391, 4209.230469, 4193.846191, 4199.487305, 4217.436035, 4218.974121, 4152.820313, 4193.846191, 4206.153809, 0.000000, 8140.000000, 8177.000000, 0.000000, 0.000000, 0.000000, 25029.000000, 745.128174, 4.000000, 4.000000, 4.000000, 4.000000, 4.000000, 4.000000, 4.000000, 4.000000, 4.000000, 4.000000, 4.000000, 4.000000, 4.000000, 4.000000, 4.000000, 4.000000
35.000000, 0.000000, 4201.538574, 4180.512695, 4193.846191, 4190.769043, 4188.717773, 4201.025391, 4211.281738, 4192.307617, 4198.461426, 4218.461426, 4213.846191, 4145.127930, 4188.717773, 4201.025391, 0.000000, 8137.000000, 8176.000000, 0.000000, 0.000000, 0.000000, 25029.000000, 752.820496, 4.000000, 4.000000, 4.000000, 4.000000, 4.000000, 4.000000, 4.000000, 4.000000, 4.000000, 4.000000, 4.000000, 4.000000, 4.000000, 4.000000, 4.000000, 4.000000
36.000000, 0.000000, 4201.538574, 4165.127930, 4183.589844, 4181.025391, 4186.666504, 4198.974121, 4207.692383, 4192.307617, 4195.897461, 4210.256348, 4200.000000, 4134.358887, 4182.051270, 4187.179199, 0.000000, 8137.000000, 8176.000000, 0.000000, 0.000000, 0.000000, 25029.000000, 760.512817, 4.000000, 4.000000, 4.000000, 4.000000, 4.000000, 4.000000, 4.000000, 4.000000, 4.000000, 4.000000, 4.000000, 4.000000, 4.000000, 4.000000, 4.000000, 4.000000
37.000000, 0.000000, 4206.153809, 4170.256348, 4188.717773, 4185.641113, 4200.512695, 4198.974121, 4207.692383, 4200.000000, 4199.487305, 4209.230469, 4197.948730, 4136.410156, 4184.615234, 4189.743652, 0.000000, 8147.000000, 8163.000000, 0.000000, 0.000000, 0.000000, 25029.000000, 768.717957, 4.000000, 4.000000, 4.000000, 4.000000, 4.000000, 4.000000, 4.000000, 4.000000, 4.000000, 4.000000, 4.000000, 4.000000, 4.000000, 4.000000, 4.000000, 4.000000
38.000000, 0.000000, 4205.641113, 4186.153809, 4194.358887, 4187.692383, 4204.102539, 4204.615234, 4214.358887, 4203.076660, 4203.589844, 4213.333008, 4210.256348, 4143.589844, 4191.794922, 4201.538574, 0.000000, 8147.000000, 8163.000000, 0.000000, 0.000000, 0.000000, 25029.000000, 776.410217, 4.000000, 4.000000, 4.000000, 4.000000, 4.000000, 4.000000, 4.000000, 4.000000, 4.000000, 4.000000, 4.000000, 4.000000, 4.000000, 4.000000, 4.000000, 4.000000
39.000000, 0.000000, 4206.666504, 4183.589844, 4192.820313, 4185.127930, 4197.948730, 4205.127930, 4212.820313, 4202.563965, 4203.589844, 4217.436035, 4217.436035, 4148.717773, 4194.871582, 4203.076660, 0.000000, 8148.000000, 8160.000000, 0.000000, 0.000000, 0.000000, 25029.000000, 784.102539, 4.000000, 4.000000, 4.000000, 4.000000, 4.000000, 4.000000, 4.000000, 4.000000, 4.000000, 4.000000, 4.000000, 4.000000, 4.000000, 4.000000, 4.000000, 4.000000
40.000000, 0.000000, 4204.102539, 4174.358887, 4190.769043, 4185.641113, 4197.948730, 4201.538574, 4208.205078, 4204.102539, 4205.641113, 4218.461426, 4210.769043, 4148.205078, 4188.717773, 4198.461426, 0.000000, 8148.000000, 8160.000000, 0.000000, 0.000000, 0.000000, 25029.000000, 791.794861, 4.000000, 4.000000, 4.000000, 4.000000, 4.000000, 4.000000, 4.000000, 4.000000, 4.000000, 4.000000, 4.000000, 4.000000, 4.000000, 4.000000, 4.000000, 4.000000
41.000000, 0.000000, 4205.127930, 4176.922852, 4191.794922, 4189.743652, 4202.563965, 4208.717773, 4217.436035, 4203.589844, 4204.102539, 4214.871582, 4207.692383, 4145.641113, 4182.051270, 4196.922852, 0.000000, 8150.000000, 8151.000000, 0.000000, 0.000000, 0.000000, 25029.000000, 799.487183, 4.000000, 4.000000, 4.000000, 4.000000, 4.000000, 4.000000, 4.000000, 4.000000, 4.000000, 4.000000, 4.000000, 4.000000, 4.000000, 4.000000, 4.000000, 4.000000
42.000000, 0.000000, 4212.307617, 4188.717773, 4197.948730, 4198.974121, 4208.717773, 4217.436035, 4218.974121, 4205.127930, 4204.615234, 4214.358887, 4214.358887, 4150.769043, 4192.307617, 4200.512695, 0.000000, 8150.000000, 8151.000000, 0.000000, 0.000000, 0.000000, 25029.000000, 807.179443, 4.000000, 4.000000, 4.000000, 4.000000, 4.000000, 4.000000, 4.000000, 4.000000, 4.000000, 4.000000, 4.000000, 4.000000, 4.000000, 4.000000, 4.000000, 4.000000
43.000000, 0.000000, 4207.692383, 4191.794922, 4199.487305, 4203.589844, 4212.307617, 4215.897461, 4209.230469, 4205.127930, 4213.846191, 4218.461426, 4218.461426, 4153.333008, 4198.974121, 4203.589844, 0.000000, 8143.000000, 8152.000000, 0.000000, 0.000000, 0.000000, 25029.000000, 815.384583, 4.000000, 4.000000, 4.000000, 4.000000, 4.000000, 4.000000, 4.000000, 4.000000, 4.000000, 4.000000, 4.000000, 4.000000, 4.000000, 4.000000, 4.000000, 4.000000
44.000000, 0.000000, 4203.076660, 4186.153809, 4194.358887, 4199.487305, 4214.358887, 4215.897461, 4212.307617, 4201.025391, 4216.410156, 4224.615234, 4217.948730, 4150.256348, 4192.820313, 4202.563965, 0.000000, 8143.000000, 8152.000000, 0.000000, 0.000000, 0.000000, 25029.000000, 823.076904, 4.000000, 4.000000, 4.000000, 4.000000, 4.000000, 4.000000, 4.000000, 4.000000, 4.000000, 4.000000, 4.000000, 4.000000, 4.000000, 4.000000, 4.000000, 4.000000
45.000000, 0.000000, 4204.615234, 4192.307617, 4197.948730, 4201.025391, 4212.307617, 4221.538574, 4214.871582, 4200.512695, 4207.179199, 4231.794922, 4218.461426, 4152.820313, 4190.769043, 4202.563965, 0.000000, 8142.000000, 8150.000000, 0.000000, 0.000000, 0.000000, 25029.000000, 830.769226, 4.000000, 4.000000, 4.000000, 4.000000, 4.000000, 4.000000, 4.000000, 4.000000, 4.000000, 4.000000, 4.000000, 4.000000, 4.000000, 4.000000, 4.000000, 4.000000
46.000000, 0.000000, 4208.205078, 4197.948730, 4204.615234, 4204.102539, 4206.153809, 4218.974121, 4208.205078, 4198.461426, 4197.948730, 4230.769043, 4217.436035, 4154.871582, 4190.769043, 4203.589844, 0.000000, 8142.000000, 8150.000000, 0.000000, 0.000000, 0.000000, 25029.000000, 838.461548, 4.000000, 4.000000, 4.000000, 4.000000, 4.000000, 4.000000, 4.000000, 4.000000, 4.000000, 4.000000, 4.000000, 4.000000, 4.000000, 4.000000, 4.000000, 4.000000
47.000000, 0.000000, 4207.179199, 4196.410156, 4200.512695, 4201.025391, 4209.230469, 4214.871582, 4208.717773, 4196.410156, 4199.487305, 4220.000000, 4213.333008, 4150.769043, 4191.794922, 4202.563965, 0.000000, 8150.000000, 8142.000000, 0.000000, 0.000000, 0.000000, 25029.000000, 846.153809, 4.000000, 4.000000, 4.000000, 4.000000, 4.000000, 4.000000, 4.000000, 4.000000, 4.000000, 4.000000, 4.000000, 4.000000, 4.000000, 4.000000, 4.000000, 4.000000
48.000000, 0.000000, 4202.563965, 4200.512695, 4198.974121, 4201.025391, 4220.512695, 4218.974121, 4217.436035, 4206.666504, 4209.230469, 4221.025391, 4217.436035, 4153.333008, 4194.871582, 4207.692383, 0.000000, 8150.000000, 8142.000000, 0.000000, 0.000000, 0.000000, 25029.000000, 853.846130, 4.000000, 4.000000, 4.000000, 4.000000, 4.000000, 4.000000, 4.000000, 4.000000, 4.000000, 4.000000, 4.000000, 4.000000, 4.000000, 4.000000, 4.000000, 4.000000
49.000000, 0.000000, 4205.127930, 4196.410156, 4203.076660, 4200.512695, 4221.025391, 4223.076660, 4218.974121, 4220.000000, 4219.487305, 4232.307617, 4223.589844, 4156.410156, 4193.333008, 4209.743652, 0.000000, 8168.000000, 8138.000000, 0.000000, 0.000000, 0.000000, 25029.000000, 862.051270, 4.000000, 4.000000, 4.000000, 4.000000, 4.000000, 4.000000, 4.000000, 4.000000, 4.000000, 4.000000, 4.000000, 4.000000, 4.000000, 4.000000, 4.000000, 4.000000
50.000000, 0.000000, 4204.615234, 4185.641113, 4201.025391, 4197.436035, 4212.307617, 4218.974121, 4216.410156, 4220.000000, 4225.127930, 4233.846191, 4222.051270, 4151.794922, 4185.641113, 4203.076660, 0.000000, 8168.000000, 8138.000000, 0.000000, 0.000000, 0.000000, 25029.000000, 869.743591, 4.000000, 4.000000, 4.000000, 4.000000, 4.000000, 4.000000, 4.000000, 4.000000, 4.000000, 4.000000, 4.000000, 4.000000, 4.000000, 4.000000, 4.000000, 4.000000
51.000000, 0.000000, 4205.127930, 4187.692383, 4201.025391, 4199.487305, 4208.205078, 4215.897461, 4217.436035, 4223.589844, 4230.769043, 4231.794922, 4224.102539, 4157.436035, 4185.127930, 4207.179199, 0.000000, 8186.000000, 8135.000000, 0.000000, 0.000000, 0.000000, 25029.000000, 877.435852, 4.000000, 4.000000, 4.000000, 4.000000, 4.000000, 4.000000, 4.000000, 4.000000, 4.000000, 4.000000, 4.000000, 4.000000, 4.000000, 4.000000, 4.000000, 4.000000
52.000000, 0.000000, 4207.179199, 4190.769043, 4210.256348, 4201.538574, 4204.102539, 4218.461426, 4216.922852, 4233.846191, 4233.333008, 4235.384277, 4229.230469, 4171.281738, 4188.717773, 4214.871582, 0.000000, 8186.000000, 8135.000000, 0.000000, 0.000000, 0.000000, 25029.000000, 885.128174, 4.000000, 4.000000, 4.000000, 4.000000, 4.000000, 4.000000, 4.000000, 4.000000, 4.000000, 4.000000, 4.000000, 4.000000, 4.000000, 4.000000, 4.000000, 4.000000
53.000000, 0.000000, 4200.000000, 4184.102539, 4215.384277, 4197.436035, 4202.563965, 4213.846191, 4215.384277, 4229.230469, 4227.179199, 4236.410156, 4221.538574, 4169.743652, 4181.538574, 4206.153809, 0.000000, 8238.000000, 8123.000000, 0.000000, 0.000000, 0.000000, 25029.000000, 892.820496, 4.000000, 4.000000, 4.000000, 4.000000, 4.000000, 4.000000, 4.000000, 4.000000, 4.000000, 4.000000, 4.000000, 4.000000, 4.000000, 4.000000, 4.000000, 4.000000
54.000000, 0.000000, 4203.076660, 4183.076660, 4210.256348, 4200.000000, 4196.410156, 4208.717773, 4215.897461, 4214.871582, 4215.384277, 4224.102539, 4211.281738, 4157.436035, 4174.871582, 4198.974121, 0.000000, 8238.000000, 8123.000000, 0.000000, 0.000000, 0.000000, 25029.000000, 900.512817, 4.000000, 4.000000, 4.000000, 4.000000, 4.000000, 4.000000, 4.000000, 4.000000, 4.000000, 4.000000, 4.000000, 4.000000, 4.000000, 4.000000, 4.000000, 4.000000
55.000000, 0.000000, 4206.153809, 4170.769043, 4208.717773, 4196.922852, 4186.666504, 4211.794922, 4218.974121, 4218.974121, 4211.794922, 4219.487305, 4215.897461, 4162.051270, 4175.897461, 4203.076660, 0.000000, 8267.000000, 8122.000000, 0.000000, 0.000000, 0.000000, 25029.000000, 908.717957, 4.000000, 4.000000, 4.000000, 4.000000, 4.000000, 4.000000, 4.000000, 4.000000, 4.000000, 4.000000, 4.000000, 4.000000, 4.000000, 4.000000, 4.000000, 4.000000
56.000000, 0.000000, 4200.512695, 4153.846191, 4214.358887, 4185.641113, 4190.769043, 4214.871582, 4220.512695, 4233.846191, 4223.076660, 4230.769043, 4218.974121, 4173.333008, 4182.563965, 4199.487305, 0.000000, 8267.000000, 8122.000000, 0.000000, 0.000000, 0.000000, 25029.000000, 916.410217, 4.000000, 4.000000, 4.000000, 4.000000, 4.000000, 4.000000, 4.000000, 4.000000, 4.000000, 4.000000, 4.000000, 4.000000, 4.000000, 4.000000, 4.000000, 4.000000
57.000000, 0.000000, 4207.692383, 4168.717773, 4214.871582, 4191.794922, 4201.538574, 4211.794922, 4219.487305, 4235.897461, 4230.256348, 4238.461426, 4215.384277, 4173.333008, 4187.179199, 4197.436035, 0.000000, 8330.000000, 8150.000000, 0.000000, 0.000000, 0.000000, 25029.000000, 924.102539, 4.000000, 4.000000, 4.000000, 4.000000, 4.000000, 4.000000, 4.000000, 4.000000, 4.000000, 4.000000, 4.000000, 4.000000, 4.000000, 4.000000, 4.000000, 4.000000
58.000000, 0.000000, 4214.871582, 4194.871582, 4212.307617, 4205.641113, 4202.051270, 4208.205078, 4217.436035, 4221.538574, 4222.563965, 4234.871582, 4216.410156, 4170.256348, 4183.076660, 4209.743652, 0.000000, 8330.000000, 8150.000000, 0.000000, 0.000000, 0.000000, 25029.000000, 931.794861, 4.000000, 4.000000, 4.000000, 4.000000, 4.000000, 4.000000, 4.000000, 4.000000, 4.000000, 4.000000, 4.000000, 4.000000, 4.000000, 4.000000, 4.000000, 4.000000
59.000000, 0.000000, 4213.333008, 4204.102539, 4216.410156, 4208.205078, 4196.922852, 4202.563965, 4213.333008, 4204.615234, 4211.794922, 4226.666504, 4213.333008, 4167.692383, 4176.410156, 4215.897461, 0.000000, 8349.000000, 8162.000000, 0.000000, 0.000000, 0.000000, 25029.000000, 939.487183, 4.000000, 4.000000, 4.000000, 4.000000, 4.000000, 4.000000, 4.000000, 4.000000, 4.000000, 4.000000, 4.000000, 4.000000, 4.000000, 4.000000, 4.000000, 4.000000
60.000000, 0.000000, 4211.794922, 4213.846191, 4217.436035, 4209.230469, 4199.487305, 4201.538574, 4209.230469, 4200.512695, 4201.025391, 4214.358887, 4197.948730, 4158.974121, 4166.666504, 4206.666504, 0.000000, 8349.000000, 8162.000000, 0.000000, 0.000000, 0.000000, 25029.000000, 947.179443, 4.000000, 4.000000, 4.000000, 4.000000, 4.000000, 4.000000, 4.000000, 4.000000, 4.000000, 4.000000, 4.000000, 4.000000, 4.000000, 4.000000, 4.000000, 4.000000
61.000000, 0.000000, 4211.794922, 4228.205078, 4208.205078, 4215.384277, 4202.563965, 4208.205078, 4204.102539, 4197.436035, 4187.179199, 4197.436035, 4177.948730, 4144.102539, 4152.820313, 4195.897461, 0.000000, 8381.000000, 8169.000000, 0.000000, 0.000000, 0.000000, 25029.000000, 955.384583, 4.000000, 4.000000, 4.000000, 4.000000, 4.000000, 4.000000, 4.000000, 4.000000, 4.000000, 4.000000, 4.000000, 4.000000, 4.000000, 4.000000, 4.000000, 4.000000
62.000000, 0.000000, 4210.256348, 4231.281738, 4205.127930, 4214.871582, 4200.000000, 4211.794922, 4208.205078, 4190.256348, 4177.436035, 4182.563965, 4164.102539, 4139.487305, 4144.615234, 4192.820313, 0.000000, 8381.000000, 8169.000000, 0.000000, 0.000000, 0.000000, 25029.000000, 963.076904, 4.000000, 4.000000, 4.000000, 4.000000, 4.000000, 4.000000, 4.000000, 4.000000, 4.000000, 4.000000, 4.000000, 4.000000, 4.000000, 4.000000, 4.000000, 4.000000
63.000000, 0.000000, 4206.666504, 4230.256348, 4212.307617, 4213.846191, 4200.000000, 4214.358887, 4212.307617, 4195.897461, 4185.641113, 4188.205078, 4167.692383, 4148.205078, 4152.307617, 4195.384277, 0.000000, 8386.000000, 8176.000000, 0.000000, 0.000000, 0.000000, 25029.000000, 970.769226, 4.000000, 4.000000, 4.000000, 4.000000, 4.000000, 4.000000, 4.000000, 4.000000, 4.000000, 4.000000, 4.000000, 4.000000, 4.000000, 4.000000, 4.000000, 4.000000
64.000000, 0.000000, 4212.307617, 4234.871582, 4219.487305, 4218.461426, 4205.641113, 4214.358887, 4206.153809, 4204.102539, 4200.000000, 4208.717773, 4183.076660, 4159.487305, 4166.666504, 4203.076660, 3598.000000, 8386.000000, 8176.000000, 0.000000, 0.000000, 0.000000, 25029.000000, 978.461487, 4.000000, 4.000000, 4.000000, 4.000000, 4.000000, 4.000000, 4.000000, 4.000000, 4.000000, 4.000000, 4.000000, 4.000000, 4.000000, 4.000000, 4.000000, 4.000000
65.000000, 0.000000, 4212.820313, 4240.000000, 4223.076660, 4220.512695, 4199.487305, 4205.641113, 4206.666504, 4200.000000, 4203.589844, 4210.256348, 4186.153809, 4163.589844, 4170.769043, 4209.743652, 3572.000000, 8385.000000, 8183.000000, 0.000000, 0.000000, 0.000000, 25029.000000, 986.153809, 4.000000, 4.000000, 4.000000, 4.000000, 4.000000, 4.000000, 4.000000, 4.000000, 4.000000, 4.000000, 4.000000, 4.000000, 4.000000, 4.000000, 4.000000, 4.000000
66.000000, 0.000000, 4207.692383, 4245.641113, 4228.205078, 4226.153809, 4193.333008, 4204.102539, 4212.820313, 4204.615234, 4199.487305, 4207.692383, 4182.563965, 4166.666504, 4170.769043, 4212.820313, 1636.000000, 8385.000000, 8183.000000, 0.000000, 0.000000, 0.000000, 25029.000000, 994.358948, 4.000000, 4.000000, 4.000000, 4.000000, 4.000000, 4.000000, 4.000000, 4.000000, 4.000000, 4.000000, 4.000000, 4.000000, 4.000000, 4.000000, 4.000000, 4.000000
67.000000, 0.000000, 4211.794922, 4249.230469, 4233.333008, 4231.794922, 4211.794922, 4213.846191, 4214.358887, 4216.410156, 4203.589844, 4220.000000, 4191.281738, 4172.820313, 4172.820313, 4218.461426, 3575.000000, 8367.000000, 8186.000000, 0.000000, 0.000000, 0.000000, 25030.000000, 2.051282, 4.000000, 4.000000, 4.000000, 4.000000, 4.000000, 4.000000, 4.000000, 4.000000, 4.000000, 4.000000, 4.000000, 4.000000, 4.000000, 4.000000, 4.000000, 4.000000
68.000000, 0.000000, 4208.205078, 4244.615234, 4229.230469, 4226.666504, 4223.589844, 4210.769043, 4209.230469, 4209.230469, 4204.615234, 4221.025391, 4198.974121, 4174.358887, 4169.743652, 4216.410156, 3317.000000, 8367.000000, 8186.000000, 0.000000, 0.000000, 0.000000, 25030.000000, 9.743589, 4.000000, 4.000000, 4.000000, 4.000000, 4.000000, 4.000000, 4.000000, 4.000000, 4.000000, 4.000000, 4.000000, 4.000000, 4.000000, 4.000000, 4.000000, 4.000000
69.000000, 0.000000, 4204.615234, 4232.820313, 4217.436035, 4214.871582, 4205.641113, 4196.922852, 4207.692383, 4197.948730, 4192.307617, 4210.256348, 4197.436035, 4170.769043, 4166.666504, 4205.641113, 3593.000000, 8358.000000, 8183.000000, 0.000000, 0.000000, 0.000000, 25030.000000, 17.435898, 4.000000, 4.000000, 4.000000, 4.000000, 4.000000, 4.000000, 4.000000, 4.000000, 4.000000, 4.000000, 4.000000, 4.000000, 4.000000, 4.000000, 4.000000, 4.000000
70.000000, 0.000000, 4208.205078, 4227.179199, 4211.794922, 4210.769043, 4194.358887, 4197.948730, 4207.179199, 4199.487305, 4186.153809, 4211.794922, 4197.436035, 4167.179199, 4167.692383, 4200.512695, 3062.000000, 8358.000000, 8183.000000, 0.000000, 0.000000, 0.000000, 25030.000000, 25.128204, 4.000000, 4.000000, 4.000000, 4.000000, 4.000000, 4.000000, 4.000000, 4.000000, 4.000000, 4.000000, 4.000000, 4.000000, 4.000000, 4.000000, 4.000000, 4.000000
71.000000, 0.000000, 4209.230469, 4230.256348, 4214.871582, 4213.333008, 4203.589844, 4203.076660, 4204.615234, 4206.666504, 4192.307617, 4215.384277, 4199.487305, 4167.692383, 4164.102539, 4202.563965, 3503.000000, 8326.000000, 8142.000000, 0.000000, 0.000000, 0.000000, 25030.000000, 32.820511, 4.000000, 4.000000, 4.000000, 4.000000, 4.000000, 4.000000, 4.000000, 4.000000, 4.000000, 4.000000, 4.000000, 4.000000, 4.000000, 4.000000, 4.000000, 4.000000
72.000000, 0.000000, 4209.230469, 4230.256348, 4216.922852, 4216.922852, 4205.641113, 4200.512695, 4201.538574, 4215.897461, 4200.000000, 4216.922852, 4201.025391, 4170.769043, 4163.076660, 4204.102539, 3543.000000, 8326.000000, 8142.000000, 0.000000, 0.000000, 0.000000, 25030.000000, 41.025639, 4.000000, 4.000000, 4.000000, 4.000000, 4.000000, 4.000000, 4.000000, 4.000000, 4.000000, 4.000000, 4.000000, 4.000000, 4.000000, 4.000000, 4.000000, 4.000000
73.000000, 0.000000, 4205.127930, 4228.205078, 4211.281738, 4214.358887, 4197.948730, 4196.922852, 4205.127930, 4220.000000, 4200.512695, 4220.000000, 4201.025391, 4171.794922, 4169.230469, 4207.179199, 3546.000000, 8308.000000, 8118.000000, 0.000000, 0.000000, 0.000000, 25030.000000, 48.717949, 4.000000, 4.000000, 4.000000, 4.000000, 4.000000, 4.000000, 4.000000, 4.000000, 4.000000, 4.000000, 4.000000, 4.000000, 4.000000, 4.000000, 4.000000, 4.000000
74.000000, 0.000000, 4205.641113, 4230.769043, 4207.692383, 4204.615234, 4196.922852, 4195.897461, 4215.384277, 4217.436035, 4199.487305, 4216.922852, 4201.538574, 4173.846191, 4169.743652, 4209.230469, 2642.000000, 8308.000000, 8118.000000, 0.000000, 0.000000, 0.000000, 25030.000000, 56.410255, 4.000000, 4.000000, 4.000000, 4.000000, 4.000000, 4.000000, 4.000000, 4.000000, 4.000000, 4.000000, 4.000000, 4.000000, 4.000000, 4.000000, 4.000000, 4.000000
75.000000, 0.000000, 4207.179199, 4231.794922, 4211.794922, 4201.538574, 4200.000000, 4200.512695, 4217.436035, 4216.410156, 4199.487305, 4217.948730, 4204.615234, 4175.897461, 4166.153809, 4210.256348, 3537.000000, 8293.000000, 8095.000000, 0.000000, 0.000000, 0.000000, 25030.000000, 64.102562, 4.000000, 4.000000, 4.000000, 4.000000, 4.000000, 4.000000, 4.000000, 4.000000, 4.000000, 4.000000, 4.000000, 4.000000, 4.000000, 4.000000, 4.000000, 4.000000
76.000000, 0.000000, 4202.563965, 4229.230469, 4213.333008, 4203.076660, 4202.051270, 4202.563965, 4214.358887, 4211.281738, 4192.820313, 4217.948730, 4205.127930, 4172.820313, 4168.205078, 4212.820313, 3536.000000, 8293.000000, 8095.000000, 0.000000, 0.000000, 0.000000, 25030.000000, 71.794868, 4.000000, 4.000000, 4.000000, 4.000000, 4.000000, 4.000000, 4.000000, 4.000000, 4.000000, 4.000000, 4.000000, 4.000000, 4.000000, 4.000000, 4.000000, 4.000000
77.000000, 0.000000, 4206.153809, 4228.205078, 4211.281738, 4204.615234, 4201.538574, 4198.974121, 4210.769043, 4201.538574, 4187.179199, 4206.666504, 4205.641113, 4168.717773, 4170.769043, 4213.333008, 3546.000000, 8255.000000, 8072.000000, 0.000000, 0.000000, 0.000000, 25030.000000, 79.487175, 4.000000, 4.000000, 4.000000, 4.000000, 4.000000, 4.000000, 4.000000, 4.000000, 4.000000, 4.000000, 4.000000, 4.000000, 4.000000, 4.000000, 4.000000, 4.000000
78.000000, 0.000000, 4208.205078, 4230.256348, 4215.897461, 4212.307617, 4196.922852, 4198.461426, 4208.205078, 4201.538574, 4194.358887, 4204.615234, 4212.820313, 4169.743652, 4168.205078, 4213.846191, 2642.000000, 8255.000000, 8072.000000, 0.000000, 0.000000, 0.000000, 25030.000000, 87.692307, 4.000000, 4.000000, 4.000000, 4.000000, 4.000000, 4.000000, 4.000000, 4.000000, 4.000000, 4.000000, 4.000000, 4.000000, 4.000000, 4.000000, 4.000000, 4.000000
79.000000, 0.000000, 4206.153809, 4230.769043, 4220.512695, 4217.436035, 4195.897461, 4201.025391, 4217.948730, 4213.846191, 4209.230469, 4221.025391, 4219.487305, 4173.846191, 4172.307617, 4218.461426, 3537.000000, 8238.000000, 8069.000000, 0.000000, 0.000000, 0.000000, 25030.000000, 95.384613, 4.000000, 4.000000, 4.000000, 4.000000, 4.000000, 4.000000, 4.000000, 4.000000, 4.000000, 4.000000, 4.000000, 4.000000, 4.000000, 4.000000, 4.000000, 4.000000
80.000000, 0.000000, 4208.717773, 4230.769043, 4218.461426, 4214.358887, 4204.102539, 4202.051270, 4222.563965, 4220.000000, 4216.410156, 4233.333008, 4221.538574, 4177.948730, 4180.512695, 4223.076660, 3536.000000, 8238.000000, 8069.000000, 0.000000, 0.000000, 0.000000, 25030.000000, 103.076920, 4.000000, 4.000000, 4.000000, 4.000000, 4.000000, 4.000000, 4.000000, 4.000000, 4.000000, 4.000000, 4.000000, 4.000000, 4.000000, 4.000000, 4.000000, 4.000000
81.000000, 0.000000, 4204.615234, 4228.205078, 4211.794922, 4212.307617, 4202.563965, 4201.538574, 4206.153809, 4209.743652, 4206.153809, 4224.102539, 4218.461426, 4175.897461, 4177.436035, 4221.538574, 3546.000000, 8203.000000, 8086.000000, 0.000000, 0.000000, 0.000000, 25030.000000, 110.769226, 4.000000, 4.000000, 4.000000, 4.000000, 4.000000, 4.000000, 4.000000, 4.000000, 4.000000, 4.000000, 4.000000, 4.000000, 4.000000, 4.000000, 4.000000, 4.000000
82.000000, 0.000000, 4203.076660, 4219.487305, 4208.205078, 4212.820313, 4189.743652, 4197.948730, 4198.974121, 4195.384277, 4190.256348, 4207.179199, 4205.641113, 4169.743652, 4167.179199, 4212.307617, 2642.000000, 8203.000000, 8086.000000, 0.000000, 0.000000, 0.000000, 25030.000000, 118.461533, 4.000000, 4.000000, 4.000000, 4.000000, 4.000000, 4.000000, 4.000000, 4.000000, 4.000000, 4.000000, 4.000000, 4.000000, 4.000000, 4.000000, 4.000000, 4.000000
83.000000, 0.000000, 4205.641113, 4214.871582, 4210.769043, 4213.333008, 4194.358887, 4200.512695, 4208.205078, 4194.358887, 4185.641113, 4200.000000, 4199.487305, 4168.717773, 4166.153809, 4203.076660, 3537.000000, 8185.000000, 8115.000000, 0.000000, 0.000000, 0.000000, 25030.000000, 126.153847, 4.000000, 4.000000, 4.000000, 4.000000, 4.000000, 4.000000, 4.000000, 4.000000, 4.000000, 4.000000, 4.000000, 4.000000, 4.000000, 4.000000, 4.000000, 4.000000
84.000000, 0.000000, 4205.641113, 4216.410156, 4209.743652, 4212.307617, 4206.666504, 4212.307617, 4212.307617, 4197.436035, 4188.205078, 4200.512695, 4197.948730, 4164.102539, 4168.717773, 4200.512695, 3536.000000, 8185.000000, 8115.000000, 0.000000, 0.000000, 0.000000, 25030.000000, 134.358978, 4.000000, 4.000000, 4.000000, 4.000000, 4.000000, 4.000000, 4.000000, 4.000000, 4.000000, 4.000000, 4.000000, 4.000000, 4.000000, 4.000000, 4.000000, 4.000000
85.000000, 0.000000, 4206.666504, 4214.358887, 4202.051270, 4206.666504, 4202.563965, 4215.384277, 4207.692383, 4189.743652, 4187.692383, 4201.538574, 4187.692383, 4157.948730, 4167.179199, 4200.000000, 3546.000000, 8163.000000, 8145.000000, 0.000000, 0.000000, 0.000000, 25030.000000, 142.051285, 4.000000, 4.000000, 4.000000, 4.000000, 4.000000, 4.000000, 4.000000, 4.000000, 4.000000, 4.000000, 4.000000, 4.000000, 4.000000, 4.000000, 4.000000, 4.000000
86.000000, 0.000000, 4206.153809, 4213.846191, 4204.102539, 4210.769043, 4200.000000, 4207.692383, 4205.127930, 4185.641113, 4189.743652, 4205.641113, 4188.717773, 4165.127930, 4169.743652, 4200.000000, 2642.000000, 8163.000000, 8145.000000, 0.000000, 0.000000, 0.000000, 25030.000000, 149.743591, 4.000000, 4.000000, 4.000000, 4.000000, 4.000000, 4.000000, 4.000000, 4.000000, 4.000000, 4.000000, 4.000000, 4.000000, 4.000000, 4.000000, 4.000000, 4.000000
87.000000, 0.000000, 4206.666504, 4213.846191, 4208.717773, 4215.384277, 4204.102539, 4204.615234, 4203.589844, 4187.692383, 4188.717773, 4207.179199, 4198.461426, 4172.820313, 4172.307617, 4203.076660, 3537.000000, 8133.000000, 8148.000000, 0.000000, 0.000000, 0.000000, 25030.000000, 157.435898, 4.000000, 4.000000, 4.000000, 4.000000, 4.000000, 4.000000, 4.000000, 4.000000, 4.000000, 4.000000, 4.000000, 4.000000, 4.000000, 4.000000, 4.000000, 4.000000
88.000000, 0.000000, 4204.615234, 4209.743652, 4201.538574, 4208.205078, 4203.589844, 4203.076660, 4201.538574, 4184.615234, 4184.615234, 4201.538574, 4191.281738, 4166.153809, 4168.205078, 4202.563965, 3536.000000, 8133.000000, 8148.000000, 0.000000, 0.000000, 0.000000, 25030.000000, 165.128204, 4.000000, 4.000000, 4.000000, 4.000000, 4.000000, 4.000000, 4.000000, 4.000000, 4.000000, 4.000000, 4.000000, 4.000000, 4.000000, 4.000000, 4.000000, 4.000000
89.000000, 0.000000, 4205.127930, 4210.769043, 4197.948730, 4206.666504, 4201.538574, 4200.000000, 4200.512695, 4180.512695, 4183.589844, 4196.922852, 4183.589844, 4164.615234, 4168.205078, 4201.538574, 3546.000000, 8122.000000, 8142.000000, 0.000000, 0.000000, 0.000000, 25030.000000, 172.820511, 4.000000, 4.000000, 4.000000, 4.000000, 4.000000, 4.000000, 4.000000, 4.000000, 4.000000, 4.000000, 4.000000, 4.000000, 4.000000, 4.000000, 4.000000, 4.000000
90.000000, 0.000000, 4210.769043, 4214.871582, 4200.512695, 4211.794922, 4199.487305, 4200.512695, 4200.512695, 4183.076660, 4182.563965, 4197.436035, 4186.666504, 4169.743652, 4173.333008, 4202.051270, 2642.000000, 8122.000000, 8142.000000, 0.000000, 0.000000, 0.000000, 25030.000000, 181.025635, 4.000000, 4.000000, 4.000000, 4.000000, 4.000000, 4.000000, 4.000000, 4.000000, 4.000000, 4.000000, 4.000000, 4.000000, 4.000000, 4.000000, 4.000000, 4.000000
91.000000, 0.000000, 4207.692383, 4216.410156, 4200.000000, 4213.333008, 4201.025391, 4201.538574, 4201.538574, 4189.743652, 4186.666504, 4207.179199, 4189.743652, 4167.179199, 4174.358887, 4202.563965, 3537.000000, 8107.000000, 8141.000000, 0.000000, 0.000000, 0.000000, 25030.000000, 188.717941, 4.000000, 4.000000, 4.000000, 4.000000, 4.000000, 4.000000, 4.000000, 4.000000, 4.000000, 4.000000, 4.000000, 4.000000, 4.000000, 4.000000, 4.000000, 4.000000
92.000000, 0.000000, 4207.692383, 4218.974121, 4201.538574, 4213.846191, 4206.153809, 4203.076660, 4203.076660, 4198.974121, 4198.974121, 4216.410156, 4192.820313, 4167.179199, 4172.307617, 4205.127930, 3536.000000, 8107.000000, 8141.000000, 0.000000, 0.000000, 0.000000, 25030.000000, 196.410248, 4.000000, 4.000000, 4.000000, 4.000000, 4.000000, 4.000000, 4.000000, 4.000000, 4.000000, 4.000000, 4.000000, 4.000000, 4.000000, 4.000000, 4.000000, 4.000000
93.000000, 0.000000, 4207.179199, 4218.974121, 4201.025391, 4210.256348, 4204.615234, 4201.025391, 4201.538574, 4202.563965, 4199.487305, 4209.743652, 4191.281738, 4166.153809, 4169.743652, 4204.102539, 3546.000000, 8103.000000, 8138.000000, 0.000000, 0.000000, 0.000000, 25030.000000, 204.102554, 4.000000, 4.000000, 4.000000, 4.000000, 4.000000, 4.000000, 4.000000, 4.000000, 4.000000, 4.000000, 4.000000, 4.000000, 4.000000, 4.000000, 4.000000, 4.000000
94.000000, 0.000000, 4200.000000, 4214.358887, 4194.871582, 4201.025391, 4199.487305, 4191.281738, 4196.922852, 4194.358887, 4188.717773, 4197.948730, 4184.615234, 4160.512695, 4165.641113, 4195.384277, 2642.000000, 8103.000000, 8138.000000, 0.000000, 0.000000, 0.000000, 25030.000000, 211.794861, 4.000000, 4.000000, 4.000000, 4.000000, 4.000000, 4.000000, 4.000000, 4.000000, 4.000000, 4.000000, 4.000000, 4.000000, 4.000000, 4.000000, 4.000000, 4.000000
95.000000, 0.000000, 4202.563965, 4211.794922, 4194.871582, 4197.436035, 4198.974121, 4189.743652, 4194.358887, 4185.127930, 4183.076660, 4194.358887, 4183.076660, 4165.127930, 4163.589844, 4192.307617, 3537.000000, 8121.000000, 8110.000000, 0.000000, 0.000000, 0.000000, 25030.000000, 220.000000, 4.000000, 4.000000, 4.000000, 4.000000, 4.000000, 4.000000, 4.000000, 4.000000, 4.000000, 4.000000, 4.000000, 4.000000, 4.000000, 4.000000, 4.000000, 4.000000
96.000000, 0.000000, 4206.666504, 4213.846191, 4200.000000, 4203.076660, 4199.487305, 4197.436035, 4196.410156, 4183.076660, 4182.563965, 4194.358887, 4185.127930, 4170.769043, 4166.666504, 4197.948730, 3536.000000, 8121.000000, 8110.000000, 0.000000, 0.000000, 0.000000, 25030.000000, 227.692307, 4.000000, 4.000000, 4.000000, 4.000000, 4.000000, 4.000000, 4.000000, 4.000000, 4.000000, 4.000000, 4.000000, 4.000000, 4.000000, 4.000000, 4.000000, 4.000000
97.000000, 0.000000, 4207.692383, 4222.563965, 4203.076660, 4211.281738, 4202.563965, 4201.025391, 4200.512695, 4190.256348, 4188.717773, 4201.025391, 4191.794922, 4170.256348, 4169.743652, 4201.538574, 3546.000000, 8137.000000, 8106.000000, 0.000000, 0.000000, 0.000000, 25030.000000, 235.384613, 4.000000, 4.000000, 4.000000, 4.000000, 4.000000, 4.000000, 4.000000, 4.000000, 4.000000, 4.000000, 4.000000, 4.000000, 4.000000, 4.000000, 4.000000, 4.000000
98.000000, 0.000000, 4207.179199, 4232.820313, 4206.666504, 4217.948730, 4202.051270, 4198.974121, 4201.538574, 4201.025391, 4198.974121, 4214.358887, 4202.563965, 4176.922852, 4171.794922, 4206.153809, 2642.000000, 8137.000000, 8106.000000, 0.000000, 0.000000, 0.000000, 25030.000000, 243.076920, 4.000000, 4.000000, 4.000000, 4.000000, 4.000000, 4.000000, 4.000000, 4.000000, 4.000000, 4.000000, 4.000000, 4.000000, 4.000000, 4.000000, 4.000000, 4.000000
99.000000, 0.000000, 4207.692383, 4234.871582, 4212.820313, 4218.974121, 4198.461426, 4198.974121, 4200.000000, 4202.563965, 4201.025391, 4216.922852, 4205.127930, 4185.641113, 4172.307617, 4214.358887, 3537.000000, 8158.000000, 8104.000000, 0.000000, 0.000000, 0.000000, 25030.000000, 250.769226, 4.000000, 4.000000, 4.000000, 4.000000, 4.000000, 4.000000, 4.000000, 4.000000, 4.000000, 4.000000, 4.000000, 4.000000, 4.000000, 4.000000, 4.000000, 4.000000
100.000000, 0.000000, 4212.307617, 4233.846191, 4217.948730, 4219.487305, 4207.692383, 4201.025391, 4202.563965, 4200.512695, 4197.948730, 4215.384277, 4206.153809, 4185.127930, 4172.307617, 4218.974121, 3536.000000, 8158.000000, 8104.000000, 0.000000, 0.000000, 0.000000, 25030.000000, 258.461517, 4.000000, 4.000000, 4.000000, 4.000000, 4.000000, 4.000000, 4.000000, 4.000000, 4.000000, 4.000000, 4.000000, 4.000000, 4.000000, 4.000000, 4.000000, 4.000000
101.000000, 0.000000, 4207.692383, 4234.358887, 4214.358887, 4220.000000, 4218.974121, 4202.051270, 4203.076660, 4202.563965, 4201.025391, 4217.948730, 4209.743652, 4185.127930, 4172.820313, 4217.948730, 3546.000000, 8206.000000, 8098.000000, 0.000000, 0.000000, 0.000000, 25030.000000, 266.666656, 4.000000, 4.000000, 4.000000, 4.000000, 4.000000, 4.000000, 4.000000, 4.000000, 4.000000, 4.000000, 4.000000, 4.000000, 4.000000, 4.000000, 4.000000, 4.000000
102.000000, 0.000000, 4202.051270, 4233.846191, 4206.153809, 4217.948730, 4212.820313, 4200.000000, 4200.512695, 4203.076660, 4199.487305, 4214.358887, 4202.563965, 4182.563965, 4167.179199, 4211.281738, 2642.000000, 8206.000000, 8098.000000, 0.000000, 0.000000, 0.000000, 25030.000000, 274.358978, 4.000000, 4.000000, 4.000000, 4.000000, 4.000000, 4.000000, 4.000000, 4.000000, 4.000000, 4.000000, 4.000000, 4.000000, 4.000000, 4.000000, 4.000000, 4.000000
103.000000, 0.000000, 4201.538574, 4232.820313, 4202.051270, 4214.871582, 4203.076660, 4199.487305, 4202.563965, 4200.000000, 4188.205078, 4208.205078, 4191.281738, 4171.281738, 4155.897461, 4203.589844, 3537.000000, 8232.000000, 8100.000000, 0.000000, 0.000000, 0.000000, 25030.000000, 282.051270, 4.000000, 4.000000, 4.000000, 4.000000, 4.000000, 4.000000, 4.000000, 4.000000, 4.000000, 4.000000, 4.000000, 4.000000, 4.000000, 4.000000, 4.000000, 4.000000
104.000000, 0.000000, 4200.000000, 4231.794922, 4196.922852, 4213.846191, 4203.076660, 4203.589844, 4207.179199, 4201.025391, 4186.153809, 4208.717773, 4185.641113, 4165.127930, 4152.307617, 4194.871582, 3536.000000, 8232.000000, 8100.000000, 0.000000, 0.000000, 0.000000, 25030.000000, 289.743591, 4.000000, 4.000000, 4.000000, 4.000000, 4.000000, 4.000000, 4.000000, 4.000000, 4.000000, 4.000000, 4.000000, 4.000000, 4.000000, 4.000000, 4.000000, 4.000000
105.000000, 0.000000, 4203.076660, 4223.589844, 4191.794922, 4215.897461, 4205.641113, 4204.615234, 4212.307617, 4202.051270, 4195.384277, 4214.358887, 4184.102539, 4164.102539, 4155.897461, 4188.205078, 3546.000000, 8273.000000, 8112.000000, 0.000000, 0.000000, 0.000000, 25030.000000, 297.435883, 4.000000, 4.000000, 4.000000, 4.000000, 4.000000, 4.000000, 4.000000, 4.000000, 4.000000, 4.000000, 4.000000, 4.000000, 4.000000, 4.000000, 4.000000, 4.000000
106.000000, 0.000000, 4202.563965, 4222.051270, 4190.769043, 4213.846191, 4209.230469, 4204.102539, 4211.281738, 4202.051270, 4197.948730, 4216.922852, 4189.743652, 4166.666504, 4156.410156, 4192.820313, 2642.000000, 8273.000000, 8112.000000, 0.000000, 0.000000, 0.000000, 25030.000000, 305.128204, 4.000000, 4.000000, 4.000000, 4.000000, 4.000000, 4.000000, 4.000000, 4.000000, 4.000000, 4.000000, 4.000000, 4.000000, 4.000000, 4.000000, 4.000000, 4.000000
107.000000, 0.000000, 4204.615234, 4227.179199, 4193.333008, 4208.205078, 4205.641113, 4203.076660, 4208.205078, 4202.051270, 4193.846191, 4214.871582, 4193.846191, 4169.743652, 4156.410156, 4201.538574, 3537.000000, 8280.000000, 8118.000000, 0.000000, 0.000000, 0.000000, 25030.000000, 313.333313, 4.000000, 4.000000, 4.000000, 4.000000, 4.000000, 4.000000, 4.000000, 4.000000, 4.000000, 4.000000, 4.000000, 4.000000, 4.000000, 4.000000, 4.000000, 4.000000
108.000000, 0.000000, 4206.666504, 4222.563965, 4195.384277, 4209.230469, 4196.922852, 4201.538574, 4211.794922, 4203.589844, 4197.436035, 4210.769043, 4188.205078, 4168.205078, 4156.922852, 4199.487305, 3536.000000, 8280.000000, 8118.000000, 0.000000, 0.000000, 0.000000, 25030.000000, 321.025635, 4.000000, 4.000000, 4.000000, 4.000000, 4.000000, 4.000000, 4.000000, 4.000000, 4.000000, 4.000000, 4.000000, 4.000000, 4.000000, 4.000000, 4.000000, 4.000000
109.000000, 0.000000, 4203.076660, 4216.410156, 4202.051270, 4217.436035, 4199.487305, 4201.025391, 4209.230469, 4202.051270, 4200.512695, 4207.692383, 4189.230469, 4172.307617, 4155.384277, 4197.948730, 3546.000000, 8281.000000, 8134.000000, 0.000000, 0.000000, 0.000000, 25030.000000, 328.717926, 4.000000, 4.000000, 4.000000, 4.000000, 4.000000, 4.000000, 4.000000, 4.000000, 4.000000, 4.000000, 4.000000, 4.000000, 4.000000, 4.000000, 4.000000, 4.000000
110.000000, 0.000000, 4206.153809, 4221.025391, 4208.717773, 4214.358887, 4205.641113, 4196.410156, 4197.436035, 4196.410156, 4189.743652, 4202.051270, 4196.922852, 4184.615234, 4155.384277, 4203.589844, 2642.000000, 8281.000000, 8134.000000, 0.000000, 0.000000, 0.000000, 25030.000000, 336.410248, 4.000000, 4.000000, 4.000000, 4.000000, 4.000000, 4.000000, 4.000000, 4.000000, 4.000000, 4.000000, 4.000000, 4.000000, 4.000000, 4.000000, 4.000000, 4.000000
111.000000, 0.000000, 4205.641113, 4221.025391, 4209.230469, 4202.051270, 4202.051270, 4187.179199, 4191.794922, 4195.897461, 4183.589844, 4205.127930, 4197.948730, 4186.666504, 4154.358887, 4204.102539, 3537.000000, 8260.000000, 8168.000000, 0.000000, 0.000000, 0.000000, 25030.000000, 344.102570, 4.000000, 4.000000, 4.000000, 4.000000, 4.000000, 4.000000, 4.000000, 4.000000, 4.000000, 4.000000, 4.000000, 4.000000, 4.000000, 4.000000, 4.000000, 4.000000
112.000000, 0.000000, 4205.127930, 4215.897461, 4212.820313, 4204.102539, 4197.436035, 4185.127930, 4191.794922, 4202.563965, 4193.333008, 4216.410156, 4197.948730, 4184.102539, 4154.871582, 4205.127930, 3536.000000, 8260.000000, 8168.000000, 0.000000, 0.000000, 0.000000, 25030.000000, 351.794861, 4.000000, 4.000000, 4.000000, 4.000000, 4.000000, 4.000000, 4.000000, 4.000000, 4.000000, 4.000000, 4.000000, 4.000000, 4.000000, 4.000000, 4.000000, 4.000000
113.000000, 0.000000, 4209.230469, 4221.025391, 4215.897461, 4213.333008, 4202.563965, 4193.846191, 4191.281738, 4202.563965, 4201.025391, 4218.974121, 4205.641113, 4189.743652, 4162.051270, 4214.358887, 3546.000000, 8238.000000, 8181.000000, 0.000000, 0.000000, 0.000000, 25030.000000, 360.000000, 4.000000, 4.000000, 4.000000, 4.000000, 4.000000, 4.000000, 4.000000, 4.000000, 4.000000, 4.000000, 4.000000, 4.000000, 4.000000, 4.000000, 4.000000, 4.000000
114.000000, 0.000000, 4206.666504, 4228.205078, 4215.384277, 4214.871582, 4215.897461, 4203.076660, 4200.512695, 4203.076660, 4202.563965, 4220.000000, 4213.333008, 4191.281738, 4167.179199, 4218.974121, 2642.000000, 8238.000000, 8181.000000, 0.000000, 0.000000, 0.000000, 25030.000000, 367.692291, 4.000000, 4.000000, 4.000000, 4.000000, 4.000000, 4.000000, 4.000000, 4.000000, 4.000000, 4.000000, 4.000000, 4.000000, 4.000000, 4.000000, 4.000000, 4.000000
115.000000, 0.000000, 4206.666504, 4229.230469, 4213.846191, 4214.358887, 4217.948730, 4203.589844, 4208.717773, 4213.333008, 4209.230469, 4229.230469, 4214.871582, 4188.205078, 4167.179199, 4217.436035, 3537.000000, 8189.000000, 8207.000000, 0.000000, 0.000000, 0.000000, 25030.000000, 375.384613, 4.000000, 4.000000, 4.000000, 4.000000, 4.000000, 4.000000, 4.000000, 4.000000, 4.000000, 4.000000, 4.000000, 4.000000, 4.000000, 4.000000, 4.000000, 4.000000
116.000000, 0.000000, 4206.153809, 4229.743652, 4213.333008, 4215.384277, 4203.076660, 4200.000000, 4200.000000, 4218.461426, 4217.436035, 4233.846191, 4214.871582, 4192.307617, 4166.666504, 4222.563965, 3536.000000, 8189.000000, 8207.000000, 0.000000, 0.000000, 0.000000, 25030.000000, 383.076904, 4.000000, 4.000000, 4.000000, 4.000000, 4.000000, 4.000000, 4.000000, 4.000000, 4.000000, 4.000000, 4.000000, 4.000000, 4.000000, 4.000000, 4.000000, 4.000000
117.000000, 0.000000, 4205.127930, 4230.256348, 4216.922852, 4214.871582, 4202.563965, 4202.051270, 4197.948730, 4215.384277, 4215.897461, 4231.794922, 4222.051270, 4193.333008, 4167.692383, 4231.281738, 3546.000000, 8166.000000, 8227.000000, 0.000000, 0.000000, 0.000000, 25030.000000, 390.769226, 4.000000, 4.000000, 4.000000, 4.000000, 4.000000, 4.000000, 4.000000, 4.000000, 4.000000, 4.000000, 4.000000, 4.000000, 4.000000, 4.000000, 4.000000, 4.000000
118.000000, 0.000000, 4207.692383, 4226.666504, 4214.871582, 4213.333008, 4217.948730, 4206.666504, 4204.615234, 4218.974121, 4216.410156, 4230.256348, 4227.692383, 4188.717773, 4169.230469, 4227.179199, 2642.000000, 8166.000000, 8227.000000, 0.000000, 0.000000, 0.000000, 25030.000000, 398.461517, 4.000000, 4.000000, 4.000000, 4.000000, 4.000000, 4.000000, 4.000000, 4.000000, 4.000000, 4.000000, 4.000000, 4.000000, 4.000000, 4.000000, 4.000000, 4.000000
119.000000, 0.000000, 4201.538574, 4221.025391, 4205.641113, 4209.743652, 4218.461426, 4204.615234, 4201.025391, 4223.076660, 4219.487305, 4225.641113, 4223.589844, 4186.666504, 4165.641113, 4220.000000, 3537.000000, 8120.000000, 8262.000000, 0.000000, 0.000000, 0.000000, 25030.000000, 406.666656, 4.000000, 4.000000, 4.000000, 4.000000, 4.000000, 4.000000, 4.000000, 4.000000, 4.000000, 4.000000, 4.000000, 4.000000, 4.000000, 4.000000, 4.000000, 4.000000
120.000000, 0.000000, 4192.820313, 4215.897461, 4198.974121, 4203.076660, 4212.307617, 4204.102539, 4197.436035, 4218.974121, 4213.333008, 4216.922852, 4216.410156, 4185.641113, 4155.384277, 4212.820313, 3536.000000, 8120.000000, 8262.000000, 0.000000, 0.000000, 0.000000, 25030.000000, 414.358978, 4.000000, 4.000000, 4.000000, 4.000000, 4.000000, 4.000000, 4.000000, 4.000000, 4.000000, 4.000000, 4.000000, 4.000000, 4.000000, 4.000000, 4.000000, 4.000000
121.000000, 0.000000, 4192.307617, 4211.794922, 4197.948730, 4201.025391, 4213.333008, 4212.820313, 4204.102539, 4217.436035, 4210.256348, 4216.922852, 4215.384277, 4184.102539, 4155.384277, 4204.615234, 3546.000000, 8098.000000, 8281.000000, 0.000000, 0.000000, 0.000000, 25030.000000, 422.051270, 4.000000, 4.000000, 4.000000, 4.000000, 4.000000, 4.000000, 4.000000, 4.000000, 4.000000, 4.000000, 4.000000, 4.000000, 4.000000, 4.000000, 4.000000, 4.000000
122.000000, 0.000000, 4202.051270, 4215.897461, 4197.436035, 4205.127930, 4214.358887, 4214.358887, 4202.563965, 4218.461426, 4216.410156, 4223.076660, 4216.410156, 4182.051270, 4167.692383, 4207.179199, 2642.000000, 8098.000000, 8281.000000, 0.000000, 0.000000, 0.000000, 25030.000000, 429.743591, 4.000000, 4.000000, 4.000000, 4.000000, 4.000000, 4.000000, 4.000000, 4.000000, 4.000000, 4.000000, 4.000000, 4.000000, 4.000000, 4.000000, 4.000000, 4.000000
123.000000, 0.000000, 4211.794922, 4227.692383, 4198.974121, 4211.794922, 4217.948730, 4205.641113, 4195.897461, 4215.897461, 4220.512695, 4225.127930, 4217.948730, 4181.025391, 4170.256348, 4216.410156, 3537.000000, 8078.000000, 8299.000000, 0.000000, 0.000000, 0.000000, 25030.000000, 437.435883, 4.000000, 4.000000, 4.000000, 4.000000, 4.000000, 4.000000, 4.000000, 4.000000, 4.000000, 4.000000, 4.000000, 4.000000, 4.000000, 4.000000, 4.000000, 4.000000
124.000000, 0.000000, 4206.153809, 4231.281738, 4201.538574, 4215.384277, 4214.871582, 4202.051270, 4193.846191, 4213.846191, 4213.846191, 4218.461426, 4218.974121, 4181.025391, 4163.076660, 4216.410156, 3536.000000, 8078.000000, 8299.000000, 0.000000, 0.000000, 0.000000, 25030.000000, 445.128204, 4.000000, 4.000000, 4.000000, 4.000000, 4.000000, 4.000000, 4.000000, 4.000000, 4.000000, 4.000000, 4.000000, 4.000000, 4.000000, 4.000000, 4.000000, 4.000000
125.000000, 0.000000, 4204.615234, 4230.256348, 4202.051270, 4214.358887, 4203.076660, 4203.076660, 4190.256348, 4214.358887, 4204.615234, 4213.333008, 4217.948730, 4183.589844, 4166.666504, 4212.307617, 3546.000000, 8037.000000, 8297.000000, 0.000000, 0.000000, 0.000000, 25030.000000, 453.333313, 4.000000, 4.000000, 4.000000, 4.000000, 4.000000, 4.000000, 4.000000, 4.000000, 4.000000, 4.000000, 4.000000, 4.000000, 4.000000, 4.000000, 4.000000, 4.000000
126.000000, 0.000000, 4210.256348, 4232.307617, 4204.615234, 4215.384277, 4209.230469, 4203.589844, 4191.281738, 4209.743652, 4201.538574, 4216.922852, 4217.436035, 4181.538574, 4169.230469, 4212.820313, 2642.000000, 8037.000000, 8297.000000, 0.000000, 0.000000, 0.000000, 25030.000000, 461.025635, 4.000000, 4.000000, 4.000000, 4.000000, 4.000000, 4.000000, 4.000000, 4.000000, 4.000000, 4.000000, 4.000000, 4.000000, 4.000000, 4.000000, 4.000000, 4.000000
127.000000, 0.000000, 4205.641113, 4227.179199, 4203.076660, 4218.461426, 4220.512695, 4205.127930, 4194.871582, 4203.076660, 4200.512695, 4216.410156, 4215.897461, 4171.794922, 4157.436035, 4206.666504, 56.000000, 8016.000000, 8277.000000, 0.000000, 0.000000, 0.000000, 25030.000000, 468.717926, 4.000000, 4.000000, 4.000000, 4.000000, 4.000000, 4.000000, 4.000000, 4.000000, 4.000000, 4.000000, 4.000000, 4.000000, 4.000000, 4.000000, 4.000000, 4.000000
0.000000, 0.000000, 4204.102539, 4221.538574, 4197.436035, 4217.948730, 4216.922852, 4201.538574, 4188.205078, 4204.102539, 4199.487305, 4205.127930, 4210.769043, 4165.127930, 4153.846191, 4196.922852, 3576.000000, 8016.000000, 8277.000000, 0.000000, 0.000000, 0.000000, 25030.000000, 476.410248, 4.000000, 4.000000, 4.000000, 4.000000, 4.000000, 4.000000, 4.000000, 4.000000, 4.000000, 4.000000, 4.000000, 4.000000, 4.000000, 4.000000, 4.000000, 4.000000
1.000000, 0.000000, 4203.589844, 4228.717773, 4198.974121, 4217.436035, 4214.871582, 4202.563965, 4185.641113, 4212.820313, 4200.512695, 4195.897461, 4212.820313, 4166.666504, 4164.102539, 4197.436035, 3572.000000, 7979.000000, 8222.000000, 0.000000, 0.000000, 0.000000, 25030.000000, 484.102539, 4.000000, 4.000000, 4.000000, 4.000000, 4.000000, 4.000000, 4.000000, 4.000000, 4.000000, 4.000000, 4.000000, 4.000000, 4.000000, 4.000000, 4.000000, 4.000000
2.000000, 0.000000, 4203.589844, 4232.820313, 4203.076660, 4216.922852, 4221.025391, 4210.769043, 4200.000000, 4217.436035, 4202.051270, 4198.461426, 4216.922852, 4171.794922, 4164.615234, 4201.025391, 1641.000000, 7979.000000, 8222.000000, 0.000000, 0.000000, 0.000000, 25030.000000, 492.307678, 4.000000, 4.000000, 4.000000, 4.000000, 4.000000, 4.000000, 4.000000, 4.000000, 4.000000, 4.000000, 4.000000, 4.000000, 4.000000, 4.000000, 4.000000, 4.000000
3.000000, 0.000000, 4202.563965, 4229.743652, 4203.076660, 4216.922852, 4222.563965, 4209.230469, 4200.000000, 4215.384277, 4202.563965, 4204.615234, 4213.846191, 4174.358887, 4155.897461, 4198.974121, 3576.000000, 7969.000000, 8193.000000, 0.000000, 0.000000, 0.000000, 25030.000000, 500.000000, 4.000000, 4.000000, 4.000000, 4.000000, 4.000000, 4.000000, 4.000000, 4.000000, 4.000000, 4.000000, 4.000000, 4.000000, 4.000000, 4.000000, 4.000000, 4.000000
4.000000, 0.000000, 4200.512695, 4228.205078, 4202.563965, 4217.948730, 4212.820313, 4201.025391, 4186.153809, 4212.307617, 4203.589844, 4203.076660, 4210.256348, 4172.307617, 4156.410156, 4194.358887, 3317.000000, 7969.000000, 8193.000000, 0.000000, 0.000000, 0.000000, 25030.000000, 507.692291, 4.000000, 4.000000, 4.000000, 4.000000, 4.000000, 4.000000, 4.000000, 4.000000, 4.000000, 4.000000, 4.000000, 4.000000, 4.000000, 4.000000, 4.000000, 4.000000
5.000000, 0.000000, 4202.563965, 4228.205078, 4203.076660, 4218.974121, 4204.102539, 4198.974121, 4189.743652, 4207.179199, 4201.025391, 4198.974121, 4209.743652, 4168.205078, 4158.974121, 4190.256348, 3593.000000, 7958.000000, 8171.000000, 0.000000, 0.000000, 0.000000, 25030.000000, 515.384583, 4.000000, 4.000000, 4.000000, 4.000000, 4.000000, 4.000000, 4.000000, 4.000000, 4.000000, 4.000000, 4.000000, 4.000000, 4.000000, 4.000000, 4.000000, 4.000000
6.000000, 0.000000, 4197.436035, 4228.205078, 4200.512695, 4217.948730, 4206.153809, 4201.538574, 4202.563965, 4203.589844, 4196.922852, 4197.436035, 4203.589844, 4166.666504, 4153.333008, 4184.615234, 3063.000000, 7958.000000, 8171.000000, 0.000000, 0.000000, 0.000000, 25030.000000, 523.076904, 4.000000, 4.000000, 4.000000, 4.000000, 4.000000, 4.000000, 4.000000, 4.000000, 4.000000, 4.000000, 4.000000, 4.000000, 4.000000, 4.000000, 4.000000, 4.000000
7.000000, 0.000000, 4197.948730, 4228.717773, 4198.974121, 4216.410156, 4210.769043, 4200.512695, 4201.538574, 4206.666504, 4196.922852, 4198.974121, 4200.000000, 4171.281738, 4151.794922, 4183.076660, 3513.000000, 7946.000000, 8148.000000, 0.000000, 0.000000, 0.000000, 25030.000000, 530.769226, 4.000000, 4.000000, 4.000000, 4.000000, 4.000000, 4.000000, 4.000000, 4.000000, 4.000000, 4.000000, 4.000000, 4.000000, 4.000000, 4.000000, 4.000000, 4.000000
8.000000, 0.000000, 4201.025391, 4222.563965, 4201.025391, 4215.897461, 4207.692383, 4192.820313, 4184.615234, 4205.641113, 4192.820313, 4197.948730, 4203.589844, 4174.871582, 4157.436035, 4186.153809, 3543.000000, 7946.000000, 8148.000000, 0.000000, 0.000000, 0.000000, 25030.000000, 538.974365, 4.000000, 4.000000, 4.000000, 4.000000, 4.000000, 4.000000, 4.000000, 4.000000, 4.000000, 4.000000, 4.000000, 4.000000, 4.000000, 4.000000, 4.000000, 4.000000
9.000000, 0.000000, 4195.897461, 4216.410156, 4202.051270, 4215.897461, 4202.051270, 4189.230469, 4180.512695, 4200.512695, 4186.153809, 4187.179199, 4202.563965, 4174.871582, 4151.794922, 4185.641113, 3547.000000, 7946.000000, 8148.000000, 0.000000, 0.000000, 0.000000, 25030.000000, 546.666626, 4.000000, 4.000000, 4.000000, 4.000000, 4.000000, 4.000000, 4.000000, 4.000000, 4.000000, 4.000000, 4.000000, 4.000000, 4.000000, 4.000000, 4.000000, 4.000000
10.000000, 0.000000, 4201.025391, 4216.922852, 4203.589844, 4215.384277, 4202.051270, 4196.410156, 4195.897461, 4202.051270, 4185.127930, 4180.512695, 4200.000000, 4178.974121, 4142.051270, 4185.127930, 2629.000000, 7946.000000, 8148.000000, 0.000000, 0.000000, 0.000000, 25030.000000, 554.358948, 4.000000, 4.000000, 4.000000, 4.000000, 4.000000, 4.000000, 4.000000, 4.000000, 4.000000, 4.000000, 4.000000, 4.000000, 4.000000, 4.000000, 4.000000, 4.000000
11.000000, 0.000000, 4206.666504, 4221.025391, 4204.615234, 4216.410156, 4208.205078, 4202.563965, 4201.538574, 4204.615234, 4188.205078, 4193.846191, 4206.153809, 4184.615234, 4148.205078, 4187.692383, 3538.000000, 7953.000000, 8163.000000, 0.000000, 0.000000, 0.000000, 25030.000000, 562.051270, 4.000000, 4.000000, 4.000000, 4.000000, 4.000000, 4.000000, 4.000000, 4.000000, 4.000000, 4.000000, 4.000000, 4.000000, 4.000000, 4.000000, 4.000000, 4.000000
12.000000, 0.000000, 4204.615234, 4218.461426, 4201.538574, 4216.410156, 4214.358887, 4196.410156, 4194.358887, 4201.025391, 4186.153809, 4201.025391, 4206.153809, 4178.974121, 4149.743652, 4184.615234, 3544.000000, 7953.000000, 8163.000000, 0.000000, 0.000000, 0.000000, 25030.000000, 569.743591, 4.000000, 4.000000, 4.000000, 4.000000, 4.000000, 4.000000, 4.000000, 4.000000, 4.000000, 4.000000, 4.000000, 4.000000, 4.000000, 4.000000, 4.000000, 4.000000
13.000000, 0.000000, 4205.641113, 4213.333008, 4199.487305, 4213.846191, 4205.641113, 4188.717773, 4189.230469, 4198.461426, 4183.076660, 4187.179199, 4195.384277, 4169.743652, 4138.461426, 4181.025391, 3546.000000, 7969.000000, 8169.000000, 0.000000, 0.000000, 0.000000, 25030.000000, 577.435913, 4.000000, 4.000000, 4.000000, 4.000000, 4.000000, 4.000000, 4.000000, 4.000000, 4.000000, 4.000000, 4.000000, 4.000000, 4.000000, 4.000000, 4.000000, 4.000000
14.000000, 0.000000, 4205.127930, 4219.487305, 4202.051270, 4215.384277, 4193.846191, 4188.205078, 4188.205078, 4200.000000, 4186.666504, 4182.051270, 4192.820313, 4169.743652, 4138.974121, 4183.589844, 2629.000000, 7969.000000, 8169.000000, 0.000000, 0.000000, 0.000000, 25030.000000, 585.640991, 4.000000, 4.000000, 4.000000, 4.000000, 4.000000, 4.000000, 4.000000, 4.000000, 4.000000, 4.000000, 4.000000, 4.000000, 4.000000, 4.000000, 4.000000, 4.000000
15.000000, 0.000000, 4202.051270, 4216.922852, 4203.589844, 4212.820313, 4203.076660, 4192.820313, 4193.846191, 4200.000000, 4187.179199, 4178.974121, 4188.205078, 4170.769043, 4133.333008, 4176.410156, 3538.000000, 8051.000000, 8191.000000, 0.000000, 0.000000, 0.000000, 25030.000000, 593.333313, 4.000000, 4.000000, 4.000000, 4.000000, 4.000000, 4.000000, 4.000000, 4.000000, 4.000000, 4.000000, 4.000000, 4.000000, 4.000000, 4.000000, 4.000000, 4.000000
16.000000, 0.000000, 4196.410156, 4199.487305, 4200.000000, 4201.025391, 4212.820313, 4196.922852, 4201.025391, 4198.974121, 4185.641113, 4169.230469, 4175.384277, 4168.717773, 4120.512695, 4164.615234, 0.000000, 8051.000000, 8191.000000, 0.000000, 0.000000, 0.000000, 25030.000000, 601.025635, 4.000000, 4.000000, 4.000000, 4.000000, 4.000000, 4.000000, 4.000000, 4.000000, 4.000000, 4.000000, 4.000000, 4.000000, 4.000000, 4.000000, 4.000000, 4.000000
17.000000, 0.000000, 4200.512695, 4204.102539, 4203.076660, 4203.076660, 4211.794922, 4196.922852, 4198.461426, 4197.436035, 4189.743652, 4179.487305, 4184.615234, 4177.436035, 4140.512695, 4175.384277, 0.000000, 8037.000000, 8201.000000, 0.000000, 0.000000, 0.000000, 25030.000000, 608.717957, 4.000000, 4.000000, 4.000000, 4.000000, 4.000000, 4.000000, 4.000000, 4.000000, 4.000000, 4.000000, 4.000000, 4.000000, 4.000000, 4.000000, 4.000000, 4.000000
18.000000, 0.000000, 4209.230469, 4220.000000, 4208.717773, 4216.922852, 4210.769043, 4197.436035, 4193.846191, 4197.436035, 4192.307617, 4201.538574, 4204.615234, 4187.179199, 4165.641113, 4197.436035, 0.000000, 8037.000000, 8201.000000, 0.000000, 0.000000, 0.000000, 25030.000000, 616.410217, 4.000000, 4.000000, 4.000000, 4.000000, 4.000000, 4.000000, 4.000000, 4.000000, 4.000000, 4.000000, 4.000000, 4.000000, 4.000000, 4.000000, 4.000000, 4.000000
19.000000, 0.000000, 4204.615234, 4210.769043, 4204.615234, 4217.436035, 4213.846191, 4200.000000, 4199.487305, 4200.000000, 4190.256348, 4202.051270, 4203.589844, 4185.127930, 4155.897461, 4198.974121, 0.000000, 8061.000000, 8205.000000, 0.000000, 0.000000, 0.000000, 25030.000000, 624.102539, 4.000000, 4.000000, 4.000000, 4.000000, 4.000000, 4.000000, 4.000000, 4.000000, 4.000000, 4.000000, 4.000000, 4.000000, 4.000000, 4.000000, 4.000000, 4.000000
20.000000, 0.000000, 4203.076660, 4196.410156, 4201.538574, 4211.281738, 4216.410156, 4203.589844, 4206.666504, 4202.051270, 4192.820313, 4196.922852, 4205.127930, 4183.589844, 4152.307617, 4190.256348, 0.000000, 8061.000000, 8205.000000, 0.000000, 0.000000, 0.000000, 25030.000000, 632.307678, 4.000000, 4.000000, 4.000000, 4.000000, 4.000000, 4.000000, 4.000000, 4.000000, 4.000000, 4.000000, 4.000000, 4.000000, 4.000000, 4.000000, 4.000000, 4.000000
21.000000, 0.000000, 4204.102539, 4193.846191, 4203.076660, 4213.333008, 4212.307617, 4203.589844, 4206.153809, 4200.512695, 4193.333008, 4200.000000, 4214.358887, 4186.666504, 4160.512695, 4190.256348, 0.000000, 8107.000000, 8214.000000, 0.000000, 0.000000, 0.000000, 25030.000000, 640.000000, 4.000000, 4.000000, 4.000000, 4.000000, 4.000000, 4.000000, 4.000000, 4.000000, 4.000000, 4.000000, 4.000000, 4.000000, 4.000000, 4.000000, 4.000000, 4.000000
22.000000, 0.000000, 4201.025391, 4188.205078, 4203.589844, 4212.820313, 4212.307617, 4201.538574, 4203.076660, 4202.563965, 4189.230469, 4200.000000, 4207.692383, 4186.153809, 4149.743652, 4190.769043, 0.000000, 8107.000000, 8214.000000, 0.000000, 0.000000, 0.000000, 25030.000000, 647.692322, 4.000000, 4.000000, 4.000000, 4.000000, 4.000000, 4.000000, 4.000000, 4.000000, 4.000000, 4.000000, 4.000000, 4.000000, 4.000000, 4.000000, 4.000000, 4.000000
23.000000, 0.000000, 4202.051270, 4184.615234, 4202.563965, 4205.641113, 4215.384277, 4201.538574, 4201.025391, 4201.538574, 4187.179199, 4194.871582, 4199.487305, 4187.179199, 4144.102539, 4188.717773, 0.000000, 8134.000000, 8213.000000, 0.000000, 0.000000, 0.000000, 25030.000000, 655.384583, 4.000000, 4.000000, 4.000000, 4.000000, 4.000000, 4.000000, 4.000000, 4.000000, 4.000000, 4.000000, 4.000000, 4.000000, 4.000000, 4.000000, 4.000000, 4.000000
24.000000, 0.000000, 4199.487305, 4186.153809, 4200.000000, 4201.538574, 4206.153809, 4202.563965, 4201.538574, 4191.281738, 4183.589844, 4187.692383, 4202.051270, 4187.179199, 4147.179199, 4186.666504, 0.000000, 8134.000000, 8213.000000, 0.000000, 0.000000, 0.000000, 25030.000000, 663.076904, 4.000000, 4.000000, 4.000000, 4.000000, 4.000000, 4.000000, 4.000000, 4.000000, 4.000000, 4.000000, 4.000000, 4.000000, 4.000000, 4.000000, 4.000000, 4.000000
25.000000, 0.000000, 4201.025391, 4185.641113, 4200.000000, 4206.153809, 4201.025391, 4202.051270, 4202.563965, 4189.230469, 4180.512695, 4187.179199, 4203.076660, 4183.076660, 4145.127930, 4186.153809, 0.000000, 8182.000000, 8207.000000, 0.000000, 0.000000, 0.000000, 25030.000000, 670.769226, 4.000000, 4.000000, 4.000000, 4.000000, 4.000000, 4.000000, 4.000000, 4.000000, 4.000000, 4.000000, 4.000000, 4.000000, 4.000000, 4.000000, 4.000000, 4.000000
26.000000, 0.000000, 4200.512695, 4187.179199, 4203.076660, 4211.794922, 4212.307617, 4199.487305, 4200.000000, 4198.974121, 4184.615234, 4193.333008, 4203.589844, 4185.641113, 4148.205078, 4190.256348, 0.000000, 8182.000000, 8207.000000, 0.000000, 0.000000, 0.000000, 25030.000000, 678.974365, 4.000000, 4.000000, 4.000000, 4.000000, 4.000000, 4.000000, 4.000000, 4.000000, 4.000000, 4.000000, 4.000000, 4.000000, 4.000000, 4.000000, 4.000000, 4.000000
27.000000, 0.000000, 4195.897461, 4187.692383, 4203.076660, 4204.102539, 4210.769043, 4191.794922, 4193.846191, 4202.051270, 4192.307617, 4194.358887, 4203.589844, 4189.743652, 4150.256348, 4188.205078, 0.000000, 8195.000000, 8196.000000, 0.000000, 0.000000, 0.000000, 25030.000000, 686.666626, 4.000000, 4.000000, 4.000000, 4.000000, 4.000000, 4.000000, 4.000000, 4.000000, 4.000000, 4.000000, 4.000000, 4.000000, 4.000000, 4.000000, 4.000000, 4.000000
28.000000, 0.000000, 4200.512695, 4183.589844, 4198.461426, 4196.922852, 4196.922852, 4183.589844, 4192.307617, 4198.461426, 4197.436035, 4194.358887, 4201.025391, 4184.615234, 4146.153809, 4183.076660, 0.000000, 8195.000000, 8196.000000, 0.000000, 0.000000, 0.000000, 25030.000000, 694.358948, 4.000000, 4.000000, 4.000000, 4.000000, 4.000000, 4.000000, 4.000000, 4.000000, 4.000000, 4.000000, 4.000000, 4.000000, 4.000000, 4.000000, 4.000000, 4.000000
29.000000, 0.000000, 4203.589844, 4185.127930, 4200.000000, 4203.076660, 4196.922852, 4188.717773, 4197.948730, 4199.487305, 4194.358887, 4201.538574, 4206.666504, 4186.666504, 4149.743652, 4190.769043, 0.000000, 8212.000000, 8179.000000, 0.000000, 0.000000, 0.000000, 25030.000000, 702.051270, 4.000000, 4.000000, 4.000000, 4.000000, 4.000000, 4.000000, 4.000000, 4.000000, 4.000000, 4.000000, 4.000000, 4.000000, 4.000000, 4.000000, 4.000000, 4.000000
30.000000, 0.000000, 4202.563965, 4191.281738, 4204.102539, 4207.692383, 4200.512695, 4197.948730, 4203.589844, 4200.512695, 4186.153809, 4206.153809, 4212.820313, 4191.794922, 4155.384277, 4201.538574, 0.000000, 8212.000000, 8179.000000, 0.000000, 0.000000, 0.000000, 25030.000000, 709.743591, 4.000000, 4.000000, 4.000000, 4.000000, 4.000000, 4.000000, 4.000000, 4.000000, 4.000000, 4.000000, 4.000000, 4.000000, 4.000000, 4.000000, 4.000000, 4.000000
31.000000, 0.000000, 4201.538574, 4193.846191, 4206.153809, 4205.641113, 4199.487305, 4198.974121, 4201.538574, 4201.538574, 4192.820313, 4202.051270, 4210.256348, 4189.743652, 4152.820313, 4201.025391, 0.000000, 8228.000000, 8146.000000, 0.000000, 0.000000, 0.000000, 25030.000000, 717.948730, 4.000000, 4.000000, 4.000000, 4.000000, 4.000000, 4.000000, 4.000000, 4.000000, 4.000000, 4.000000, 4.000000, 4.000000, 4.000000, 4.000000, 4.000000, 4.000000
32.000000, 0.000000, 4200.512695, 4192.820313, 4206.153809, 4206.153809, 4203.076660, 4200.512695, 4200.000000, 4204.102539, 4203.076660, 4200.512695, 4212.820313, 4190.769043, 4153.846191, 4199.487305, 0.000000, 8228.000000, 8146.000000, 0.000000, 0.000000, 0.000000, 25030.000000, 725.640991, 4.000000, 4.000000, 4.000000, 4.000000, 4.000000, 4.000000, 4.000000, 4.000000, 4.000000, 4.000000, 4.000000, 4.000000, 4.000000, 4.000000, 4.000000, 4.000000
33.000000, 0.000000, 4200.000000, 4189.743652, 4201.025391, 4205.127930, 4200.512695, 4201.025391, 4202.563965, 4202.051270, 4192.307617, 4203.076660, 4214.871582, 4187.692383, 4154.358887, 4196.922852, 0.000000, 8233.000000, 8126.000000, 0.000000, 0.000000, 0.000000, 25030.000000, 733.333313, 4.000000, 4.000000, 4.000000, 4.000000, 4.000000, 4.000000, 4.000000, 4.000000, 4.000000, 4.000000, 4.000000, 4.000000, 4.000000, 4.000000, 4.000000, 4.000000
34.000000, 0.000000, 4194.871582, 4185.641113, 4196.410156, 4200.000000, 4199.487305, 4203.076660, 4200.000000, 4200.000000, 4180.512695, 4200.512695, 4207.179199, 4177.948730, 4148.717773, 4193.846191, 0.000000, 8233.000000, 8126.000000, 0.000000, 0.000000, 0.000000, 25030.000000, 741.025635, 4.000000, 4.000000, 4.000000, 4.000000, 4.000000, 4.000000, 4.000000, 4.000000, 4.000000, 4.000000, 4.000000, 4.000000, 4.000000, 4.000000, 4.000000, 4.000000
35.000000, 0.000000, 4195.897461, 4184.615234, 4199.487305, 4198.974121, 4205.641113, 4209.230469, 4202.563965, 4201.025391, 4190.256348, 4200.000000, 4205.641113, 4180.000000, 4150.256348, 4196.410156, 0.000000, 8227.000000, 8100.000000, 0.000000, 0.000000, 0.000000, 25030.000000, 748.717957, 4.000000, 4.000000, 4.000000, 4.000000, 4.000000, 4.000000, 4.000000, 4.000000, 4.000000, 4.000000, 4.000000, 4.000000, 4.000000, 4.000000, 4.000000, 4.000000
36.000000, 0.000000, 4200.000000, 4185.641113, 4202.563965, 4200.000000, 4205.127930, 4208.717773, 4209.743652, 4202.051270, 4200.000000, 4197.948730, 4212.820313, 4189.230469, 4154.358887, 4199.487305, 0.000000, 8227.000000, 8100.000000, 0.000000, 0.000000, 0.000000, 25030.000000, 756.410217, 4.000000, 4.000000, 4.000000, 4.000000, 4.000000, 4.000000, 4.000000, 4.000000, 4.000000, 4.000000, 4.000000, 4.000000, 4.000000, 4.000000, 4.000000, 4.000000
37.000000, 0.000000, 4196.922852, 4186.666504, 4202.563965, 4201.538574, 4197.948730, 4201.538574, 4209.230469, 4204.615234, 4196.922852, 4189.230469, 4213.846191, 4188.717773, 4148.205078, 4195.897461, 0.000000, 8226.000000, 8091.000000, 0.000000, 0.000000, 0.000000, 25030.000000, 764.615356, 4.000000, 4.000000, 4.000000, 4.000000, 4.000000, 4.000000, 4.000000, 4.000000, 4.000000, 4.000000, 4.000000, 4.000000, 4.000000, 4.000000, 4.000000, 4.000000
38.000000, 0.000000, 4196.922852, 4182.563965, 4200.512695, 4196.410156, 4190.769043, 4196.410156, 4204.102539, 4201.025391, 4192.307617, 4182.051270, 4205.127930, 4184.615234, 4140.512695, 4188.205078, 0.000000, 8226.000000, 8091.000000, 0.000000, 0.000000, 0.000000, 25030.000000, 772.307678, 4.000000, 4.000000, 4.000000, 4.000000, 4.000000, 4.000000, 4.000000, 4.000000, 4.000000, 4.000000, 4.000000, 4.000000, 4.000000, 4.000000, 4.000000, 4.000000
39.000000, 0.000000, 4196.410156, 4177.948730, 4194.358887, 4190.256348, 4187.179199, 4196.410156, 4203.076660, 4191.281738, 4187.179199, 4185.127930, 4200.000000, 4182.563965, 4141.025391, 4183.076660, 0.000000, 8220.000000, 8085.000000, 0.000000, 0.000000, 0.000000, 25030.000000, 780.000000, 4.000000, 4.000000, 4.000000, 4.000000, 4.000000, 4.000000, 4.000000, 4.000000, 4.000000, 4.000000, 4.000000, 4.000000, 4.000000, 4.000000, 4.000000, 4.000000
40.000000, 0.000000, 4195.897461, 4181.538574, 4191.281738, 4194.358887, 4191.794922, 4197.948730, 4202.563965, 4188.717773, 4183.076660, 4185.127930, 4199.487305, 4183.589844, 4141.538574, 4183.076660, 0.000000, 8220.000000, 8085.000000, 0.000000, 0.000000, 0.000000, 25030.000000, 787.692261, 4.000000, 4.000000, 4.000000, 4.000000, 4.000000, 4.000000, 4.000000, 4.000000, 4.000000, 4.000000, 4.000000, 4.000000, 4.000000, 4.000000, 4.000000, 4.000000
41.000000, 0.000000, 4196.410156, 4183.076660, 4194.871582, 4197.948730, 4190.769043, 4200.000000, 4200.512695, 4194.358887, 4189.743652, 4181.025391, 4200.000000, 4191.794922, 4140.512695, 4185.641113, 0.000000, 8211.000000, 8077.000000, 0.000000, 0.000000, 0.000000, 25030.000000, 795.384583, 4.000000, 4.000000, 4.000000, 4.000000, 4.000000, 4.000000, 4.000000, 4.000000, 4.000000, 4.000000, 4.000000, 4.000000, 4.000000, 4.000000, 4.000000, 4.000000
42.000000, 0.000000, 4196.410156, 4175.897461, 4199.487305, 4195.897461, 4184.615234, 4200.512695, 4206.153809, 4203.589844, 4203.589844, 4191.281738, 4205.127930, 4199.487305, 4148.717773, 4191.281738, 0.000000, 8211.000000, 8077.000000, 0.000000, 0.000000, 0.000000, 25030.000000, 803.076904, 4.000000, 4.000000, 4.000000, 4.000000, 4.000000, 4.000000, 4.000000, 4.000000, 4.000000, 4.000000, 4.000000, 4.000000, 4.000000, 4.000000, 4.000000, 4.000000
43.000000, 0.000000, 4201.538574, 4173.333008, 4207.179199, 4197.436035, 4191.794922, 4203.589844, 4217.436035, 4216.922852, 4214.358887, 4208.717773, 4213.333008, 4202.563965, 4156.410156, 4200.000000, 0.000000, 8205.000000, 8089.000000, 0.000000, 0.000000, 0.000000, 25030.000000, 811.282043, 4.000000, 4.000000, 4.000000, 4.000000, 4.000000, 4.000000, 4.000000, 4.000000, 4.000000, 4.000000, 4.000000, 4.000000, 4.000000, 4.000000, 4.000000, 4.000000
44.000000, 0.000000, 4200.000000, 4173.333008, 4210.769043, 4197.436035, 4194.871582, 4205.127930, 4215.384277, 4223.589844, 4221.538574, 4207.692383, 4215.384277, 4202.051270, 4151.794922, 4199.487305, 0.000000, 8205.000000, 8089.000000, 0.000000, 0.000000, 0.000000, 25030.000000, 818.974365, 4.000000, 4.000000, 4.000000, 4.000000, 4.000000, 4.000000, 4.000000, 4.000000, 4.000000, 4.000000, 4.000000, 4.000000, 4.000000, 4.000000, 4.000000, 4.000000
45.000000, 0.000000, 4200.512695, 4169.743652, 4208.205078, 4189.743652, 4184.615234, 4193.846191, 4202.563965, 4216.922852, 4216.922852, 4200.512695, 4213.846191, 4203.076660, 4151.794922, 4196.922852, 0.000000, 8200.000000, 8107.000000, 0.000000, 0.000000, 0.000000, 25030.000000, 826.666626, 4.000000, 4.000000, 4.000000, 4.000000, 4.000000, 4.000000, 4.000000, 4.000000, 4.000000, 4.000000, 4.000000, 4.000000, 4.000000, 4.000000, 4.000000, 4.000000
46.000000, 0.000000, 4205.641113, 4177.436035, 4206.666504, 4188.717773, 4182.563965, 4185.641113, 4197.436035, 4211.794922, 4203.076660, 4209.230469, 4219.487305, 4207.692383, 4157.948730, 4204.615234, 0.000000, 8200.000000, 8107.000000, 0.000000, 0.000000, 0.000000, 25030.000000, 834.358948, 4.000000, 4.000000, 4.000000, 4.000000, 4.000000, 4.000000, 4.000000, 4.000000, 4.000000, 4.000000, 4.000000, 4.000000, 4.000000, 4.000000, 4.000000, 4.000000
47.000000, 0.000000, 4200.512695, 4186.153809, 4207.692383, 4193.846191, 4187.692383, 4190.256348, 4203.589844, 4215.897461, 4205.127930, 4217.436035, 4223.076660, 4209.230469, 4155.897461, 4207.692383, 0.000000, 8199.000000, 8123.000000, 0.000000, 0.000000, 0.000000, 25030.000000, 842.051270, 4.000000, 4.000000, 4.000000, 4.000000, 4.000000, 4.000000, 4.000000, 4.000000, 4.000000, 4.000000, 4.000000, 4.000000, 4.000000, 4.000000, 4.000000, 4.000000
48.000000, 0.000000, 4200.512695, 4179.487305, 4204.102539, 4195.897461, 4184.102539, 4189.743652, 4204.615234, 4212.820313, 4216.410156, 4212.307617, 4217.948730, 4203.076660, 4151.794922, 4201.538574, 0.000000, 8199.000000, 8123.000000, 0.000000, 0.000000, 0.000000, 25030.000000, 849.743591, 4.000000, 4.000000, 4.000000, 4.000000, 4.000000, 4.000000, 4.000000, 4.000000, 4.000000, 4.000000, 4.000000, 4.000000, 4.000000, 4.000000, 4.000000, 4.000000
49.000000, 0.000000, 4202.051270, 4176.922852, 4201.538574, 4198.461426, 4182.051270, 4187.179199, 4200.512695, 4209.743652, 4213.333008, 4209.230469, 4216.922852, 4197.948730, 4153.846191, 4201.025391, 0.000000, 8199.000000, 8144.000000, 1.000000, 2.000000, 0.000000, 25030.000000, 857.948669, 4.000000, 4.000000, 4.000000, 4.000000, 4.000000, 4.000000, 4.000000, 4.000000, 4.000000, 4.000000, 4.000000, 4.000000, 4.000000, 4.000000, 4.000000, 4.000000
50.000000, 0.000000, 4196.922852, 4178.974121, 4201.538574, 4195.384277, 4186.666504, 4194.871582, 4202.051270, 4211.281738, 4203.076660, 4207.179199, 4217.948730, 4198.461426, 4152.820313, 4202.563965, 0.000000, 8199.000000, 8144.000000, 0.000000, 0.000000, 0.000000, 25030.000000, 865.640991, 4.000000, 4.000000, 4.000000, 4.000000, 4.000000, 4.000000, 4.000000, 4.000000, 4.000000, 4.000000, 4.000000, 4.000000, 4.000000, 4.000000, 4.000000, 4.000000
51.000000, 0.000000, 4196.922852, 4174.871582, 4198.974121, 4192.307617, 4177.436035, 4196.410156, 4201.538574, 4205.641113, 4201.538574, 4197.948730, 4210.769043, 4200.000000, 4146.666504, 4198.974121, 0.000000, 8200.000000, 8151.000000, 0.000000, 0.000000, 0.000000, 25030.000000, 873.333313, 4.000000, 4.000000, 4.000000, 4.000000, 4.000000, 4.000000, 4.000000, 4.000000, 4.000000, 4.000000, 4.000000, 4.000000, 4.000000, 4.000000, 4.000000, 4.000000
52.000000, 0.000000, 4200.512695, 4177.948730, 4201.025391, 4196.922852, 4174.358887, 4190.256348, 4193.846191, 4201.538574, 4208.205078, 4195.897461, 4207.179199, 4201.025391, 4149.743652, 4196.410156, 0.000000, 8200.000000, 8151.000000, 0.000000, 0.000000, 0.000000, 25030.000000, 881.025635, 4.000000, 4.000000, 4.000000, 4.000000, 4.000000, 4.000000, 4.000000, 4.000000, 4.000000, 4.000000, 4.000000, 4.000000, 4.000000, 4.000000, 4.000000, 4.000000
53.000000, 0.000000, 4206.666504, 4188.717773, 4206.666504, 4202.563965, 4193.846191, 4199.487305, 4200.000000, 4212.307617, 4215.897461, 4210.256348, 4215.897461, 4202.051270, 4158.461426, 4205.127930, 0.000000, 8201.000000, 8157.000000, 0.000000, 0.000000, 0.000000, 25030.000000, 888.717957, 4.000000, 4.000000, 4.000000, 4.000000, 4.000000, 4.000000, 4.000000, 4.000000, 4.000000, 4.000000, 4.000000, 4.000000, 4.000000, 4.000000, 4.000000, 4.000000
54.000000, 0.000000, 4202.563965, 4190.769043, 4204.615234, 4204.102539, 4207.692383, 4205.127930, 4209.743652, 4220.000000, 4219.487305, 4216.922852, 4219.487305, 4199.487305, 4157.436035, 4213.846191, 0.000000, 8201.000000, 8157.000000, 0.000000, 0.000000, 0.000000, 25030.000000, 896.410217, 4.000000, 4.000000, 4.000000, 4.000000, 4.000000, 4.000000, 4.000000, 4.000000, 4.000000, 4.000000, 4.000000, 4.000000, 4.000000, 4.000000, 4.000000, 4.000000
55.000000, 0.000000, 4196.410156, 4185.127930, 4196.922852, 4201.025391, 4201.538574, 4188.717773, 4202.563965, 4211.281738, 4212.307617, 4206.666504, 4212.820313, 4196.410156, 4150.769043, 4205.127930, 0.000000, 8197.000000, 8167.000000, 0.000000, 0.000000, 0.000000, 25030.000000, 904.615356, 4.000000, 4.000000, 4.000000, 4.000000, 4.000000, 4.000000, 4.000000, 4.000000, 4.000000, 4.000000, 4.000000, 4.000000, 4.000000, 4.000000, 4.000000, 4.000000
56.000000, 0.000000, 4204.615234, 4184.615234, 4198.974121, 4197.948730, 4193.333008, 4185.127930, 4199.487305, 4208.205078, 4202.563965, 4203.076660, 4214.358887, 4198.461426, 4155.897461, 4197.948730, 0.000000, 8197.000000, 8167.000000, 0.000000, 0.000000, 0.000000, 25030.000000, 912.307678, 4.000000, 4.000000, 4.000000, 4.000000, 4.000000, 4.000000, 4.000000, 4.000000, 4.000000, 4.000000, 4.000000, 4.000000, 4.000000, 4.000000, 4.000000, 4.000000
57.000000, 0.000000, 4204.615234, 4184.615234, 4204.102539, 4198.461426, 4193.846191, 4191.794922, 4211.794922, 4215.897461, 4202.563965, 4213.333008, 4220.000000, 4204.102539, 4162.563965, 4209.743652, 0.000000, 8188.000000, 8167.000000, 0.000000, 0.000000, 0.000000, 25030.000000, 920.000000, 4.000000, 4.000000, 4.000000, 4.000000, 4.000000, 4.000000, 4.000000, 4.000000, 4.000000, 4.000000, 4.000000, 4.000000, 4.000000, 4.000000, 4.000000, 4.000000
58.000000, 0.000000, 4200.000000, 4186.666504, 4201.025391, 4197.436035, 4183.076660, 4184.615234, 4218.974121, 4219.487305, 4213.846191, 4215.384277, 4216.410156, 4202.563965, 4157.948730, 4217.948730, 0.000000, 8188.000000, 8167.000000, 0.000000, 0.000000, 0.000000, 25030.000000, 927.692261, 4.000000, 4.000000, 4.000000, 4.000000, 4.000000, 4.000000, 4.000000, 4.000000, 4.000000, 4.000000, 4.000000, 4.000000, 4.000000, 4.000000, 4.000000, 4.000000
59.000000, 0.000000, 4203.589844, 4193.846191, 4204.102539, 4197.948730, 4170.769043, 4186.153809, 4213.333008, 4221.025391, 4221.025391, 4212.307617, 4218.461426, 4202.563965, 4160.000000, 4214.871582, 0.000000, 8188.000000, 8166.000000, 0.000000, 0.000000, 0.000000, 25030.000000, 935.384583, 4.000000, 4.000000, 4.000000, 4.000000, 4.000000, 4.000000, 4.000000, 4.000000, 4.000000, 4.000000, 4.000000, 4.000000, 4.000000, 4.000000, 4.000000, 4.000000
60.000000, 0.000000, 4201.538574, 4200.000000, 4213.333008, 4205.641113, 4185.127930, 4200.000000, 4215.897461, 4220.000000, 4216.410156, 4214.358887, 4221.538574, 4206.666504, 4165.641113, 4215.384277, 0.000000, 8188.000000, 8166.000000, 0.000000, 0.000000, 0.000000, 25030.000000, 943.589722, 4.000000, 4.000000, 4.000000, 4.000000, 4.000000, 4.000000, 4.000000, 4.000000, 4.000000, 4.000000, 4.000000, 4.000000, 4.000000, 4.000000, 4.000000, 4.000000
61.000000, 0.000000, 4199.487305, 4208.205078, 4216.410156, 4213.846191, 4207.179199, 4203.589844, 4229.743652, 4217.948730, 4214.358887, 4214.358887, 4219.487305, 4205.127930, 4162.051270, 4218.974121, 0.000000, 8191.000000, 8177.000000, 0.000000, 0.000000, 0.000000, 25030.000000, 951.282043, 4.000000, 4.000000, 4.000000, 4.000000, 4.000000, 4.000000, 4.000000, 4.000000, 4.000000, 4.000000, 4.000000, 4.000000, 4.000000, 4.000000, 4.000000, 4.000000
62.000000, 0.000000, 4200.000000, 4220.000000, 4215.897461, 4218.461426, 4206.153809, 4207.692383, 4230.256348, 4218.974121, 4218.974121, 4218.461426, 4222.563965, 4207.179199, 4163.589844, 4221.025391, 0.000000, 8191.000000, 8177.000000, 0.000000, 0.000000, 0.000000, 25030.000000, 958.974365, 4.000000, 4.000000, 4.000000, 4.000000, 4.000000, 4.000000, 4.000000, 4.000000, 4.000000, 4.000000, 4.000000, 4.000000, 4.000000, 4.000000, 4.000000, 4.000000
63.000000, 0.000000, 4201.538574, 4212.820313, 4211.281738, 4212.307617, 4196.410156, 4214.358887, 4220.000000, 4220.512695, 4219.487305, 4217.436035, 4222.051270, 4211.794922, 4166.666504, 4217.948730, 0.000000, 8188.000000, 8187.000000, 0.000000, 0.000000, 0.000000, 25030.000000, 966.666626, 4.000000, 4.000000, 4.000000, 4.000000, 4.000000, 4.000000, 4.000000, 4.000000, 4.000000, 4.000000, 4.000000, 4.000000, 4.000000, 4.000000, 4.000000, 4.000000
64.000000, 0.000000, 4197.436035, 4198.461426, 4205.641113, 4203.076660, 4206.666504, 4210.256348, 4216.922852, 4219.487305, 4214.871582, 4208.205078, 4213.333008, 4207.692383, 4159.487305, 4213.846191, 3567.000000, 8188.000000, 8187.000000, 0.000000, 0.000000, 0.000000, 25030.000000, 974.358948, 4.000000, 4.000000, 4.000000, 4.000000, 4.000000, 4.000000, 4.000000, 4.000000, 4.000000, 4.000000, 4.000000, 4.000000, 4.000000, 4.000000, 4.000000, 4.000000
65.000000, 0.000000, 4195.384277, 4211.281738, 4208.717773, 4209.230469, 4208.717773, 4206.153809, 4215.384277, 4217.436035, 4215.384277, 4206.666504, 4212.820313, 4199.487305, 4156.410156, 4215.897461, 3571.000000, 8190.000000, 8198.000000, 0.000000, 0.000000, 0.000000, 25030.000000, 982.051270, 4.000000, 4.000000, 4.000000, 4.000000, 4.000000, 4.000000, 4.000000, 4.000000, 4.000000, 4.000000, 4.000000, 4.000000, 4.000000, 4.000000, 4.000000, 4.000000
66.000000, 0.000000, 4197.436035, 4209.743652, 4206.666504, 4209.743652, 4192.307617, 4207.692383, 4211.281738, 4215.384277, 4216.922852, 4207.692383, 4216.410156, 4202.051270, 4157.436035, 4211.281738, 1638.000000, 8190.000000, 8198.000000, 0.000000, 0.000000, 0.000000, 25030.000000, 990.256409, 4.000000, 4.000000, 4.000000, 4.000000, 4.000000, 4.000000, 4.000000, 4.000000, 4.000000, 4.000000, 4.000000, 4.000000, 4.000000, 4.000000, 4.000000, 4.000000
67.000000, 0.000000, 4194.358887, 4183.076660, 4198.974121, 4197.948730, 4192.820313, 4201.538574, 4212.820313, 4217.948730, 4220.000000, 4209.743652, 4212.820313, 4210.769043, 4155.384277, 4202.563965, 3577.000000, 8198.000000, 8195.000000, 0.000000, 0.000000, 0.000000, 25030.000000, 997.948669, 4.000000, 4.000000, 4.000000, 4.000000, 4.000000, 4.000000, 4.000000, 4.000000, 4.000000, 4.000000, 4.000000, 4.000000, 4.000000, 4.000000, 4.000000, 4.000000
68.000000, 0.000000, 4202.563965, 4199.487305, 4207.179199, 4205.641113, 4209.743652, 4198.461426, 4210.769043, 4223.076660, 4224.615234, 4212.820313, 4213.333008, 4214.871582, 4160.000000, 4211.281738, 3317.000000, 8198.000000, 8195.000000, 0.000000, 0.000000, 0.000000, 25031.000000, 5.641026, 4.000000, 4.000000, 4.000000, 4.000000, 4.000000, 4.000000, 4.000000, 4.000000, 4.000000, 4.000000, 4.000000, 4.000000, 4.000000, 4.000000, 4.000000, 4.000000
69.000000, 0.000000, 4209.743652, 4237.436035, 4214.871582, 4219.487305, 4211.794922, 4204.615234, 4203.589844, 4217.436035, 4224.102539, 4209.743652, 4215.384277, 4214.358887, 4162.051270, 4222.563965, 3593.000000, 8216.000000, 8169.000000, 0.000000, 0.000000, 0.000000, 25031.000000, 13.333333, 4.000000, 4.000000, 4.000000, 4.000000, 4.000000, 4.000000, 4.000000, 4.000000, 4.000000, 4.000000, 4.000000, 4.000000, 4.000000, 4.000000, 4.000000, 4.000000
70.000000, 0.000000, 4203.076660, 4234.871582, 4204.615234, 4211.281738, 4197.948730, 4198.974121, 4203.589844, 4203.076660, 4214.871582, 4201.538574, 4205.641113, 4211.794922, 4154.871582, 4216.922852, 3063.000000, 8216.000000, 8169.000000, 0.000000, 0.000000, 0.000000, 25031.000000, 21.025640, 4.000000, 4.000000, 4.000000, 4.000000, 4.000000, 4.000000, 4.000000, 4.000000, 4.000000, 4.000000, 4.000000, 4.000000, 4.000000, 4.000000, 4.000000, 4.000000
71.000000, 0.000000, 4205.127930, 4228.205078, 4200.000000, 4206.666504, 4195.897461, 4187.692383, 4205.127930, 4197.436035, 4204.102539, 4194.358887, 4199.487305, 4212.307617, 4154.358887, 4215.384277, 3510.000000, 8232.000000, 8159.000000, 0.000000, 0.000000, 0.000000, 25031.000000, 28.717949, 4.000000, 4.000000, 4.000000, 4.000000, 4.000000, 4.000000, 4.000000, 4.000000, 4.000000, 4.000000, 4.000000, 4.000000, 4.000000, 4.000000, 4.000000, 4.000000
72.000000, 0.000000, 4205.641113, 4253.846191, 4210.769043, 4221.538574, 4204.102539, 4192.820313, 4200.000000, 4203.589844, 4200.512695, 4193.846191, 4202.563965, 4216.922852, 4158.974121, 4227.692383, 3543.000000, 8232.000000, 8159.000000, 0.000000, 0.000000, 0.000000, 25031.000000, 36.923077, 4.000000, 4.000000, 4.000000, 4.000000, 4.000000, 4.000000, 4.000000, 4.000000, 4.000000, 4.000000, 4.000000, 4.000000, 4.000000, 4.000000, 4.000000, 4.000000
73.000000, 0.000000, 4203.076660, 4271.794922, 4218.461426, 4234.358887, 4205.127930, 4203.076660, 4200.512695, 4205.641113, 4203.589844, 4195.897461, 4203.589844, 4220.512695, 4157.948730, 4234.871582, 3550.000000, 8268.000000, 8144.000000, 0.000000, 0.000000, 0.000000, 25031.000000, 44.615383, 4.000000, 4.000000, 4.000000, 4.000000, 4.000000, 4.000000, 4.000000, 4.000000, 4.000000, 4.000000, 4.000000, 4.000000, 4.000000, 4.000000, 4.000000, 4.000000
74.000000, 0.000000, 4203.076660, 4264.102539, 4214.358887, 4232.820313, 4200.512695, 4203.076660, 4205.641113, 4201.025391, 4203.589844, 4190.769043, 4197.948730, 4215.384277, 4154.358887, 4230.769043, 2618.000000, 8268.000000, 8144.000000, 0.000000, 0.000000, 0.000000, 25031.000000, 52.307690, 4.000000, 4.000000, 4.000000, 4.000000, 4.000000, 4.000000, 4.000000, 4.000000, 4.000000, 4.000000, 4.000000, 4.000000, 4.000000, 4.000000, 4.000000, 4.000000
75.000000, 0.000000, 4197.436035, 4255.897461, 4206.153809, 4222.563965, 4201.025391, 4204.102539, 4207.179199, 4201.025391, 4201.025391, 4181.538574, 4196.410156, 4204.615234, 4154.358887, 4224.102539, 3536.000000, 8286.000000, 8139.000000, 0.000000, 0.000000, 0.000000, 25031.000000, 60.000000, 4.000000, 4.000000, 4.000000, 4.000000, 4.000000, 4.000000, 4.000000, 4.000000, 4.000000, 4.000000, 4.000000, 4.000000, 4.000000, 4.000000, 4.000000, 4.000000
76.000000, 0.000000, 4194.871582, 4252.820313, 4201.538574, 4215.897461, 4196.410156, 4207.179199, 4206.153809, 4197.436035, 4195.384277, 4184.615234, 4193.846191, 4196.922852, 4154.871582, 4218.974121, 3542.000000, 8286.000000, 8139.000000, 0.000000, 0.000000, 0.000000, 25031.000000, 67.692307, 4.000000, 4.000000, 4.000000, 4.000000, 4.000000, 4.000000, 4.000000, 4.000000, 4.000000, 4.000000, 4.000000, 4.000000, 4.000000, 4.000000, 4.000000, 4.000000
77.000000, 0.000000, 4196.410156, 4249.230469, 4199.487305, 4218.461426, 4185.641113, 4202.563965, 4200.000000, 4191.281738, 4190.769043, 4185.127930, 4186.666504, 4191.281738, 4155.384277, 4214.358887, 3544.000000, 8297.000000, 8137.000000, 0.000000, 0.000000, 0.000000, 25031.000000, 75.384613, 4.000000, 4.000000, 4.000000, 4.000000, 4.000000, 4.000000, 4.000000, 4.000000, 4.000000, 4.000000, 4.000000, 4.000000, 4.000000, 4.000000, 4.000000, 4.000000
78.000000, 0.000000, 4197.436035, 4246.666504, 4201.025391, 4218.461426, 4187.692383, 4203.076660, 4203.589844, 4195.384277, 4194.358887, 4182.563965, 4184.615234, 4191.794922, 4153.846191, 4213.846191, 2618.000000, 8297.000000, 8137.000000, 0.000000, 0.000000, 0.000000, 25031.000000, 83.589745, 4.000000, 4.000000, 4.000000, 4.000000, 4.000000, 4.000000, 4.000000, 4.000000, 4.000000, 4.000000, 4.000000, 4.000000, 4.000000, 4.000000, 4.000000, 4.000000
79.000000, 0.000000, 4197.948730, 4248.717773, 4207.692383, 4218.461426, 4191.794922, 4206.153809, 4214.358887, 4203.076660, 4202.051270, 4190.769043, 4186.153809, 4188.717773, 4156.410156, 4214.871582, 3536.000000, 8331.000000, 8124.000000, 0.000000, 0.000000, 0.000000, 25031.000000, 91.282051, 4.000000, 4.000000, 4.000000, 4.000000, 4.000000, 4.000000, 4.000000, 4.000000, 4.000000, 4.000000, 4.000000, 4.000000, 4.000000, 4.000000, 4.000000, 4.000000
80.000000, 0.000000, 4194.871582, 4249.230469, 4209.230469, 4223.589844, 4186.153809, 4201.025391, 4212.307617, 4202.051270, 4200.512695, 4194.871582, 4185.641113, 4183.589844, 4162.563965, 4213.846191, 3542.000000, 8331.000000, 8124.000000, 0.000000, 0.000000, 0.000000, 25031.000000, 98.974358, 4.000000, 4.000000, 4.000000, 4.000000, 4.000000, 4.000000, 4.000000, 4.000000, 4.000000, 4.000000, 4.000000, 4.000000, 4.000000, 4.000000, 4.000000, 4.000000
81.000000, 0.000000, 4197.436035, 4250.256348, 4204.102539, 4224.615234, 4188.205078, 4200.512695, 4210.769043, 4200.000000, 4196.922852, 4188.205078, 4185.641113, 4191.281738, 4162.563965, 4214.358887, 3544.000000, 8351.000000, 8118.000000, 0.000000, 0.000000, 0.000000, 25031.000000, 106.666664, 4.000000, 4.000000, 4.000000, 4.000000, 4.000000, 4.000000, 4.000000, 4.000000, 4.000000, 4.000000, 4.000000, 4.000000, 4.000000, 4.000000, 4.000000, 4.000000
82.000000, 0.000000, 4195.897461, 4246.666504, 4199.487305, 4217.436035, 4186.666504, 4200.000000, 4210.769043, 4203.076660, 4199.487305, 4185.641113, 4186.666504, 4201.025391, 4161.025391, 4214.871582, 2618.000000, 8351.000000, 8118.000000, 0.000000, 0.000000, 0.000000, 25031.000000, 114.358971, 4.000000, 4.000000, 4.000000, 4.000000, 4.000000, 4.000000, 4.000000, 4.000000, 4.000000, 4.000000, 4.000000, 4.000000, 4.000000, 4.000000, 4.000000, 4.000000
83.000000, 0.000000, 4195.897461, 4235.897461, 4199.487305, 4211.794922, 4174.871582, 4188.717773, 4203.589844, 4203.589844, 4200.000000, 4191.794922, 4186.153809, 4198.461426, 4164.615234, 4214.358887, 3536.000000, 8362.000000, 8103.000000, 0.000000, 0.000000, 0.000000, 25031.000000, 122.051277, 4.000000, 4.000000, 4.000000, 4.000000, 4.000000, 4.000000, 4.000000, 4.000000, 4.000000, 4.000000, 4.000000, 4.000000, 4.000000, 4.000000, 4.000000, 4.000000
84.000000, 0.000000, 4203.589844, 4239.487305, 4200.512695, 4218.461426, 4179.487305, 4186.666504, 4203.589844, 4202.563965, 4198.461426, 4198.974121, 4189.743652, 4198.461426, 4170.256348, 4215.897461, 3542.000000, 8362.000000, 8103.000000, 0.000000, 0.000000, 0.000000, 25031.000000, 130.256409, 4.000000, 4.000000, 4.000000, 4.000000, 4.000000, 4.000000, 4.000000, 4.000000, 4.000000, 4.000000, 4.000000, 4.000000, 4.000000, 4.000000, 4.000000, 4.000000
85.000000, 0.000000, 4201.025391, 4246.666504, 4201.538574, 4225.641113, 4186.666504, 4197.948730, 4210.769043, 4209.230469, 4207.692383, 4205.641113, 4196.410156, 4203.076660, 4170.256348, 4219.487305, 3544.000000, 8367.000000, 8100.000000, 0.000000, 0.000000, 0.000000, 25031.000000, 137.948715, 4.000000, 4.000000, 4.000000, 4.000000, 4.000000, 4.000000, 4.000000, 4.000000, 4.000000, 4.000000, 4.000000, 4.000000, 4.000000, 4.000000, 4.000000, 4.000000
86.000000, 0.000000, 4199.487305, 4237.436035, 4198.461426, 4220.512695, 4182.051270, 4201.538574, 4206.666504, 4218.461426, 4216.922852, 4204.102539, 4194.871582, 4201.025391, 4168.205078, 4213.846191, 2618.000000, 8367.000000, 8100.000000, 0.000000, 0.000000, 0.000000, 25031.000000, 145.641022, 4.000000, 4.000000, 4.000000, 4.000000, 4.000000, 4.000000, 4.000000, 4.000000, 4.000000, 4.000000, 4.000000, 4.000000, 4.000000, 4.000000, 4.000000, 4.000000
87.000000, 0.000000, 4197.436035, 4228.205078, 4193.846191, 4212.307617, 4189.230469, 4197.948730, 4200.512695, 4218.974121, 4207.692383, 4189.230469, 4188.205078, 4197.948730, 4167.179199, 4207.692383, 3536.000000, 8369.000000, 8098.000000, 0.000000, 0.000000, 0.000000, 25031.000000, 153.333328, 4.000000, 4.000000, 4.000000, 4.000000, 4.000000, 4.000000, 4.000000, 4.000000, 4.000000, 4.000000, 4.000000, 4.000000, 4.000000, 4.000000, 4.000000, 4.000000
88.000000, 0.000000, 4196.410156, 4232.307617, 4194.358887, 4213.846191, 4203.076660, 4203.076660, 4207.692383, 4213.333008, 4201.025391, 4182.563965, 4186.153809, 4195.897461, 4168.205078, 4211.794922, 3542.000000, 8369.000000, 8098.000000, 0.000000, 0.000000, 0.000000, 25031.000000, 161.025635, 4.000000, 4.000000, 4.000000, 4.000000, 4.000000, 4.000000, 4.000000, 4.000000, 4.000000, 4.000000, 4.000000, 4.000000, 4.000000, 4.000000, 4.000000, 4.000000
89.000000, 0.000000, 4200.000000, 4235.897461, 4193.846191, 4218.461426, 4201.538574, 4208.205078, 4215.897461, 4216.410156, 4209.743652, 4191.794922, 4188.205078, 4190.256348, 4171.794922, 4212.307617, 3544.000000, 8370.000000, 8088.000000, 0.000000, 0.000000, 0.000000, 25031.000000, 168.717941, 4.000000, 4.000000, 4.000000, 4.000000, 4.000000, 4.000000, 4.000000, 4.000000, 4.000000, 4.000000, 4.000000, 4.000000, 4.000000, 4.000000, 4.000000, 4.000000
90.000000, 0.000000, 4195.897461, 4234.358887, 4191.281738, 4216.410156, 4188.717773, 4207.179199, 4214.871582, 4218.461426, 4212.307617, 4198.974121, 4185.127930, 4187.179199, 4169.743652, 4203.076660, 2618.000000, 8370.000000, 8088.000000, 0.000000, 0.000000, 0.000000, 25031.000000, 176.923065, 4.000000, 4.000000, 4.000000, 4.000000, 4.000000, 4.000000, 4.000000, 4.000000, 4.000000, 4.000000, 4.000000, 4.000000, 4.000000, 4.000000, 4.000000, 4.000000
91.000000, 0.000000, 4195.384277, 4227.692383, 4192.820313, 4214.358887, 4184.615234, 4202.563965, 4211.281738, 4207.179199, 4198.974121, 4191.281738, 4176.410156, 4186.666504, 4165.641113, 4198.461426, 3536.000000, 8374.000000, 8085.000000, 0.000000, 0.000000, 0.000000, 25031.000000, 184.615387, 4.000000, 4.000000, 4.000000, 4.000000, 4.000000, 4.000000, 4.000000, 4.000000, 4.000000, 4.000000, 4.000000, 4.000000, 4.000000, 4.000000, 4.000000, 4.000000
92.000000, 0.000000, 4200.000000, 4223.589844, 4197.436035, 4217.436035, 4191.281738, 4201.538574, 4208.717773, 4197.436035, 4190.256348, 4185.127930, 4176.410156, 4187.179199, 4167.179199, 4202.051270, 3542.000000, 8374.000000, 8085.000000, 0.000000, 0.000000, 0.000000, 25031.000000, 192.307693, 4.000000, 4.000000, 4.000000, 4.000000, 4.000000, 4.000000, 4.000000, 4.000000, 4.000000, 4.000000, 4.000000, 4.000000, 4.000000, 4.000000, 4.000000, 4.000000
93.000000, 0.000000, 4198.974121, 4225.127930, 4197.948730, 4219.487305, 4191.281738, 4205.127930, 4207.179199, 4194.358887, 4193.333008, 4190.769043, 4184.102539, 4188.717773, 4170.769043, 4201.538574, 3544.000000, 8375.000000, 8080.000000, 0.000000, 0.000000, 0.000000, 25031.000000, 200.512817, 4.000000, 4.000000, 4.000000, 4.000000, 4.000000, 4.000000, 4.000000, 4.000000, 4.000000, 4.000000, 4.000000, 4.000000, 4.000000, 4.000000, 4.000000, 4.000000
94.000000, 0.000000, 4198.461426, 4220.512695, 4199.487305, 4218.461426, 4188.205078, 4206.666504, 4209.743652, 4187.692383, 4197.436035, 4197.948730, 4188.205078, 4195.384277, 4173.846191, 4205.127930, 2618.000000, 8375.000000, 8080.000000, 0.000000, 0.000000, 0.000000, 25031.000000, 208.205124, 4.000000, 4.000000, 4.000000, 4.000000, 4.000000, 4.000000, 4.000000, 4.000000, 4.000000, 4.000000, 4.000000, 4.000000, 4.000000, 4.000000, 4.000000, 4.000000
95.000000, 0.000000, 4196.922852, 4215.384277, 4203.076660, 4218.461426, 4197.948730, 4206.153809, 4215.384277, 4189.743652, 4199.487305, 4202.051270, 4188.717773, 4199.487305, 4175.384277, 4213.333008, 3536.000000, 8372.000000, 8076.000000, 0.000000, 0.000000, 0.000000, 25031.000000, 215.897430, 4.000000, 4.000000, 4.000000, 4.000000, 4.000000, 4.000000, 4.000000, 4.000000, 4.000000, 4.000000, 4.000000, 4.000000, 4.000000, 4.000000, 4.000000, 4.000000
96.000000, 0.000000, 4200.512695, 4220.000000, 4203.076660, 4220.512695, 4205.641113, 4203.076660, 4209.743652, 4196.922852, 4198.974121, 4203.589844, 4189.230469, 4193.846191, 4180.000000, 4211.794922, 3542.000000, 8372.000000, 8076.000000, 0.000000, 0.000000, 0.000000, 25031.000000, 223.589737, 4.000000, 4.000000, 4.000000, 4.000000, 4.000000, 4.000000, 4.000000, 4.000000, 4.000000, 4.000000, 4.000000, 4.000000, 4.000000, 4.000000, 4.000000, 4.000000
97.000000, 0.000000, 4203.589844, 4222.563965, 4197.436035, 4221.025391, 4196.922852, 4200.512695, 4193.846191, 4190.769043, 4198.974121, 4205.641113, 4188.717773, 4186.666504, 4184.102539, 4205.127930, 3544.000000, 8365.000000, 8069.000000, 0.000000, 0.000000, 0.000000, 25031.000000, 231.282043, 4.000000, 4.000000, 4.000000, 4.000000, 4.000000, 4.000000, 4.000000, 4.000000, 4.000000, 4.000000, 4.000000, 4.000000, 4.000000, 4.000000, 4.000000, 4.000000
98.000000, 0.000000, 4200.000000, 4216.922852, 4191.794922, 4217.948730, 4189.743652, 4198.461426, 4187.692383, 4187.692383, 4199.487305, 4204.102539, 4187.179199, 4189.230469, 4181.025391, 4201.025391, 2618.000000, 8365.000000, 8069.000000, 0.000000, 0.000000, 0.000000, 25031.000000, 238.974350, 4.000000, 4.000000, 4.000000, 4.000000, 4.000000, 4.000000, 4.000000, 4.000000, 4.000000, 4.000000, 4.000000, 4.000000, 4.000000, 4.000000, 4.000000, 4.000000
99.000000, 0.000000, 4203.589844, 4214.871582, 4193.846191, 4214.871582, 4191.794922, 4196.922852, 4194.871582, 4199.487305, 4201.025391, 4205.641113, 4188.205078, 4197.948730, 4178.974121, 4206.153809, 3536.000000, 8357.000000, 8060.000000, 0.000000, 0.000000, 0.000000, 25031.000000, 247.179474, 4.000000, 4.000000, 4.000000, 4.000000, 4.000000, 4.000000, 4.000000, 4.000000, 4.000000, 4.000000, 4.000000, 4.000000, 4.000000, 4.000000, 4.000000, 4.000000
100.000000, 0.000000, 4205.127930, 4215.897461, 4200.000000, 4218.461426, 4188.717773, 4198.461426, 4203.589844, 4202.563965, 4203.076660, 4214.871582, 4194.358887, 4204.102539, 4183.589844, 4215.384277, 3542.000000, 8357.000000, 8060.000000, 0.000000, 0.000000, 0.000000, 25031.000000, 254.871796, 4.000000, 4.000000, 4.000000, 4.000000, 4.000000, 4.000000, 4.000000, 4.000000, 4.000000, 4.000000, 4.000000, 4.000000, 4.000000, 4.000000, 4.000000, 4.000000
101.000000, 0.000000, 4204.615234, 4214.358887, 4200.000000, 4221.025391, 4180.512695, 4200.000000, 4208.205078, 4203.076660, 4206.666504, 4215.897461, 4198.974121, 4201.025391, 4184.615234, 4215.897461, 3544.000000, 8351.000000, 8056.000000, 0.000000, 0.000000, 0.000000, 25031.000000, 262.564087, 4.000000, 4.000000, 4.000000, 4.000000, 4.000000, 4.000000, 4.000000, 4.000000, 4.000000, 4.000000, 4.000000, 4.000000, 4.000000, 4.000000, 4.000000, 4.000000
102.000000, 0.000000, 4206.666504, 4213.846191, 4200.000000, 4218.974121, 4185.641113, 4204.615234, 4210.256348, 4212.820313, 4214.358887, 4212.307617, 4200.000000, 4189.230469, 4182.563965, 4208.205078, 2618.000000, 8351.000000, 8056.000000, 0.000000, 0.000000, 0.000000, 25031.000000, 270.256409, 4.000000, 4.000000, 4.000000, 4.000000, 4.000000, 4.000000, 4.000000, 4.000000, 4.000000, 4.000000, 4.000000, 4.000000, 4.000000, 4.000000, 4.000000, 4.000000
103.000000, 0.000000, 4204.615234, 4215.897461, 4198.461426, 4216.922852, 4201.538574, 4212.820313, 4213.333008, 4218.461426, 4223.589844, 4214.358887, 4200.512695, 4181.538574, 4184.615234, 4203.589844, 3536.000000, 8339.000000, 8044.000000, 0.000000, 0.000000, 0.000000, 25031.000000, 278.461517, 4.000000, 4.000000, 4.000000, 4.000000, 4.000000, 4.000000, 4.000000, 4.000000, 4.000000, 4.000000, 4.000000, 4.000000, 4.000000, 4.000000, 4.000000, 4.000000
104.000000, 0.000000, 4208.205078, 4216.922852, 4190.256348, 4217.948730, 4204.615234, 4216.410156, 4215.384277, 4219.487305, 4226.666504, 4218.974121, 4203.076660, 4183.589844, 4188.205078, 4206.153809, 3542.000000, 8339.000000, 8044.000000, 0.000000, 0.000000, 0.000000, 25031.000000, 286.153839, 4.000000, 4.000000, 4.000000, 4.000000, 4.000000, 4.000000, 4.000000, 4.000000, 4.000000, 4.000000, 4.000000, 4.000000, 4.000000, 4.000000, 4.000000, 4.000000
105.000000, 0.000000, 4205.641113, 4217.436035, 4186.153809, 4218.461426, 4200.000000, 4216.922852, 4216.410156, 4221.025391, 4222.563965, 4221.025391, 4203.076660, 4185.641113, 4186.153809, 4207.692383, 3544.000000, 8328.000000, 8037.000000, 0.000000, 0.000000, 0.000000, 25031.000000, 293.846161, 4.000000, 4.000000, 4.000000, 4.000000, 4.000000, 4.000000, 4.000000, 4.000000, 4.000000, 4.000000, 4.000000, 4.000000, 4.000000, 4.000000, 4.000000, 4.000000
106.000000, 0.000000, 4201.025391, 4215.897461, 4191.281738, 4215.384277, 4202.051270, 4215.897461, 4213.846191, 4216.922852, 4215.897461, 4212.820313, 4198.461426, 4182.563965, 4184.102539, 4206.153809, 2618.000000, 8328.000000, 8037.000000, 0.000000, 0.000000, 0.000000, 25031.000000, 301.538452, 4.000000, 4.000000, 4.000000, 4.000000, 4.000000, 4.000000, 4.000000, 4.000000, 4.000000, 4.000000, 4.000000, 4.000000, 4.000000, 4.000000, 4.000000, 4.000000
107.000000, 0.000000, 4203.076660, 4209.230469, 4195.897461, 4212.820313, 4200.512695, 4208.717773, 4209.230469, 4217.436035, 4215.897461, 4204.615234, 4198.461426, 4191.794922, 4186.153809, 4203.076660, 3536.000000, 8310.000000, 8025.000000, 0.000000, 0.000000, 0.000000, 25031.000000, 309.743591, 4.000000, 4.000000, 4.000000, 4.000000, 4.000000, 4.000000, 4.000000, 4.000000, 4.000000, 4.000000, 4.000000, 4.000000, 4.000000, 4.000000, 4.000000, 4.000000
108.000000, 0.000000, 4203.589844, 4204.615234, 4202.051270, 4215.897461, 4196.410156, 4207.692383, 4211.794922, 4229.230469, 4221.025391, 4212.307617, 4203.076660, 4209.743652, 4188.205078, 4204.102539, 3542.000000, 8310.000000, 8025.000000, 0.000000, 0.000000, 0.000000, 25031.000000, 317.435883, 4.000000, 4.000000, 4.000000, 4.000000, 4.000000, 4.000000, 4.000000, 4.000000, 4.000000, 4.000000, 4.000000, 4.000000, 4.000000, 4.000000, 4.000000, 4.000000
109.000000, 0.000000, 4205.641113, 4205.127930, 4205.641113, 4217.948730, 4190.256348, 4211.281738, 4217.436035, 4228.205078, 4220.000000, 4218.974121, 4203.076660, 4211.281738, 4187.179199, 4206.666504, 3544.000000, 8308.000000, 8019.000000, 0.000000, 0.000000, 0.000000, 25031.000000, 325.128204, 4.000000, 4.000000, 4.000000, 4.000000, 4.000000, 4.000000, 4.000000, 4.000000, 4.000000, 4.000000, 4.000000, 4.000000, 4.000000, 4.000000, 4.000000, 4.000000
110.000000, 0.000000, 4203.076660, 4203.589844, 4200.000000, 4215.384277, 4187.179199, 4210.256348, 4216.410156, 4217.436035, 4217.948730, 4218.974121, 4200.000000, 4200.000000, 4184.615234, 4202.563965, 2618.000000, 8308.000000, 8019.000000, 0.000000, 0.000000, 0.000000, 25031.000000, 332.820496, 4.000000, 4.000000, 4.000000, 4.000000, 4.000000, 4.000000, 4.000000, 4.000000, 4.000000, 4.000000, 4.000000, 4.000000, 4.000000, 4.000000, 4.000000, 4.000000
111.000000, 0.000000, 4198.974121, 4202.563965, 4196.410156, 4212.820313, 4197.948730, 4206.666504, 4213.333008, 4220.512695, 4221.538574, 4224.102539, 4200.512695, 4194.871582, 4185.641113, 4200.512695, 3536.000000, 8303.000000, 8006.000000, 0.000000, 0.000000, 0.000000, 25031.000000, 341.025635, 4.000000, 4.000000, 4.000000, 4.000000, 4.000000, 4.000000, 4.000000, 4.000000, 4.000000, 4.000000, 4.000000, 4.000000, 4.000000, 4.000000, 4.000000, 4.000000
112.000000, 0.000000, 4200.000000, 4202.563965, 4189.743652, 4207.692383, 4202.051270, 4205.127930, 4214.871582, 4224.615234, 4222.563965, 4223.076660, 4199.487305, 4189.743652, 4185.127930, 4201.538574, 3542.000000, 8303.000000, 8006.000000, 0.000000, 0.000000, 0.000000, 25031.000000, 348.717926, 4.000000, 4.000000, 4.000000, 4.000000, 4.000000, 4.000000, 4.000000, 4.000000, 4.000000, 4.000000, 4.000000, 4.000000, 4.000000, 4.000000, 4.000000, 4.000000
113.000000, 0.000000, 4197.948730, 4200.000000, 4174.871582, 4198.974121, 4189.230469, 4202.051270, 4213.333008, 4215.897461, 4215.384277, 4216.922852, 4195.897461, 4182.563965, 4182.051270, 4195.384277, 3544.000000, 8292.000000, 7985.000000, 0.000000, 0.000000, 0.000000, 25031.000000, 356.410248, 4.000000, 4.000000, 4.000000, 4.000000, 4.000000, 4.000000, 4.000000, 4.000000, 4.000000, 4.000000, 4.000000, 4.000000, 4.000000, 4.000000, 4.000000, 4.000000
114.000000, 0.000000, 4198.974121, 4196.922852, 4171.794922, 4195.384277, 4184.615234, 4198.974121, 4205.641113, 4221.538574, 4218.974121, 4220.000000, 4198.974121, 4185.127930, 4184.615234, 4192.307617, 2618.000000, 8292.000000, 7985.000000, 0.000000, 0.000000, 0.000000, 25031.000000, 364.102570, 4.000000, 4.000000, 4.000000, 4.000000, 4.000000, 4.000000, 4.000000, 4.000000, 4.000000, 4.000000, 4.000000, 4.000000, 4.000000, 4.000000, 4.000000, 4.000000
115.000000, 0.000000, 4199.487305, 4195.384277, 4181.538574, 4197.436035, 4189.230469, 4201.025391, 4206.153809, 4240.000000, 4232.820313, 4225.127930, 4207.692383, 4192.820313, 4187.692383, 4197.436035, 3536.000000, 8286.000000, 7979.000000, 0.000000, 0.000000, 0.000000, 25031.000000, 372.307678, 4.000000, 4.000000, 4.000000, 4.000000, 4.000000, 4.000000, 4.000000, 4.000000, 4.000000, 4.000000, 4.000000, 4.000000, 4.000000, 4.000000, 4.000000, 4.000000
116.000000, 0.000000, 4200.000000, 4197.436035, 4190.769043, 4200.512695, 4193.846191, 4203.076660, 4214.871582, 4232.307617, 4226.666504, 4223.076660, 4207.692383, 4193.333008, 4186.666504, 4201.538574, 3542.000000, 8286.000000, 7979.000000, 0.000000, 0.000000, 0.000000, 25031.000000, 380.000000, 4.000000, 4.000000, 4.000000, 4.000000, 4.000000, 4.000000, 4.000000, 4.000000, 4.000000, 4.000000, 4.000000, 4.000000, 4.000000, 4.000000, 4.000000, 4.000000
