title:neutral-6, recorded:15.05.18 09.26.35, timestamp started:2018-05-12T20:28:52.032863+02:00            , sampling:128, subject:Noé, labels:COUNTER INTERPOLATED AF3 F7 F3 FC5 T7 P7 O1 O2 P8 T8 FC6 F4 F8 AF4 RAW_CQ GYROX GYROY MARKER MARKER_HARDWARE SYNC TIME_STAMP_s TIME_STAMP_ms CQ_AF3 CQ_F7 CQ_F3 CQ_FC5 CQ_T7 CQ_P7 CQ_O1 CQ_O2 CQ_P8 CQ_T8 CQ_FC6 CQ_F4 CQ_F8 CQ_AF4 CQ_CMS CQ_DRL, chan:40, samples:7562, units:emotiv
28.000000, 0.000000, 4207.179199, 4189.230469, 4202.051270, 4201.025391, 4200.000000, 4193.333008, 4191.281738, 4202.051270, 4200.512695, 4178.974121, 4184.102539, 4182.563965, 4327.179199, 7509.230469, 0.000000, 8424.000000, 8500.000000, 0.000000, 0.000000, 0.000000, 22856.000000, 263.076904, 4.000000, 4.000000, 4.000000, 4.000000, 4.000000, 4.000000, 4.000000, 4.000000, 4.000000, 4.000000, 4.000000, 4.000000, 4.000000, 4.000000, 4.000000, 4.000000
29.000000, 0.000000, 4209.230469, 4192.820313, 4195.384277, 4202.051270, 4209.743652, 4195.384277, 4187.692383, 4200.512695, 4199.487305, 4185.127930, 4183.076660, 4171.281738, 4329.230469, 7500.512695, 0.000000, 8435.000000, 8495.000000, 0.000000, 0.000000, 0.000000, 22856.000000, 270.769226, 4.000000, 4.000000, 4.000000, 4.000000, 4.000000, 4.000000, 4.000000, 4.000000, 4.000000, 4.000000, 4.000000, 4.000000, 4.000000, 4.000000, 4.000000, 4.000000
30.000000, 0.000000, 4202.563965, 4186.666504, 4187.692383, 4200.000000, 4213.333008, 4203.076660, 4190.256348, 4200.512695, 4200.000000, 4187.692383, 4170.769043, 4167.692383, 4323.589844, 7500.512695, 0.000000, 8435.000000, 8495.000000, 0.000000, 0.000000, 0.000000, 22856.000000, 278.974365, 4.000000, 4.000000, 4.000000, 4.000000, 4.000000, 4.000000, 4.000000, 4.000000, 4.000000, 4.000000, 4.000000, 4.000000, 4.000000, 4.000000, 4.000000, 4.000000
31.000000, 0.000000, 4198.974121, 4174.358887, 4186.666504, 4189.743652, 4204.615234, 4201.025391, 4187.179199, 4201.538574, 4199.487305, 4180.000000, 4165.641113, 4168.717773, 4317.436035, 7495.897461, 0.000000, 8435.000000, 8487.000000, 0.000000, 0.000000, 0.000000, 22856.000000, 286.666656, 4.000000, 4.000000, 4.000000, 4.000000, 4.000000, 4.000000, 4.000000, 4.000000, 4.000000, 4.000000, 4.000000, 4.000000, 4.000000, 4.000000, 4.000000, 4.000000
32.000000, 0.000000, 4202.563965, 4177.436035, 4184.102539, 4183.589844, 4200.000000, 4196.922852, 4184.615234, 4201.025391, 4203.589844, 4188.205078, 4173.333008, 4168.205078, 4318.974121, 7545.127930, 0.000000, 8435.000000, 8487.000000, 0.000000, 0.000000, 0.000000, 22856.000000, 294.871796, 4.000000, 4.000000, 4.000000, 4.000000, 4.000000, 4.000000, 4.000000, 4.000000, 4.000000, 4.000000, 4.000000, 4.000000, 4.000000, 4.000000, 4.000000, 4.000000
33.000000, 0.000000, 4208.205078, 4184.615234, 4183.589844, 4191.281738, 4200.000000, 4199.487305, 4187.692383, 4202.051270, 4213.333008, 4206.153809, 4183.589844, 4170.256348, 4329.230469, 7594.358887, 0.000000, 8427.000000, 8474.000000, 0.000000, 0.000000, 0.000000, 22856.000000, 302.564087, 4.000000, 4.000000, 4.000000, 4.000000, 4.000000, 4.000000, 4.000000, 4.000000, 4.000000, 4.000000, 4.000000, 4.000000, 4.000000, 4.000000, 4.000000, 4.000000
34.000000, 0.000000, 4208.205078, 4181.538574, 4192.307617, 4197.948730, 4192.307617, 4193.846191, 4187.692383, 4202.051270, 4207.692383, 4204.615234, 4192.307617, 4171.281738, 4340.000000, 7602.563965, 0.000000, 8427.000000, 8474.000000, 0.000000, 0.000000, 0.000000, 22856.000000, 310.769226, 4.000000, 4.000000, 4.000000, 4.000000, 4.000000, 4.000000, 4.000000, 4.000000, 4.000000, 4.000000, 4.000000, 4.000000, 4.000000, 4.000000, 4.000000, 4.000000
35.000000, 0.000000, 4207.692383, 4188.205078, 4199.487305, 4196.922852, 4196.410156, 4189.743652, 4187.179199, 4201.538574, 4197.948730, 4194.871582, 4197.948730, 4169.743652, 4347.179199, 7601.025391, 0.000000, 8408.000000, 8438.000000, 0.000000, 0.000000, 0.000000, 22856.000000, 318.461517, 4.000000, 4.000000, 4.000000, 4.000000, 4.000000, 4.000000, 4.000000, 4.000000, 4.000000, 4.000000, 4.000000, 4.000000, 4.000000, 4.000000, 4.000000, 4.000000
36.000000, 0.000000, 4213.846191, 4202.563965, 4199.487305, 4198.461426, 4203.589844, 4195.897461, 4189.743652, 4202.051270, 4205.641113, 4202.563965, 4197.948730, 4171.794922, 4351.281738, 7603.076660, 0.000000, 8408.000000, 8438.000000, 0.000000, 0.000000, 0.000000, 22856.000000, 326.666656, 4.000000, 4.000000, 4.000000, 4.000000, 4.000000, 4.000000, 4.000000, 4.000000, 4.000000, 4.000000, 4.000000, 4.000000, 4.000000, 4.000000, 4.000000, 4.000000
37.000000, 0.000000, 4212.820313, 4198.461426, 4196.922852, 4199.487305, 4192.820313, 4193.846191, 4187.179199, 4203.076660, 4210.769043, 4208.717773, 4198.974121, 4174.358887, 4350.256348, 7601.025391, 0.000000, 8391.000000, 8420.000000, 0.000000, 0.000000, 0.000000, 22856.000000, 334.358978, 4.000000, 4.000000, 4.000000, 4.000000, 4.000000, 4.000000, 4.000000, 4.000000, 4.000000, 4.000000, 4.000000, 4.000000, 4.000000, 4.000000, 4.000000, 4.000000
38.000000, 0.000000, 4208.717773, 4191.281738, 4193.333008, 4198.974121, 4189.230469, 4188.717773, 4187.179199, 4202.563965, 4200.000000, 4201.025391, 4207.692383, 4168.717773, 4351.281738, 7600.512695, 0.000000, 8391.000000, 8420.000000, 0.000000, 0.000000, 0.000000, 22856.000000, 342.564087, 4.000000, 4.000000, 4.000000, 4.000000, 4.000000, 4.000000, 4.000000, 4.000000, 4.000000, 4.000000, 4.000000, 4.000000, 4.000000, 4.000000, 4.000000, 4.000000
39.000000, 0.000000, 4212.307617, 4198.461426, 4194.358887, 4198.461426, 4203.076660, 4198.461426, 4193.333008, 4201.025391, 4201.538574, 4196.410156, 4217.436035, 4170.769043, 4359.487305, 7600.000000, 0.000000, 8351.000000, 8375.000000, 0.000000, 0.000000, 0.000000, 22856.000000, 350.256409, 4.000000, 4.000000, 4.000000, 4.000000, 4.000000, 4.000000, 4.000000, 4.000000, 4.000000, 4.000000, 4.000000, 4.000000, 4.000000, 4.000000, 4.000000, 4.000000
40.000000, 0.000000, 4214.871582, 4202.051270, 4204.615234, 4200.000000, 4206.666504, 4205.641113, 4194.358887, 4201.538574, 4215.384277, 4205.127930, 4221.025391, 4192.307617, 4365.641113, 7599.486816, 0.000000, 8351.000000, 8375.000000, 0.000000, 0.000000, 0.000000, 22856.000000, 358.461517, 4.000000, 4.000000, 4.000000, 4.000000, 4.000000, 4.000000, 4.000000, 4.000000, 4.000000, 4.000000, 4.000000, 4.000000, 4.000000, 4.000000, 4.000000, 4.000000
41.000000, 0.000000, 4217.436035, 4201.025391, 4208.717773, 4201.538574, 4197.948730, 4199.487305, 4188.717773, 4203.589844, 4218.461426, 4219.487305, 4218.974121, 4199.487305, 4366.666504, 7600.512695, 0.000000, 8325.000000, 8345.000000, 0.000000, 0.000000, 0.000000, 22856.000000, 366.666656, 4.000000, 4.000000, 4.000000, 4.000000, 4.000000, 4.000000, 4.000000, 4.000000, 4.000000, 4.000000, 4.000000, 4.000000, 4.000000, 4.000000, 4.000000, 4.000000
42.000000, 0.000000, 4216.922852, 4204.615234, 4208.717773, 4203.589844, 4193.333008, 4196.922852, 4186.666504, 4203.589844, 4212.820313, 4214.871582, 4219.487305, 4190.256348, 4362.563965, 7600.000000, 0.000000, 8325.000000, 8345.000000, 0.000000, 0.000000, 0.000000, 22856.000000, 374.358978, 4.000000, 4.000000, 4.000000, 4.000000, 4.000000, 4.000000, 4.000000, 4.000000, 4.000000, 4.000000, 4.000000, 4.000000, 4.000000, 4.000000, 4.000000, 4.000000
43.000000, 0.000000, 4212.820313, 4203.589844, 4216.922852, 4200.512695, 4190.256348, 4198.974121, 4187.692383, 4202.051270, 4206.666504, 4195.897461, 4222.051270, 4204.615234, 4361.538574, 7598.974121, 0.000000, 8280.000000, 8281.000000, 0.000000, 0.000000, 0.000000, 22856.000000, 382.564087, 4.000000, 4.000000, 4.000000, 4.000000, 4.000000, 4.000000, 4.000000, 4.000000, 4.000000, 4.000000, 4.000000, 4.000000, 4.000000, 4.000000, 4.000000, 4.000000
44.000000, 0.000000, 4218.461426, 4207.179199, 4218.461426, 4201.538574, 4188.205078, 4194.358887, 4185.641113, 4202.563965, 4203.589844, 4201.538574, 4227.179199, 4220.000000, 4375.897461, 7598.974121, 0.000000, 8280.000000, 8281.000000, 0.000000, 0.000000, 0.000000, 22856.000000, 390.256409, 4.000000, 4.000000, 4.000000, 4.000000, 4.000000, 4.000000, 4.000000, 4.000000, 4.000000, 4.000000, 4.000000, 4.000000, 4.000000, 4.000000, 4.000000, 4.000000
45.000000, 0.000000, 4221.025391, 4218.461426, 4217.436035, 4210.769043, 4186.666504, 4190.256348, 4185.127930, 4204.102539, 4205.641113, 4217.948730, 4237.948730, 4205.127930, 4388.717773, 7599.486816, 0.000000, 8259.000000, 8253.000000, 0.000000, 0.000000, 0.000000, 22856.000000, 398.461517, 4.000000, 4.000000, 4.000000, 4.000000, 4.000000, 4.000000, 4.000000, 4.000000, 4.000000, 4.000000, 4.000000, 4.000000, 4.000000, 4.000000, 4.000000, 4.000000
46.000000, 0.000000, 4218.461426, 4221.025391, 4216.922852, 4209.743652, 4180.000000, 4186.666504, 4186.153809, 4204.102539, 4201.025391, 4205.641113, 4232.820313, 4195.384277, 4380.000000, 7598.974121, 0.000000, 8259.000000, 8253.000000, 0.000000, 0.000000, 0.000000, 22856.000000, 406.153839, 4.000000, 4.000000, 4.000000, 4.000000, 4.000000, 4.000000, 4.000000, 4.000000, 4.000000, 4.000000, 4.000000, 4.000000, 4.000000, 4.000000, 4.000000, 4.000000
47.000000, 0.000000, 4212.307617, 4222.051270, 4218.974121, 4203.076660, 4181.538574, 4186.153809, 4185.127930, 4203.589844, 4195.897461, 4191.794922, 4222.051270, 4208.717773, 4374.871582, 7599.486816, 0.000000, 8238.000000, 8228.000000, 0.000000, 0.000000, 0.000000, 22856.000000, 414.358978, 4.000000, 4.000000, 4.000000, 4.000000, 4.000000, 4.000000, 4.000000, 4.000000, 4.000000, 4.000000, 4.000000, 4.000000, 4.000000, 4.000000, 4.000000, 4.000000
48.000000, 0.000000, 4216.410156, 4228.717773, 4229.230469, 4207.692383, 4191.794922, 4188.717773, 4184.615234, 4203.589844, 4203.076660, 4207.179199, 4229.743652, 4213.846191, 4388.717773, 7599.486816, 0.000000, 8238.000000, 8228.000000, 0.000000, 0.000000, 0.000000, 22856.000000, 422.051270, 4.000000, 4.000000, 4.000000, 4.000000, 4.000000, 4.000000, 4.000000, 4.000000, 4.000000, 4.000000, 4.000000, 4.000000, 4.000000, 4.000000, 4.000000, 4.000000
49.000000, 0.000000, 4224.102539, 4230.256348, 4232.307617, 4210.256348, 4188.717773, 4185.127930, 4182.563965, 4202.563965, 4204.102539, 4215.897461, 4238.461426, 4206.666504, 4393.846191, 7598.974121, 0.000000, 8189.000000, 8197.000000, 0.000000, 0.000000, 0.000000, 22856.000000, 430.256409, 4.000000, 4.000000, 4.000000, 4.000000, 4.000000, 4.000000, 4.000000, 4.000000, 4.000000, 4.000000, 4.000000, 4.000000, 4.000000, 4.000000, 4.000000, 4.000000
50.000000, 0.000000, 4203.076660, 4224.615234, 4228.205078, 4201.538574, 4173.333008, 4178.461426, 4180.000000, 4201.538574, 4191.794922, 4192.307617, 4231.281738, 4201.025391, 4393.333008, 7599.486816, 0.000000, 8189.000000, 8197.000000, 0.000000, 0.000000, 0.000000, 22856.000000, 438.461517, 4.000000, 4.000000, 4.000000, 4.000000, 4.000000, 4.000000, 4.000000, 4.000000, 4.000000, 4.000000, 4.000000, 4.000000, 4.000000, 4.000000, 4.000000, 4.000000
51.000000, 0.000000, 4206.153809, 4227.179199, 4232.307617, 4205.641113, 4177.948730, 4180.000000, 4184.615234, 4201.538574, 4190.769043, 4186.153809, 4231.794922, 4207.692383, 4400.000000, 7599.486816, 0.000000, 8169.000000, 8188.000000, 0.000000, 0.000000, 0.000000, 22856.000000, 446.153839, 4.000000, 4.000000, 4.000000, 4.000000, 4.000000, 4.000000, 4.000000, 4.000000, 4.000000, 4.000000, 4.000000, 4.000000, 4.000000, 4.000000, 4.000000, 4.000000
52.000000, 0.000000, 4240.512695, 4238.461426, 4235.897461, 4222.051270, 4192.820313, 4185.127930, 4187.179199, 4200.000000, 4196.922852, 4209.230469, 4237.436035, 4223.076660, 4396.922852, 7599.486816, 0.000000, 8169.000000, 8188.000000, 0.000000, 0.000000, 0.000000, 22856.000000, 454.358978, 4.000000, 4.000000, 4.000000, 4.000000, 4.000000, 4.000000, 4.000000, 4.000000, 4.000000, 4.000000, 4.000000, 4.000000, 4.000000, 4.000000, 4.000000, 4.000000
53.000000, 0.000000, 4247.692383, 4237.948730, 4224.102539, 4221.025391, 4178.461426, 4182.563965, 4179.487305, 4200.512695, 4189.230469, 4215.897461, 4228.205078, 4216.410156, 4395.384277, 7599.486816, 0.000000, 8139.000000, 8168.000000, 0.000000, 0.000000, 0.000000, 22856.000000, 462.051270, 4.000000, 4.000000, 4.000000, 4.000000, 4.000000, 4.000000, 4.000000, 4.000000, 4.000000, 4.000000, 4.000000, 4.000000, 4.000000, 4.000000, 4.000000, 4.000000
54.000000, 0.000000, 4222.051270, 4228.717773, 4231.794922, 4213.846191, 4167.179199, 4183.076660, 4178.974121, 4203.589844, 4181.538574, 4198.461426, 4230.256348, 4202.051270, 4410.256348, 7598.974121, 0.000000, 8139.000000, 8168.000000, 0.000000, 0.000000, 0.000000, 22856.000000, 470.256409, 4.000000, 4.000000, 4.000000, 4.000000, 4.000000, 4.000000, 4.000000, 4.000000, 4.000000, 4.000000, 4.000000, 4.000000, 4.000000, 4.000000, 4.000000, 4.000000
55.000000, 0.000000, 4208.205078, 4230.769043, 4259.487305, 4218.461426, 4182.051270, 4186.153809, 4184.102539, 4203.076660, 4183.589844, 4188.717773, 4231.281738, 4215.384277, 4413.333008, 7599.486816, 0.000000, 8135.000000, 8166.000000, 0.000000, 0.000000, 0.000000, 22856.000000, 477.948700, 4.000000, 4.000000, 4.000000, 4.000000, 4.000000, 4.000000, 4.000000, 4.000000, 4.000000, 4.000000, 4.000000, 4.000000, 4.000000, 4.000000, 4.000000, 4.000000
56.000000, 0.000000, 4226.666504, 4230.256348, 4252.307617, 4213.333008, 4173.846191, 4175.897461, 4177.436035, 4200.512695, 4184.615234, 4189.230469, 4213.333008, 4229.743652, 4408.205078, 7599.486816, 0.000000, 8135.000000, 8166.000000, 0.000000, 0.000000, 0.000000, 22856.000000, 486.153839, 4.000000, 4.000000, 4.000000, 4.000000, 4.000000, 4.000000, 4.000000, 4.000000, 4.000000, 4.000000, 4.000000, 4.000000, 4.000000, 4.000000, 4.000000, 4.000000
57.000000, 0.000000, 4252.820313, 4234.358887, 4231.281738, 4206.666504, 4154.358887, 4167.179199, 4167.179199, 4202.563965, 4183.076660, 4195.897461, 4220.000000, 4217.948730, 4425.127930, 7598.974121, 0.000000, 8138.000000, 8170.000000, 0.000000, 0.000000, 0.000000, 22856.000000, 493.846130, 4.000000, 4.000000, 4.000000, 4.000000, 4.000000, 4.000000, 4.000000, 4.000000, 4.000000, 4.000000, 4.000000, 4.000000, 4.000000, 4.000000, 4.000000, 4.000000
58.000000, 0.000000, 4258.461426, 4258.974121, 4240.000000, 4230.256348, 4178.974121, 4175.897461, 4168.717773, 4204.615234, 4185.641113, 4210.769043, 4248.717773, 4226.153809, 4436.410156, 7599.486816, 0.000000, 8138.000000, 8170.000000, 0.000000, 0.000000, 0.000000, 22856.000000, 502.051270, 4.000000, 4.000000, 4.000000, 4.000000, 4.000000, 4.000000, 4.000000, 4.000000, 4.000000, 4.000000, 4.000000, 4.000000, 4.000000, 4.000000, 4.000000, 4.000000
59.000000, 0.000000, 4245.127930, 4275.384277, 4254.358887, 4252.307617, 4208.205078, 4186.153809, 4178.461426, 4203.076660, 4191.794922, 4218.461426, 4249.743652, 4263.076660, 4426.666504, 7598.974121, 0.000000, 8132.000000, 8165.000000, 0.000000, 0.000000, 0.000000, 22856.000000, 510.256409, 4.000000, 4.000000, 4.000000, 4.000000, 4.000000, 4.000000, 4.000000, 4.000000, 4.000000, 4.000000, 4.000000, 4.000000, 4.000000, 4.000000, 4.000000, 4.000000
60.000000, 0.000000, 4260.512695, 4275.384277, 4237.948730, 4243.589844, 4195.384277, 4187.692383, 4180.512695, 4202.051270, 4191.794922, 4211.281738, 4242.563965, 4262.563965, 4432.820313, 7599.486816, 0.000000, 8132.000000, 8165.000000, 0.000000, 0.000000, 0.000000, 22856.000000, 517.948730, 4.000000, 4.000000, 4.000000, 4.000000, 4.000000, 4.000000, 4.000000, 4.000000, 4.000000, 4.000000, 4.000000, 4.000000, 4.000000, 4.000000, 4.000000, 4.000000
61.000000, 0.000000, 4258.974121, 4238.974121, 4245.641113, 4228.717773, 4168.205078, 4185.641113, 4176.922852, 4202.051270, 4176.410156, 4184.615234, 4241.025391, 4254.871582, 4425.641113, 7599.486816, 0.000000, 8133.000000, 8175.000000, 0.000000, 0.000000, 0.000000, 22856.000000, 526.153809, 4.000000, 4.000000, 4.000000, 4.000000, 4.000000, 4.000000, 4.000000, 4.000000, 4.000000, 4.000000, 4.000000, 4.000000, 4.000000, 4.000000, 4.000000, 4.000000
62.000000, 0.000000, 4236.410156, 4183.076660, 4291.794922, 4220.000000, 4158.974121, 4182.563965, 4171.281738, 4201.025391, 4162.051270, 4164.102539, 4230.769043, 4290.256348, 4393.333008, 7598.974121, 0.000000, 8133.000000, 8175.000000, 0.000000, 0.000000, 0.000000, 22856.000000, 533.846130, 4.000000, 4.000000, 4.000000, 4.000000, 4.000000, 4.000000, 4.000000, 4.000000, 4.000000, 4.000000, 4.000000, 4.000000, 4.000000, 4.000000, 4.000000, 4.000000
63.000000, 0.000000, 4286.153809, 4216.922852, 4294.871582, 4220.000000, 4184.102539, 4181.538574, 4168.205078, 4201.025391, 4171.794922, 4188.205078, 4249.230469, 4322.051270, 4402.563965, 7599.486816, 0.000000, 8143.000000, 8199.000000, 0.000000, 0.000000, 0.000000, 22856.000000, 542.051270, 4.000000, 4.000000, 4.000000, 4.000000, 4.000000, 4.000000, 4.000000, 4.000000, 4.000000, 4.000000, 4.000000, 4.000000, 4.000000, 4.000000, 4.000000, 4.000000
64.000000, 0.000000, 4357.435547, 4318.461426, 4265.641113, 4238.461426, 4218.974121, 4188.205078, 4177.436035, 4203.076660, 4193.846191, 4225.127930, 4285.127930, 4343.076660, 4430.256348, 7599.486816, 3548.000000, 8143.000000, 8199.000000, 0.000000, 0.000000, 0.000000, 22856.000000, 549.743591, 4.000000, 4.000000, 4.000000, 4.000000, 4.000000, 4.000000, 4.000000, 4.000000, 4.000000, 4.000000, 4.000000, 4.000000, 4.000000, 4.000000, 4.000000, 4.000000
65.000000, 0.000000, 4330.769043, 4348.717773, 4278.461426, 4240.512695, 4203.589844, 4190.769043, 4184.615234, 4202.563965, 4205.641113, 4234.871582, 4283.589844, 4376.922852, 4425.127930, 7598.974121, 3537.000000, 8143.000000, 8211.000000, 0.000000, 0.000000, 0.000000, 22856.000000, 557.948730, 4.000000, 4.000000, 4.000000, 4.000000, 4.000000, 4.000000, 4.000000, 4.000000, 4.000000, 4.000000, 4.000000, 4.000000, 4.000000, 4.000000, 4.000000, 4.000000
66.000000, 0.000000, 4283.076660, 4303.076660, 4307.692383, 4209.230469, 4152.820313, 4181.538574, 4176.922852, 4201.538574, 4196.410156, 4218.974121, 4276.922852, 4376.410156, 4437.948730, 7599.486816, 1978.000000, 8143.000000, 8211.000000, 0.000000, 0.000000, 0.000000, 22856.000000, 565.640991, 4.000000, 4.000000, 4.000000, 4.000000, 4.000000, 4.000000, 4.000000, 4.000000, 4.000000, 4.000000, 4.000000, 4.000000, 4.000000, 4.000000, 4.000000, 4.000000
67.000000, 0.000000, 4344.615234, 4335.897461, 4288.205078, 4205.641113, 4172.820313, 4185.641113, 4175.897461, 4202.051270, 4189.743652, 4211.281738, 4301.538574, 4350.256348, 4474.871582, 7598.974121, 3535.000000, 8139.000000, 8207.000000, 0.000000, 0.000000, 0.000000, 22856.000000, 573.846130, 4.000000, 4.000000, 4.000000, 4.000000, 4.000000, 4.000000, 4.000000, 4.000000, 4.000000, 4.000000, 4.000000, 4.000000, 4.000000, 4.000000, 4.000000, 4.000000
68.000000, 0.000000, 4409.230469, 4490.769043, 4263.589844, 4228.717773, 4235.384277, 4203.589844, 4191.281738, 4204.102539, 4202.563965, 4235.384277, 4317.436035, 4369.743652, 4476.410156, 7599.486816, 3473.000000, 8139.000000, 8207.000000, 0.000000, 0.000000, 0.000000, 22856.000000, 582.051270, 4.000000, 4.000000, 4.000000, 4.000000, 4.000000, 4.000000, 4.000000, 4.000000, 4.000000, 4.000000, 4.000000, 4.000000, 4.000000, 4.000000, 4.000000, 4.000000
69.000000, 0.000000, 4409.230469, 4657.435547, 4262.563965, 4211.794922, 4206.153809, 4196.410156, 4187.692383, 4203.076660, 4198.974121, 4250.769043, 4309.743652, 4402.563965, 4476.922852, 7599.486816, 3353.000000, 8162.000000, 8199.000000, 0.000000, 0.000000, 0.000000, 22856.000000, 589.743591, 4.000000, 4.000000, 4.000000, 4.000000, 4.000000, 4.000000, 4.000000, 4.000000, 4.000000, 4.000000, 4.000000, 4.000000, 4.000000, 4.000000, 4.000000, 4.000000
70.000000, 0.000000, 4442.051270, 4786.666504, 4250.769043, 4177.948730, 4150.769043, 4171.281738, 4164.615234, 4199.487305, 4175.897461, 4217.948730, 4306.153809, 4422.051270, 4501.025391, 7598.974121, 2461.000000, 8162.000000, 8199.000000, 0.000000, 0.000000, 0.000000, 22856.000000, 597.435913, 4.000000, 4.000000, 4.000000, 4.000000, 4.000000, 4.000000, 4.000000, 4.000000, 4.000000, 4.000000, 4.000000, 4.000000, 4.000000, 4.000000, 4.000000, 4.000000
71.000000, 0.000000, 4526.666504, 4953.846191, 4246.153809, 4182.563965, 4181.025391, 4174.358887, 4165.641113, 4201.025391, 4174.358887, 4190.256348, 4324.615234, 4467.692383, 4497.948730, 7599.486816, 684.000000, 8168.000000, 8189.000000, 0.000000, 0.000000, 0.000000, 22856.000000, 605.640991, 4.000000, 4.000000, 4.000000, 4.000000, 4.000000, 4.000000, 4.000000, 4.000000, 4.000000, 4.000000, 4.000000, 4.000000, 4.000000, 4.000000, 4.000000, 4.000000
72.000000, 0.000000, 4583.076660, 5242.051270, 4271.281738, 4187.179199, 4212.307617, 4189.743652, 4180.000000, 4203.589844, 4187.692383, 4220.512695, 4351.794922, 4523.589844, 4492.307617, 7599.486816, 3534.000000, 8168.000000, 8189.000000, 0.000000, 0.000000, 0.000000, 22856.000000, 613.846130, 4.000000, 4.000000, 4.000000, 4.000000, 4.000000, 4.000000, 4.000000, 4.000000, 4.000000, 4.000000, 4.000000, 4.000000, 4.000000, 4.000000, 4.000000, 4.000000
73.000000, 0.000000, 4617.435547, 5560.512695, 4294.871582, 4178.974121, 4190.769043, 4187.179199, 4180.000000, 4202.051270, 4192.820313, 4248.717773, 4366.666504, 4565.641113, 4523.589844, 7599.486816, 3538.000000, 8180.000000, 8170.000000, 0.000000, 0.000000, 0.000000, 22856.000000, 621.538452, 4.000000, 4.000000, 4.000000, 4.000000, 4.000000, 4.000000, 4.000000, 4.000000, 4.000000, 4.000000, 4.000000, 4.000000, 4.000000, 4.000000, 4.000000, 4.000000
74.000000, 0.000000, 4648.717773, 5781.025391, 4294.358887, 4187.179199, 4178.461426, 4182.563965, 4177.436035, 4202.563965, 4198.974121, 4236.410156, 4386.666504, 4600.512695, 4552.820313, 7599.486816, 2492.000000, 8180.000000, 8170.000000, 0.000000, 0.000000, 0.000000, 22856.000000, 629.743591, 4.000000, 4.000000, 4.000000, 4.000000, 4.000000, 4.000000, 4.000000, 4.000000, 4.000000, 4.000000, 4.000000, 4.000000, 4.000000, 4.000000, 4.000000, 4.000000
75.000000, 0.000000, 4619.487305, 5964.102539, 4300.000000, 4177.436035, 4174.871582, 4183.589844, 4176.922852, 4203.589844, 4202.563965, 4237.948730, 4414.358887, 4612.820313, 4556.410156, 7598.974121, 515.000000, 8184.000000, 8163.000000, 0.000000, 0.000000, 0.000000, 22856.000000, 637.435852, 4.000000, 4.000000, 4.000000, 4.000000, 4.000000, 4.000000, 4.000000, 4.000000, 4.000000, 4.000000, 4.000000, 4.000000, 4.000000, 4.000000, 4.000000, 4.000000
76.000000, 0.000000, 4623.076660, 6197.435547, 4310.769043, 4151.794922, 4176.410156, 4181.538574, 4175.384277, 4202.051270, 4197.436035, 4262.563965, 4431.281738, 4595.897461, 4566.153809, 7599.486816, 3490.000000, 8184.000000, 8163.000000, 0.000000, 0.000000, 0.000000, 22856.000000, 645.640991, 4.000000, 4.000000, 4.000000, 4.000000, 4.000000, 4.000000, 4.000000, 4.000000, 4.000000, 4.000000, 4.000000, 4.000000, 4.000000, 4.000000, 4.000000, 4.000000
77.000000, 0.000000, 4694.871582, 6444.615234, 4293.846191, 4156.410156, 4204.615234, 4189.743652, 4180.512695, 4201.025391, 4201.538574, 4262.563965, 4437.435547, 4584.102539, 4592.307617, 7599.486816, 3447.000000, 8197.000000, 8153.000000, 0.000000, 0.000000, 0.000000, 22856.000000, 653.333313, 4.000000, 4.000000, 4.000000, 4.000000, 4.000000, 4.000000, 4.000000, 4.000000, 4.000000, 4.000000, 4.000000, 4.000000, 4.000000, 4.000000, 4.000000, 4.000000
78.000000, 0.000000, 4665.641113, 6669.743652, 4282.051270, 4147.692383, 4205.127930, 4202.563965, 4183.076660, 4202.563965, 4202.563965, 4237.436035, 4444.615234, 4600.000000, 4611.281738, 7598.974121, 2492.000000, 8197.000000, 8153.000000, 0.000000, 0.000000, 0.000000, 22856.000000, 661.538452, 4.000000, 4.000000, 4.000000, 4.000000, 4.000000, 4.000000, 4.000000, 4.000000, 4.000000, 4.000000, 4.000000, 4.000000, 4.000000, 4.000000, 4.000000, 4.000000
79.000000, 0.000000, 4601.538574, 6912.307617, 4310.769043, 4110.256348, 4180.512695, 4197.436035, 4174.871582, 4203.076660, 4188.205078, 4223.589844, 4450.256348, 4624.615234, 4613.333008, 7599.486816, 515.000000, 8194.000000, 8158.000000, 0.000000, 0.000000, 0.000000, 22856.000000, 669.230774, 4.000000, 4.000000, 4.000000, 4.000000, 4.000000, 4.000000, 4.000000, 4.000000, 4.000000, 4.000000, 4.000000, 4.000000, 4.000000, 4.000000, 4.000000, 4.000000
80.000000, 0.000000, 4671.794922, 7154.358887, 4331.794922, 4109.230469, 4186.153809, 4183.589844, 4167.179199, 4201.538574, 4183.076660, 4239.487305, 4470.256348, 4631.281738, 4634.358887, 7598.974121, 3490.000000, 8194.000000, 8158.000000, 0.000000, 0.000000, 0.000000, 22856.000000, 677.435852, 4.000000, 4.000000, 4.000000, 4.000000, 4.000000, 4.000000, 4.000000, 4.000000, 4.000000, 4.000000, 4.000000, 4.000000, 4.000000, 4.000000, 4.000000, 4.000000
81.000000, 0.000000, 4724.615234, 7321.025391, 4334.358887, 4133.333008, 4202.051270, 4182.051270, 4171.281738, 4202.051270, 4186.666504, 4247.692383, 4498.461426, 4642.051270, 4674.358887, 7599.486816, 3447.000000, 8192.000000, 8168.000000, 0.000000, 0.000000, 0.000000, 22856.000000, 685.128174, 4.000000, 4.000000, 4.000000, 4.000000, 4.000000, 4.000000, 4.000000, 4.000000, 4.000000, 4.000000, 4.000000, 4.000000, 4.000000, 4.000000, 4.000000, 4.000000
82.000000, 0.000000, 4669.230469, 7410.769043, 4360.000000, 4127.692383, 4198.461426, 4188.717773, 4178.461426, 4205.127930, 4187.179199, 4234.871582, 4509.230469, 4658.974121, 4697.435547, 7599.486816, 2492.000000, 8192.000000, 8168.000000, 0.000000, 0.000000, 0.000000, 22856.000000, 693.333313, 4.000000, 4.000000, 4.000000, 4.000000, 4.000000, 4.000000, 4.000000, 4.000000, 4.000000, 4.000000, 4.000000, 4.000000, 4.000000, 4.000000, 4.000000, 4.000000
83.000000, 0.000000, 4683.076660, 7476.410156, 4394.871582, 4113.846191, 4194.871582, 4196.922852, 4182.563965, 4202.563965, 4189.743652, 4233.333008, 4526.153809, 4648.205078, 4712.820313, 7598.974121, 515.000000, 8178.000000, 8209.000000, 0.000000, 0.000000, 0.000000, 22856.000000, 701.538452, 4.000000, 4.000000, 4.000000, 4.000000, 4.000000, 4.000000, 4.000000, 4.000000, 4.000000, 4.000000, 4.000000, 4.000000, 4.000000, 4.000000, 4.000000, 4.000000
84.000000, 0.000000, 4703.076660, 7554.358887, 4397.948730, 4118.461426, 4207.692383, 4208.717773, 4189.230469, 4202.051270, 4201.538574, 4250.256348, 4561.025391, 4643.589844, 4744.102539, 7599.486816, 3490.000000, 8178.000000, 8209.000000, 0.000000, 0.000000, 0.000000, 22856.000000, 709.230774, 4.000000, 4.000000, 4.000000, 4.000000, 4.000000, 4.000000, 4.000000, 4.000000, 4.000000, 4.000000, 4.000000, 4.000000, 4.000000, 4.000000, 4.000000, 4.000000
85.000000, 0.000000, 4590.256348, 7609.743164, 4389.230469, 4132.307617, 4217.948730, 4215.897461, 4193.846191, 4208.717773, 4216.410156, 4260.000000, 4575.384277, 4656.410156, 4785.127930, 7599.486816, 3447.000000, 8168.000000, 8227.000000, 0.000000, 0.000000, 0.000000, 22856.000000, 716.923035, 4.000000, 4.000000, 4.000000, 4.000000, 4.000000, 4.000000, 4.000000, 4.000000, 4.000000, 4.000000, 4.000000, 4.000000, 4.000000, 4.000000, 4.000000, 4.000000
86.000000, 0.000000, 4544.102539, 7611.794922, 4403.589844, 4138.974121, 4217.436035, 4217.436035, 4200.512695, 4208.717773, 4222.051270, 4263.589844, 4571.281738, 4644.102539, 4804.615234, 7598.974121, 2492.000000, 8168.000000, 8227.000000, 0.000000, 0.000000, 0.000000, 22856.000000, 725.128174, 4.000000, 4.000000, 4.000000, 4.000000, 4.000000, 4.000000, 4.000000, 4.000000, 4.000000, 4.000000, 4.000000, 4.000000, 4.000000, 4.000000, 4.000000, 4.000000
87.000000, 0.000000, 4625.641113, 7608.717773, 4441.025391, 4120.000000, 4217.436035, 4219.487305, 4206.666504, 4202.563965, 4213.333008, 4252.307617, 4571.281738, 4618.974121, 4793.846191, 7599.486816, 515.000000, 8154.000000, 8246.000000, 0.000000, 0.000000, 0.000000, 22856.000000, 733.333313, 4.000000, 4.000000, 4.000000, 4.000000, 4.000000, 4.000000, 4.000000, 4.000000, 4.000000, 4.000000, 4.000000, 4.000000, 4.000000, 4.000000, 4.000000, 4.000000
88.000000, 0.000000, 4605.127930, 7605.640625, 4489.230469, 4094.871582, 4212.820313, 4219.487305, 4206.666504, 4199.487305, 4201.025391, 4225.127930, 4571.281738, 4621.538574, 4783.076660, 7598.974121, 3490.000000, 8154.000000, 8246.000000, 0.000000, 0.000000, 0.000000, 22856.000000, 741.025635, 4.000000, 4.000000, 4.000000, 4.000000, 4.000000, 4.000000, 4.000000, 4.000000, 4.000000, 4.000000, 4.000000, 4.000000, 4.000000, 4.000000, 4.000000, 4.000000
89.000000, 0.000000, 4557.948730, 7602.051270, 4512.820313, 4102.051270, 4193.333008, 4213.333008, 4201.538574, 4202.051270, 4194.871582, 4233.846191, 4577.948730, 4623.076660, 4814.871582, 7599.486816, 3447.000000, 8152.000000, 8252.000000, 0.000000, 0.000000, 0.000000, 22856.000000, 748.717957, 4.000000, 4.000000, 4.000000, 4.000000, 4.000000, 4.000000, 4.000000, 4.000000, 4.000000, 4.000000, 4.000000, 4.000000, 4.000000, 4.000000, 4.000000, 4.000000
90.000000, 0.000000, 4623.076660, 7602.051270, 4531.794922, 4135.897461, 4199.487305, 4212.820313, 4198.461426, 4208.205078, 4197.948730, 4255.384277, 4604.615234, 4628.205078, 4857.948730, 7599.486816, 2492.000000, 8152.000000, 8252.000000, 0.000000, 0.000000, 0.000000, 22856.000000, 756.923035, 4.000000, 4.000000, 4.000000, 4.000000, 4.000000, 4.000000, 4.000000, 4.000000, 4.000000, 4.000000, 4.000000, 4.000000, 4.000000, 4.000000, 4.000000, 4.000000
91.000000, 0.000000, 4652.307617, 7598.974121, 4579.487305, 4157.436035, 4241.025391, 4221.025391, 4202.051270, 4210.769043, 4214.358887, 4245.641113, 4634.871582, 4653.333008, 4866.153809, 7598.974121, 515.000000, 8146.000000, 8259.000000, 0.000000, 0.000000, 0.000000, 22856.000000, 765.128174, 4.000000, 4.000000, 4.000000, 4.000000, 4.000000, 4.000000, 4.000000, 4.000000, 4.000000, 4.000000, 4.000000, 4.000000, 4.000000, 4.000000, 4.000000, 4.000000
92.000000, 0.000000, 4576.410156, 7600.000000, 4624.102539, 4148.717773, 4228.717773, 4215.897461, 4204.615234, 4205.641113, 4222.563965, 4245.127930, 4641.025391, 4653.333008, 4862.563965, 7599.486816, 3490.000000, 8146.000000, 8259.000000, 0.000000, 0.000000, 0.000000, 22856.000000, 772.820496, 4.000000, 4.000000, 4.000000, 4.000000, 4.000000, 4.000000, 4.000000, 4.000000, 4.000000, 4.000000, 4.000000, 4.000000, 4.000000, 4.000000, 4.000000, 4.000000
93.000000, 0.000000, 4582.051270, 7599.486816, 4626.666504, 4142.563965, 4187.179199, 4202.051270, 4204.615234, 4202.051270, 4209.230469, 4269.743652, 4636.922852, 4622.051270, 4875.897461, 7599.486816, 3447.000000, 8131.000000, 8259.000000, 0.000000, 0.000000, 0.000000, 22856.000000, 781.025635, 4.000000, 4.000000, 4.000000, 4.000000, 4.000000, 4.000000, 4.000000, 4.000000, 4.000000, 4.000000, 4.000000, 4.000000, 4.000000, 4.000000, 4.000000, 4.000000
94.000000, 0.000000, 4674.871582, 7598.461426, 4598.974121, 4170.769043, 4210.256348, 4204.102539, 4204.102539, 4204.615234, 4202.051270, 4284.102539, 4653.333008, 4604.615234, 4905.641113, 7599.486816, 2492.000000, 8131.000000, 8259.000000, 0.000000, 0.000000, 0.000000, 22856.000000, 788.717957, 4.000000, 4.000000, 4.000000, 4.000000, 4.000000, 4.000000, 4.000000, 4.000000, 4.000000, 4.000000, 4.000000, 4.000000, 4.000000, 4.000000, 4.000000, 4.000000
95.000000, 0.000000, 4650.256348, 7598.974121, 4604.102539, 4189.743652, 4237.948730, 4208.205078, 4201.538574, 4203.076660, 4206.153809, 4263.589844, 4682.051270, 4616.410156, 4918.461426, 7599.486816, 515.000000, 8122.000000, 8255.000000, 0.000000, 0.000000, 0.000000, 22856.000000, 796.923035, 4.000000, 4.000000, 4.000000, 4.000000, 4.000000, 4.000000, 4.000000, 4.000000, 4.000000, 4.000000, 4.000000, 4.000000, 4.000000, 4.000000, 4.000000, 4.000000
96.000000, 0.000000, 4595.897461, 7600.000000, 4635.897461, 4171.794922, 4213.333008, 4201.025391, 4200.512695, 4202.051270, 4200.512695, 4242.563965, 4695.384277, 4626.666504, 4905.641113, 7598.974121, 3490.000000, 8122.000000, 8255.000000, 0.000000, 0.000000, 0.000000, 22856.000000, 804.615356, 4.000000, 4.000000, 4.000000, 4.000000, 4.000000, 4.000000, 4.000000, 4.000000, 4.000000, 4.000000, 4.000000, 4.000000, 4.000000, 4.000000, 4.000000, 4.000000
97.000000, 0.000000, 4675.897461, 7600.000000, 4630.256348, 4172.820313, 4213.846191, 4205.641113, 4201.025391, 4203.589844, 4194.358887, 4251.794922, 4696.410156, 4615.384277, 4920.512695, 7599.486816, 3447.000000, 8093.000000, 8216.000000, 0.000000, 0.000000, 0.000000, 22856.000000, 812.820496, 4.000000, 4.000000, 4.000000, 4.000000, 4.000000, 4.000000, 4.000000, 4.000000, 4.000000, 4.000000, 4.000000, 4.000000, 4.000000, 4.000000, 4.000000, 4.000000
98.000000, 0.000000, 4713.846191, 7600.000000, 4621.538574, 4199.487305, 4240.512695, 4213.846191, 4200.512695, 4202.563965, 4197.948730, 4264.102539, 4712.820313, 4611.281738, 4954.871582, 7599.486816, 2492.000000, 8093.000000, 8216.000000, 0.000000, 0.000000, 0.000000, 22856.000000, 820.512817, 4.000000, 4.000000, 4.000000, 4.000000, 4.000000, 4.000000, 4.000000, 4.000000, 4.000000, 4.000000, 4.000000, 4.000000, 4.000000, 4.000000, 4.000000, 4.000000
99.000000, 0.000000, 4663.589844, 7600.000000, 4664.615234, 4201.538574, 4230.256348, 4205.641113, 4199.487305, 4201.025391, 4198.974121, 4247.692383, 4739.487305, 4631.794922, 4957.435547, 7598.974121, 515.000000, 8080.000000, 8205.000000, 0.000000, 0.000000, 0.000000, 22856.000000, 828.717957, 4.000000, 4.000000, 4.000000, 4.000000, 4.000000, 4.000000, 4.000000, 4.000000, 4.000000, 4.000000, 4.000000, 4.000000, 4.000000, 4.000000, 4.000000, 4.000000
100.000000, 0.000000, 4704.102539, 7600.000000, 4675.897461, 4204.102539, 4229.743652, 4200.512695, 4199.487305, 4200.512695, 4197.436035, 4243.589844, 4772.307617, 4629.743652, 4982.051270, 7599.486816, 3490.000000, 8080.000000, 8205.000000, 0.000000, 0.000000, 0.000000, 22856.000000, 836.923035, 4.000000, 4.000000, 4.000000, 4.000000, 4.000000, 4.000000, 4.000000, 4.000000, 4.000000, 4.000000, 4.000000, 4.000000, 4.000000, 4.000000, 4.000000, 4.000000
101.000000, 0.000000, 4725.127930, 7600.000000, 4646.666504, 4226.666504, 4251.281738, 4204.102539, 4196.922852, 4201.025391, 4198.974121, 4257.436035, 4802.563965, 4601.025391, 5040.512695, 7598.974121, 3447.000000, 8050.000000, 8169.000000, 0.000000, 0.000000, 0.000000, 22856.000000, 844.615356, 4.000000, 4.000000, 4.000000, 4.000000, 4.000000, 4.000000, 4.000000, 4.000000, 4.000000, 4.000000, 4.000000, 4.000000, 4.000000, 4.000000, 4.000000, 4.000000
102.000000, 0.000000, 4621.538574, 7600.000000, 4670.769043, 4233.846191, 4238.461426, 4201.538574, 4188.717773, 4201.538574, 4202.563965, 4257.436035, 4814.871582, 4605.127930, 5040.000000, 7599.486816, 2492.000000, 8050.000000, 8169.000000, 0.000000, 0.000000, 0.000000, 22856.000000, 852.307678, 4.000000, 4.000000, 4.000000, 4.000000, 4.000000, 4.000000, 4.000000, 4.000000, 4.000000, 4.000000, 4.000000, 4.000000, 4.000000, 4.000000, 4.000000, 4.000000
103.000000, 0.000000, 4581.025391, 7600.000000, 4694.358887, 4232.820313, 4221.538574, 4194.871582, 4182.563965, 4201.025391, 4196.922852, 4256.922852, 4812.820313, 4622.563965, 5015.897461, 7599.486816, 515.000000, 8040.000000, 8151.000000, 0.000000, 0.000000, 0.000000, 22856.000000, 860.512817, 4.000000, 4.000000, 4.000000, 4.000000, 4.000000, 4.000000, 4.000000, 4.000000, 4.000000, 4.000000, 4.000000, 4.000000, 4.000000, 4.000000, 4.000000, 4.000000
104.000000, 0.000000, 4617.435547, 7600.000000, 4667.179199, 4248.717773, 4242.563965, 4192.820313, 4186.666504, 4201.025391, 4186.666504, 4250.769043, 4819.487305, 4611.794922, 5041.025391, 7598.974121, 3490.000000, 8040.000000, 8151.000000, 0.000000, 0.000000, 0.000000, 22856.000000, 868.205078, 4.000000, 4.000000, 4.000000, 4.000000, 4.000000, 4.000000, 4.000000, 4.000000, 4.000000, 4.000000, 4.000000, 4.000000, 4.000000, 4.000000, 4.000000, 4.000000
105.000000, 0.000000, 4600.512695, 7600.000000, 4653.333008, 4254.358887, 4250.769043, 4188.717773, 4190.769043, 4201.538574, 4188.717773, 4240.000000, 4835.897461, 4617.435547, 5047.179199, 7599.486816, 3447.000000, 8034.000000, 8132.000000, 0.000000, 0.000000, 0.000000, 22856.000000, 875.897400, 4.000000, 4.000000, 4.000000, 4.000000, 4.000000, 4.000000, 4.000000, 4.000000, 4.000000, 4.000000, 4.000000, 4.000000, 4.000000, 4.000000, 4.000000, 4.000000
106.000000, 0.000000, 4584.615234, 7600.000000, 4658.461426, 4247.179199, 4231.794922, 4184.615234, 4186.666504, 4201.538574, 4195.897461, 4252.307617, 4845.127930, 4651.281738, 5031.281738, 7599.486816, 2492.000000, 8034.000000, 8132.000000, 0.000000, 0.000000, 0.000000, 22856.000000, 884.102539, 4.000000, 4.000000, 4.000000, 4.000000, 4.000000, 4.000000, 4.000000, 4.000000, 4.000000, 4.000000, 4.000000, 4.000000, 4.000000, 4.000000, 4.000000, 4.000000
107.000000, 0.000000, 4611.281738, 7600.000000, 4645.641113, 4255.384277, 4229.743652, 4184.615234, 4185.127930, 4201.538574, 4189.230469, 4266.666504, 4845.127930, 4649.230469, 5042.051270, 7598.974121, 515.000000, 8024.000000, 8095.000000, 0.000000, 0.000000, 0.000000, 22856.000000, 892.307678, 4.000000, 4.000000, 4.000000, 4.000000, 4.000000, 4.000000, 4.000000, 4.000000, 4.000000, 4.000000, 4.000000, 4.000000, 4.000000, 4.000000, 4.000000, 4.000000
108.000000, 0.000000, 4608.205078, 7600.000000, 4630.256348, 4262.563965, 4233.846191, 4180.000000, 4183.589844, 4201.025391, 4181.538574, 4250.256348, 4843.589844, 4625.641113, 5034.358887, 7599.486816, 3490.000000, 8024.000000, 8095.000000, 0.000000, 0.000000, 0.000000, 22856.000000, 900.000000, 4.000000, 4.000000, 4.000000, 4.000000, 4.000000, 4.000000, 4.000000, 4.000000, 4.000000, 4.000000, 4.000000, 4.000000, 4.000000, 4.000000, 4.000000, 4.000000
109.000000, 0.000000, 4597.435547, 7600.000000, 4624.615234, 4263.589844, 4231.794922, 4176.410156, 4181.025391, 4201.025391, 4184.615234, 4229.230469, 4851.281738, 4629.230469, 5031.281738, 7598.974121, 3447.000000, 8027.000000, 8080.000000, 0.000000, 0.000000, 0.000000, 22856.000000, 907.692261, 4.000000, 4.000000, 4.000000, 4.000000, 4.000000, 4.000000, 4.000000, 4.000000, 4.000000, 4.000000, 4.000000, 4.000000, 4.000000, 4.000000, 4.000000, 4.000000
110.000000, 0.000000, 4602.563965, 7600.000000, 4634.871582, 4270.256348, 4247.179199, 4181.025391, 4181.538574, 4202.051270, 4186.666504, 4230.769043, 4862.563965, 4623.589844, 5066.153809, 7599.486816, 2492.000000, 8027.000000, 8080.000000, 0.000000, 0.000000, 0.000000, 22856.000000, 915.897400, 4.000000, 4.000000, 4.000000, 4.000000, 4.000000, 4.000000, 4.000000, 4.000000, 4.000000, 4.000000, 4.000000, 4.000000, 4.000000, 4.000000, 4.000000, 4.000000
111.000000, 0.000000, 4603.076660, 7600.000000, 4639.487305, 4278.974121, 4272.307617, 4186.666504, 4184.615234, 4202.563965, 4184.102539, 4240.512695, 4864.102539, 4606.153809, 5060.512695, 7599.486816, 515.000000, 8030.000000, 8052.000000, 0.000000, 0.000000, 0.000000, 22856.000000, 923.589722, 4.000000, 4.000000, 4.000000, 4.000000, 4.000000, 4.000000, 4.000000, 4.000000, 4.000000, 4.000000, 4.000000, 4.000000, 4.000000, 4.000000, 4.000000, 4.000000
112.000000, 0.000000, 4577.948730, 7600.000000, 4624.102539, 4288.205078, 4265.127930, 4187.179199, 4186.666504, 4203.076660, 4186.666504, 4252.820313, 4854.358887, 4630.769043, 5024.615234, 7598.974121, 3490.000000, 8030.000000, 8052.000000, 0.000000, 0.000000, 0.000000, 22856.000000, 931.282043, 4.000000, 4.000000, 4.000000, 4.000000, 4.000000, 4.000000, 4.000000, 4.000000, 4.000000, 4.000000, 4.000000, 4.000000, 4.000000, 4.000000, 4.000000, 4.000000
113.000000, 0.000000, 4534.871582, 7600.000000, 4625.127930, 4288.717773, 4234.871582, 4183.589844, 4183.589844, 4201.025391, 4186.666504, 4245.127930, 4843.076660, 4683.589844, 5036.922852, 7599.486816, 3447.000000, 8029.000000, 8044.000000, 0.000000, 0.000000, 0.000000, 22856.000000, 939.487183, 4.000000, 4.000000, 4.000000, 4.000000, 4.000000, 4.000000, 4.000000, 4.000000, 4.000000, 4.000000, 4.000000, 4.000000, 4.000000, 4.000000, 4.000000, 4.000000
114.000000, 0.000000, 4557.435547, 7600.000000, 4625.641113, 4283.076660, 4242.563965, 4184.102539, 4184.615234, 4200.000000, 4186.153809, 4242.051270, 4850.769043, 4726.153809, 5075.897461, 7599.486816, 2492.000000, 8029.000000, 8044.000000, 0.000000, 0.000000, 0.000000, 22856.000000, 947.179443, 4.000000, 4.000000, 4.000000, 4.000000, 4.000000, 4.000000, 4.000000, 4.000000, 4.000000, 4.000000, 4.000000, 4.000000, 4.000000, 4.000000, 4.000000, 4.000000
115.000000, 0.000000, 4583.076660, 7600.000000, 4608.205078, 4291.281738, 4279.487305, 4192.307617, 4189.230469, 4202.563965, 4192.820313, 4255.897461, 4860.512695, 4772.820313, 5081.025391, 7599.486816, 515.000000, 8027.000000, 8036.000000, 0.000000, 0.000000, 0.000000, 22856.000000, 955.384583, 4.000000, 4.000000, 4.000000, 4.000000, 4.000000, 4.000000, 4.000000, 4.000000, 4.000000, 4.000000, 4.000000, 4.000000, 4.000000, 4.000000, 4.000000, 4.000000
116.000000, 0.000000, 4525.641113, 7600.000000, 4599.487305, 4303.589844, 4280.512695, 4195.384277, 4186.666504, 4203.589844, 4192.820313, 4249.230469, 4844.615234, 4818.974121, 5076.410156, 7599.486816, 3490.000000, 8027.000000, 8036.000000, 0.000000, 0.000000, 0.000000, 22856.000000, 963.076904, 4.000000, 4.000000, 4.000000, 4.000000, 4.000000, 4.000000, 4.000000, 4.000000, 4.000000, 4.000000, 4.000000, 4.000000, 4.000000, 4.000000, 4.000000, 4.000000
117.000000, 0.000000, 4469.743652, 7600.000000, 4593.333008, 4285.641113, 4238.974121, 4184.615234, 4181.025391, 4200.000000, 4174.871582, 4224.102539, 4828.717773, 4830.256348, 5077.948730, 7598.974121, 3447.000000, 8042.000000, 8046.000000, 0.000000, 0.000000, 0.000000, 22856.000000, 971.282043, 4.000000, 4.000000, 4.000000, 4.000000, 4.000000, 4.000000, 4.000000, 4.000000, 4.000000, 4.000000, 4.000000, 4.000000, 4.000000, 4.000000, 4.000000, 4.000000
118.000000, 0.000000, 4489.743652, 7600.000000, 4583.076660, 4271.794922, 4228.205078, 4179.487305, 4177.948730, 4198.461426, 4163.076660, 4220.512695, 4837.948730, 4822.051270, 5083.076660, 7599.486816, 2492.000000, 8042.000000, 8046.000000, 0.000000, 0.000000, 0.000000, 22856.000000, 978.974365, 4.000000, 4.000000, 4.000000, 4.000000, 4.000000, 4.000000, 4.000000, 4.000000, 4.000000, 4.000000, 4.000000, 4.000000, 4.000000, 4.000000, 4.000000, 4.000000
119.000000, 0.000000, 4528.205078, 7600.000000, 4577.948730, 4302.051270, 4261.538574, 4185.127930, 4177.436035, 4200.512695, 4173.846191, 4245.641113, 4852.307617, 4820.512695, 5101.025391, 7599.486816, 515.000000, 8058.000000, 8059.000000, 0.000000, 0.000000, 0.000000, 22856.000000, 987.179443, 4.000000, 4.000000, 4.000000, 4.000000, 4.000000, 4.000000, 4.000000, 4.000000, 4.000000, 4.000000, 4.000000, 4.000000, 4.000000, 4.000000, 4.000000, 4.000000
120.000000, 0.000000, 4513.333008, 7600.000000, 4585.127930, 4328.717773, 4275.384277, 4185.641113, 4185.127930, 4202.051270, 4186.666504, 4262.051270, 4848.205078, 4827.179199, 5111.281738, 7598.974121, 3490.000000, 8058.000000, 8059.000000, 0.000000, 0.000000, 0.000000, 22856.000000, 994.871765, 4.000000, 4.000000, 4.000000, 4.000000, 4.000000, 4.000000, 4.000000, 4.000000, 4.000000, 4.000000, 4.000000, 4.000000, 4.000000, 4.000000, 4.000000, 4.000000
121.000000, 0.000000, 4483.589844, 7600.000000, 4600.000000, 4326.153809, 4271.794922, 4186.666504, 4198.461426, 4202.563965, 4187.179199, 4251.281738, 4842.051270, 4830.256348, 5120.512695, 7599.486816, 3447.000000, 8081.000000, 8093.000000, 0.000000, 0.000000, 0.000000, 22857.000000, 3.076923, 4.000000, 4.000000, 4.000000, 4.000000, 4.000000, 4.000000, 4.000000, 4.000000, 4.000000, 4.000000, 4.000000, 4.000000, 4.000000, 4.000000, 4.000000, 4.000000
122.000000, 0.000000, 4465.641113, 7600.000000, 4614.358887, 4312.820313, 4262.563965, 4188.717773, 4206.153809, 4201.538574, 4182.563965, 4234.871582, 4839.487305, 4828.205078, 5122.563965, 7598.974121, 2492.000000, 8081.000000, 8093.000000, 0.000000, 0.000000, 0.000000, 22857.000000, 10.769231, 4.000000, 4.000000, 4.000000, 4.000000, 4.000000, 4.000000, 4.000000, 4.000000, 4.000000, 4.000000, 4.000000, 4.000000, 4.000000, 4.000000, 4.000000, 4.000000
123.000000, 0.000000, 4481.025391, 7600.000000, 4610.769043, 4307.179199, 4245.641113, 4181.025391, 4203.589844, 4200.000000, 4180.512695, 4245.641113, 4838.974121, 4813.333008, 5120.512695, 7599.486816, 515.000000, 8094.000000, 8117.000000, 0.000000, 0.000000, 0.000000, 22857.000000, 18.974358, 4.000000, 4.000000, 4.000000, 4.000000, 4.000000, 4.000000, 4.000000, 4.000000, 4.000000, 4.000000, 4.000000, 4.000000, 4.000000, 4.000000, 4.000000, 4.000000
124.000000, 0.000000, 4518.461426, 7600.000000, 4588.717773, 4320.000000, 4257.436035, 4174.358887, 4203.589844, 4202.051270, 4184.102539, 4257.436035, 4845.641113, 4783.076660, 5139.486816, 7599.486816, 3490.000000, 8094.000000, 8117.000000, 0.000000, 0.000000, 0.000000, 22857.000000, 26.666666, 4.000000, 4.000000, 4.000000, 4.000000, 4.000000, 4.000000, 4.000000, 4.000000, 4.000000, 4.000000, 4.000000, 4.000000, 4.000000, 4.000000, 4.000000, 4.000000
125.000000, 0.000000, 4484.102539, 7600.000000, 4584.615234, 4330.256348, 4282.563965, 4179.487305, 4211.794922, 4204.102539, 4188.717773, 4237.948730, 4843.076660, 4773.846191, 5136.922852, 7598.974121, 3447.000000, 8112.000000, 8144.000000, 0.000000, 0.000000, 0.000000, 22857.000000, 34.358974, 4.000000, 4.000000, 4.000000, 4.000000, 4.000000, 4.000000, 4.000000, 4.000000, 4.000000, 4.000000, 4.000000, 4.000000, 4.000000, 4.000000, 4.000000, 4.000000
126.000000, 0.000000, 4446.666504, 7600.000000, 4585.127930, 4316.410156, 4265.127930, 4181.538574, 4215.384277, 4201.538574, 4189.743652, 4231.794922, 4825.641113, 4781.538574, 5104.615234, 7599.486816, 2492.000000, 8112.000000, 8144.000000, 0.000000, 0.000000, 0.000000, 22857.000000, 42.051281, 4.000000, 4.000000, 4.000000, 4.000000, 4.000000, 4.000000, 4.000000, 4.000000, 4.000000, 4.000000, 4.000000, 4.000000, 4.000000, 4.000000, 4.000000, 4.000000
127.000000, 0.000000, 4480.512695, 7600.000000, 4572.307617, 4306.153809, 4249.230469, 4172.307617, 4211.794922, 4199.487305, 4184.102539, 4254.358887, 4807.692383, 4757.948730, 5121.538574, 7599.486816, 56.000000, 8121.000000, 8154.000000, 0.000000, 0.000000, 0.000000, 22857.000000, 50.256409, 4.000000, 4.000000, 4.000000, 4.000000, 4.000000, 4.000000, 4.000000, 4.000000, 4.000000, 4.000000, 4.000000, 4.000000, 4.000000, 4.000000, 4.000000, 4.000000
0.000000, 0.000000, 4489.230469, 7600.000000, 4570.256348, 4329.743652, 4276.922852, 4170.256348, 4208.717773, 4200.512695, 4182.051270, 4252.820313, 4807.692383, 4743.589844, 5175.384277, 7598.974121, 3506.000000, 8121.000000, 8154.000000, 0.000000, 0.000000, 0.000000, 22857.000000, 57.948715, 4.000000, 4.000000, 4.000000, 4.000000, 4.000000, 4.000000, 4.000000, 4.000000, 4.000000, 4.000000, 4.000000, 4.000000, 4.000000, 4.000000, 4.000000, 4.000000
1.000000, 0.000000, 4473.333008, 7601.538086, 4566.153809, 4347.692383, 4287.179199, 4171.281738, 4205.127930, 4201.025391, 4186.666504, 4231.281738, 4821.538574, 4761.025391, 5186.153809, 7599.486816, 3527.000000, 8123.000000, 8158.000000, 0.000000, 0.000000, 0.000000, 22857.000000, 66.153847, 4.000000, 4.000000, 4.000000, 4.000000, 4.000000, 4.000000, 4.000000, 4.000000, 4.000000, 4.000000, 4.000000, 4.000000, 4.000000, 4.000000, 4.000000, 4.000000
2.000000, 0.000000, 4495.384277, 7601.538086, 4544.615234, 4331.281738, 4266.153809, 4165.641113, 4197.948730, 4201.025391, 4189.230469, 4252.820313, 4832.820313, 4737.948730, 5207.179199, 7598.974121, 2030.000000, 8123.000000, 8158.000000, 0.000000, 0.000000, 0.000000, 22857.000000, 73.846153, 4.000000, 4.000000, 4.000000, 4.000000, 4.000000, 4.000000, 4.000000, 4.000000, 4.000000, 4.000000, 4.000000, 4.000000, 4.000000, 4.000000, 4.000000, 4.000000
3.000000, 0.000000, 4479.487305, 7596.922852, 4547.692383, 4325.127930, 4261.538574, 4166.153809, 4193.333008, 4201.025391, 4184.615234, 4273.846191, 4816.922852, 4710.256348, 5234.871582, 7599.486816, 656.000000, 8120.000000, 8176.000000, 0.000000, 0.000000, 0.000000, 22857.000000, 82.051277, 4.000000, 4.000000, 4.000000, 4.000000, 4.000000, 4.000000, 4.000000, 4.000000, 4.000000, 4.000000, 4.000000, 4.000000, 4.000000, 4.000000, 4.000000, 4.000000
4.000000, 0.000000, 4452.820313, 7604.615234, 4568.717773, 4346.153809, 4275.897461, 4171.281738, 4195.897461, 4201.538574, 4173.846191, 4235.384277, 4802.563965, 4730.769043, 5209.230469, 7599.486816, 3461.000000, 8120.000000, 8176.000000, 0.000000, 0.000000, 0.000000, 22857.000000, 89.743591, 4.000000, 4.000000, 4.000000, 4.000000, 4.000000, 4.000000, 4.000000, 4.000000, 4.000000, 4.000000, 4.000000, 4.000000, 4.000000, 4.000000, 4.000000, 4.000000
5.000000, 0.000000, 4501.538574, 7602.051270, 4546.153809, 4347.692383, 4284.615234, 4172.307617, 4197.436035, 4200.000000, 4168.717773, 4213.333008, 4816.922852, 4716.410156, 5193.846191, 7598.974121, 3487.000000, 8121.000000, 8183.000000, 0.000000, 0.000000, 0.000000, 22857.000000, 97.435898, 4.000000, 4.000000, 4.000000, 4.000000, 4.000000, 4.000000, 4.000000, 4.000000, 4.000000, 4.000000, 4.000000, 4.000000, 4.000000, 4.000000, 4.000000, 4.000000
6.000000, 0.000000, 4498.461426, 7574.358887, 4516.922852, 4325.641113, 4276.922852, 4174.871582, 4199.487305, 4197.948730, 4169.743652, 4228.205078, 4793.846191, 4681.025391, 5191.281738, 7599.486816, 2461.000000, 8121.000000, 8183.000000, 0.000000, 0.000000, 0.000000, 22857.000000, 105.128204, 4.000000, 4.000000, 4.000000, 4.000000, 4.000000, 4.000000, 4.000000, 4.000000, 4.000000, 4.000000, 4.000000, 4.000000, 4.000000, 4.000000, 4.000000, 4.000000
7.000000, 0.000000, 4449.743652, 7572.307617, 4526.666504, 4329.743652, 4275.384277, 4178.461426, 4207.692383, 4199.487305, 4169.743652, 4235.384277, 4766.666504, 4689.743652, 5193.846191, 7599.486816, 919.000000, 8117.000000, 8201.000000, 0.000000, 0.000000, 0.000000, 22857.000000, 113.333328, 4.000000, 4.000000, 4.000000, 4.000000, 4.000000, 4.000000, 4.000000, 4.000000, 4.000000, 4.000000, 4.000000, 4.000000, 4.000000, 4.000000, 4.000000, 4.000000
8.000000, 0.000000, 4493.333008, 7581.025391, 4527.179199, 4347.692383, 4287.179199, 4176.922852, 4212.307617, 4201.025391, 4170.256348, 4254.358887, 4801.538574, 4682.051270, 5222.563965, 7599.486816, 3724.000000, 8117.000000, 8201.000000, 0.000000, 0.000000, 0.000000, 22857.000000, 121.025635, 4.000000, 4.000000, 4.000000, 4.000000, 4.000000, 4.000000, 4.000000, 4.000000, 4.000000, 4.000000, 4.000000, 4.000000, 4.000000, 4.000000, 4.000000, 4.000000
9.000000, 0.000000, 4513.846191, 7573.333008, 4513.333008, 4342.563965, 4273.333008, 4169.743652, 4205.127930, 4200.512695, 4164.615234, 4268.205078, 4820.000000, 4644.615234, 5229.743652, 7599.486816, 3526.000000, 8116.000000, 8200.000000, 0.000000, 0.000000, 0.000000, 22857.000000, 129.230759, 4.000000, 4.000000, 4.000000, 4.000000, 4.000000, 4.000000, 4.000000, 4.000000, 4.000000, 4.000000, 4.000000, 4.000000, 4.000000, 4.000000, 4.000000, 4.000000
10.000000, 0.000000, 4480.512695, 7569.230469, 4503.589844, 4349.230469, 4258.974121, 4165.641113, 4197.436035, 4198.461426, 4152.820313, 4248.205078, 4799.487305, 4643.589844, 5213.333008, 7598.974121, 2422.000000, 8116.000000, 8200.000000, 0.000000, 0.000000, 0.000000, 22857.000000, 136.923080, 4.000000, 4.000000, 4.000000, 4.000000, 4.000000, 4.000000, 4.000000, 4.000000, 4.000000, 4.000000, 4.000000, 4.000000, 4.000000, 4.000000, 4.000000, 4.000000
11.000000, 0.000000, 4477.435547, 7565.640625, 4501.538574, 4368.205078, 4272.820313, 4169.230469, 4199.487305, 4197.948730, 4147.692383, 4247.179199, 4807.179199, 4648.717773, 5227.179199, 7599.486816, 0.000000, 8110.000000, 8206.000000, 0.000000, 0.000000, 0.000000, 22857.000000, 144.615387, 4.000000, 4.000000, 4.000000, 4.000000, 4.000000, 4.000000, 4.000000, 4.000000, 4.000000, 4.000000, 4.000000, 0.000000, 4.000000, 4.000000, 4.000000, 4.000000
12.000000, 0.000000, 4491.794922, 7557.435547, 4503.589844, 4365.641113, 4296.410156, 4172.307617, 4200.512695, 4200.000000, 4156.410156, 4273.846191, 4815.384277, 4642.051270, 5231.794922, 7599.486816, 3721.000000, 8110.000000, 8206.000000, 0.000000, 0.000000, 0.000000, 22857.000000, 152.820511, 4.000000, 4.000000, 4.000000, 4.000000, 4.000000, 4.000000, 4.000000, 4.000000, 4.000000, 4.000000, 4.000000, 0.000000, 4.000000, 4.000000, 4.000000, 4.000000
13.000000, 0.000000, 4488.205078, 7556.410156, 4498.461426, 4367.692383, 4298.461426, 4170.256348, 4197.436035, 4200.512695, 4166.666504, 4278.974121, 4813.333008, 4637.948730, 5236.922852, 7598.974121, 3423.000000, 8120.000000, 8219.000000, 0.000000, 0.000000, 0.000000, 22857.000000, 160.512817, 4.000000, 4.000000, 4.000000, 4.000000, 4.000000, 4.000000, 4.000000, 4.000000, 4.000000, 4.000000, 4.000000, 0.000000, 4.000000, 4.000000, 4.000000, 4.000000
14.000000, 0.000000, 4485.127930, 7553.333008, 4498.461426, 4378.461426, 4277.436035, 4167.179199, 4198.461426, 4200.000000, 4163.076660, 4273.333008, 4835.897461, 4615.897461, 5276.410156, 7599.486816, 2422.000000, 8120.000000, 8219.000000, 0.000000, 0.000000, 0.000000, 22857.000000, 168.205124, 4.000000, 4.000000, 4.000000, 4.000000, 4.000000, 4.000000, 4.000000, 4.000000, 4.000000, 4.000000, 4.000000, 0.000000, 4.000000, 4.000000, 4.000000, 4.000000
15.000000, 0.000000, 4495.384277, 7542.051270, 4504.102539, 4383.589844, 4278.461426, 4168.205078, 4198.461426, 4200.000000, 4157.948730, 4280.000000, 4845.641113, 4606.153809, 5279.486816, 7598.974121, 0.000000, 8125.000000, 8213.000000, 0.000000, 0.000000, 0.000000, 22857.000000, 176.410248, 4.000000, 4.000000, 4.000000, 4.000000, 4.000000, 4.000000, 4.000000, 4.000000, 4.000000, 4.000000, 4.000000, 0.000000, 4.000000, 4.000000, 4.000000, 4.000000
16.000000, 0.000000, 4474.871582, 7536.922852, 4509.230469, 4397.948730, 4307.692383, 4173.333008, 4202.051270, 4201.538574, 4165.641113, 4286.153809, 4843.589844, 4631.794922, 5253.846191, 7599.486816, 0.000000, 8125.000000, 8213.000000, 0.000000, 0.000000, 0.000000, 22857.000000, 184.102554, 4.000000, 4.000000, 4.000000, 4.000000, 4.000000, 4.000000, 4.000000, 4.000000, 4.000000, 4.000000, 4.000000, 0.000000, 4.000000, 4.000000, 4.000000, 4.000000
17.000000, 0.000000, 4471.794922, 7529.743164, 4512.307617, 4415.897461, 4317.948730, 4180.512695, 4211.794922, 4201.538574, 4178.974121, 4298.974121, 4864.102539, 4641.538574, 5279.486816, 7599.486816, 0.000000, 8160.000000, 8215.000000, 0.000000, 0.000000, 0.000000, 22857.000000, 192.307693, 4.000000, 4.000000, 4.000000, 4.000000, 4.000000, 4.000000, 4.000000, 4.000000, 4.000000, 4.000000, 4.000000, 0.000000, 4.000000, 4.000000, 4.000000, 4.000000
18.000000, 0.000000, 4508.205078, 7525.127930, 4496.410156, 4417.948730, 4294.871582, 4183.076660, 4218.974121, 4199.487305, 4184.102539, 4316.922852, 4885.127930, 4614.871582, 5318.461426, 7598.974121, 0.000000, 8160.000000, 8215.000000, 0.000000, 0.000000, 0.000000, 22857.000000, 200.000000, 4.000000, 4.000000, 4.000000, 4.000000, 4.000000, 4.000000, 4.000000, 4.000000, 4.000000, 4.000000, 4.000000, 0.000000, 4.000000, 4.000000, 4.000000, 4.000000
19.000000, 0.000000, 4511.794922, 7527.179199, 4476.922852, 4421.538574, 4282.051270, 4181.538574, 4218.461426, 4199.487305, 4186.153809, 4326.153809, 4888.717773, 4595.384277, 5317.948730, 7599.486816, 0.000000, 8181.000000, 8211.000000, 0.000000, 0.000000, 0.000000, 22857.000000, 207.692307, 4.000000, 4.000000, 4.000000, 4.000000, 4.000000, 4.000000, 4.000000, 4.000000, 4.000000, 4.000000, 4.000000, 0.000000, 4.000000, 4.000000, 4.000000, 4.000000
20.000000, 0.000000, 4502.051270, 7504.102539, 4489.230469, 4426.666504, 4289.743652, 4181.025391, 4216.922852, 4201.538574, 4186.666504, 4320.000000, 4896.410156, 4601.025391, 5317.435547, 7599.486816, 0.000000, 8181.000000, 8211.000000, 0.000000, 0.000000, 0.000000, 22857.000000, 215.897430, 4.000000, 4.000000, 4.000000, 4.000000, 4.000000, 4.000000, 4.000000, 4.000000, 4.000000, 4.000000, 4.000000, 0.000000, 4.000000, 4.000000, 4.000000, 4.000000
21.000000, 0.000000, 4541.025391, 7484.102539, 4492.820313, 4427.179199, 4307.692383, 4184.102539, 4217.436035, 4201.025391, 4188.205078, 4306.153809, 4916.410156, 4597.948730, 5335.384277, 7598.974121, 0.000000, 8198.000000, 8200.000000, 0.000000, 0.000000, 0.000000, 22857.000000, 223.589737, 4.000000, 4.000000, 4.000000, 4.000000, 4.000000, 4.000000, 4.000000, 4.000000, 4.000000, 4.000000, 4.000000, 0.000000, 4.000000, 4.000000, 4.000000, 4.000000
22.000000, 0.000000, 4566.153809, 7484.102539, 4463.589844, 4438.461426, 4315.897461, 4186.153809, 4211.794922, 4198.974121, 4190.769043, 4314.871582, 4927.692383, 4573.333008, 5335.897461, 7599.486816, 0.000000, 8198.000000, 8200.000000, 0.000000, 0.000000, 0.000000, 22857.000000, 231.282043, 4.000000, 4.000000, 4.000000, 4.000000, 4.000000, 4.000000, 4.000000, 4.000000, 4.000000, 4.000000, 4.000000, 0.000000, 4.000000, 4.000000, 4.000000, 4.000000
23.000000, 0.000000, 4526.153809, 7469.230469, 4460.512695, 4441.538574, 4301.538574, 4177.436035, 4200.512695, 4199.487305, 4180.512695, 4332.307617, 4923.589844, 4544.102539, 5328.717773, 7598.974121, 0.000000, 8239.000000, 8181.000000, 0.000000, 0.000000, 0.000000, 22857.000000, 239.487167, 4.000000, 4.000000, 4.000000, 4.000000, 4.000000, 4.000000, 4.000000, 4.000000, 4.000000, 4.000000, 4.000000, 0.000000, 4.000000, 4.000000, 4.000000, 4.000000
24.000000, 0.000000, 4525.127930, 7428.205078, 4472.307617, 4430.256348, 4294.871582, 4167.692383, 4199.487305, 4196.922852, 4167.692383, 4317.436035, 4923.076660, 4534.358887, 5330.769043, 7599.486816, 0.000000, 8239.000000, 8181.000000, 0.000000, 0.000000, 0.000000, 22857.000000, 247.179474, 4.000000, 4.000000, 4.000000, 4.000000, 4.000000, 4.000000, 4.000000, 4.000000, 4.000000, 4.000000, 4.000000, 0.000000, 4.000000, 4.000000, 4.000000, 4.000000
25.000000, 0.000000, 4547.692383, 7402.563965, 4458.461426, 4428.205078, 4298.461426, 4168.717773, 4204.102539, 4194.358887, 4166.153809, 4297.436035, 4928.205078, 4529.743652, 5326.666504, 7599.486816, 0.000000, 8257.000000, 8179.000000, 0.000000, 0.000000, 0.000000, 22857.000000, 255.384613, 4.000000, 4.000000, 4.000000, 4.000000, 4.000000, 4.000000, 4.000000, 4.000000, 4.000000, 4.000000, 4.000000, 0.000000, 4.000000, 4.000000, 4.000000, 4.000000
26.000000, 0.000000, 4515.384277, 7407.691895, 4456.410156, 4441.025391, 4302.051270, 4172.820313, 4204.102539, 4198.974121, 4170.769043, 4313.846191, 4920.512695, 4524.615234, 5309.230469, 7598.974121, 0.000000, 8257.000000, 8179.000000, 0.000000, 0.000000, 0.000000, 22857.000000, 263.076904, 4.000000, 4.000000, 4.000000, 4.000000, 4.000000, 4.000000, 4.000000, 4.000000, 4.000000, 4.000000, 4.000000, 0.000000, 4.000000, 4.000000, 4.000000, 4.000000
27.000000, 0.000000, 4496.922852, 7394.358887, 4469.743652, 4456.922852, 4306.153809, 4168.717773, 4203.589844, 4202.051270, 4172.820313, 4337.436035, 4922.051270, 4514.358887, 5324.102539, 7599.486816, 0.000000, 8298.000000, 8163.000000, 0.000000, 0.000000, 0.000000, 22857.000000, 270.769226, 4.000000, 4.000000, 4.000000, 4.000000, 4.000000, 4.000000, 4.000000, 4.000000, 4.000000, 4.000000, 4.000000, 0.000000, 4.000000, 4.000000, 4.000000, 4.000000
28.000000, 0.000000, 4528.717773, 7364.615234, 4451.281738, 4466.666504, 4316.410156, 4168.717773, 4201.538574, 4197.436035, 4169.230469, 4320.000000, 4935.897461, 4484.102539, 5370.256348, 7599.486816, 0.000000, 8298.000000, 8163.000000, 0.000000, 0.000000, 0.000000, 22857.000000, 278.461517, 4.000000, 4.000000, 4.000000, 4.000000, 4.000000, 4.000000, 4.000000, 4.000000, 4.000000, 4.000000, 4.000000, 0.000000, 4.000000, 4.000000, 4.000000, 4.000000
29.000000, 0.000000, 4525.641113, 7336.410156, 4433.333008, 4461.538574, 4310.256348, 4170.256348, 4200.000000, 4195.897461, 4163.589844, 4290.769043, 4922.051270, 4473.846191, 5371.281738, 7599.486816, 0.000000, 8316.000000, 8147.000000, 0.000000, 0.000000, 0.000000, 22857.000000, 286.666656, 4.000000, 4.000000, 4.000000, 4.000000, 4.000000, 4.000000, 4.000000, 4.000000, 4.000000, 4.000000, 4.000000, 0.000000, 4.000000, 4.000000, 4.000000, 4.000000
30.000000, 0.000000, 4482.563965, 7301.538086, 4452.820313, 4449.230469, 4295.384277, 4169.230469, 4208.717773, 4199.487305, 4167.692383, 4299.487305, 4904.102539, 4493.333008, 5340.000000, 7599.486816, 0.000000, 8316.000000, 8147.000000, 0.000000, 0.000000, 0.000000, 22857.000000, 294.358978, 4.000000, 4.000000, 4.000000, 4.000000, 4.000000, 4.000000, 4.000000, 4.000000, 4.000000, 4.000000, 4.000000, 0.000000, 4.000000, 4.000000, 4.000000, 4.000000
31.000000, 0.000000, 4491.281738, 7299.486816, 4452.820313, 4466.153809, 4312.307617, 4177.948730, 4212.820313, 4200.000000, 4182.563965, 4328.205078, 4922.563965, 4484.102539, 5354.358887, 7598.974121, 0.000000, 8344.000000, 8116.000000, 0.000000, 0.000000, 0.000000, 22857.000000, 302.564087, 4.000000, 4.000000, 4.000000, 4.000000, 4.000000, 4.000000, 4.000000, 4.000000, 4.000000, 4.000000, 4.000000, 0.000000, 4.000000, 4.000000, 4.000000, 4.000000
32.000000, 0.000000, 4510.256348, 7294.358887, 4423.076660, 4483.076660, 4321.025391, 4181.025391, 4210.769043, 4200.512695, 4180.000000, 4324.615234, 4938.461426, 4446.153809, 5390.256348, 7599.486816, 0.000000, 8344.000000, 8116.000000, 0.000000, 0.000000, 0.000000, 22857.000000, 310.256409, 4.000000, 4.000000, 4.000000, 4.000000, 4.000000, 4.000000, 4.000000, 4.000000, 4.000000, 4.000000, 4.000000, 0.000000, 4.000000, 4.000000, 4.000000, 4.000000
33.000000, 0.000000, 4454.358887, 7232.307617, 4422.563965, 4458.974121, 4300.512695, 4170.769043, 4209.743652, 4199.487305, 4165.127930, 4297.436035, 4921.025391, 4440.000000, 5381.538086, 7599.486816, 0.000000, 8350.000000, 8104.000000, 0.000000, 0.000000, 0.000000, 22857.000000, 317.948700, 4.000000, 4.000000, 4.000000, 4.000000, 4.000000, 4.000000, 4.000000, 4.000000, 4.000000, 4.000000, 4.000000, 0.000000, 4.000000, 4.000000, 4.000000, 4.000000
34.000000, 0.000000, 4436.922852, 7183.076660, 4431.794922, 4442.051270, 4295.897461, 4170.769043, 4208.717773, 4197.948730, 4165.127930, 4284.102539, 4912.307617, 4457.948730, 5368.205078, 7598.974121, 0.000000, 8350.000000, 8104.000000, 0.000000, 0.000000, 0.000000, 22857.000000, 326.153839, 4.000000, 4.000000, 4.000000, 4.000000, 4.000000, 4.000000, 4.000000, 4.000000, 4.000000, 4.000000, 4.000000, 0.000000, 4.000000, 4.000000, 4.000000, 4.000000
35.000000, 0.000000, 4485.127930, 7182.563965, 4407.179199, 4461.025391, 4314.871582, 4183.076660, 4208.205078, 4200.512695, 4173.846191, 4291.794922, 4924.615234, 4450.256348, 5391.794922, 7599.486816, 0.000000, 8346.000000, 8103.000000, 0.000000, 0.000000, 0.000000, 22857.000000, 333.846161, 4.000000, 4.000000, 4.000000, 4.000000, 4.000000, 4.000000, 4.000000, 4.000000, 4.000000, 4.000000, 4.000000, 0.000000, 4.000000, 4.000000, 4.000000, 4.000000
36.000000, 0.000000, 4445.127930, 7134.871582, 4402.051270, 4464.102539, 4316.922852, 4187.692383, 4210.256348, 4201.538574, 4172.820313, 4306.666504, 4928.717773, 4431.281738, 5401.538086, 7598.974121, 0.000000, 8346.000000, 8103.000000, 0.000000, 0.000000, 0.000000, 22857.000000, 342.051270, 4.000000, 4.000000, 4.000000, 4.000000, 4.000000, 4.000000, 4.000000, 4.000000, 4.000000, 4.000000, 4.000000, 0.000000, 4.000000, 4.000000, 4.000000, 4.000000
37.000000, 0.000000, 4389.230469, 7046.666504, 4421.025391, 4454.358887, 4307.179199, 4182.563965, 4208.717773, 4200.000000, 4170.256348, 4311.281738, 4923.076660, 4424.615234, 5382.563965, 7599.486816, 0.000000, 8330.000000, 8119.000000, 0.000000, 0.000000, 0.000000, 22857.000000, 349.743591, 4.000000, 4.000000, 4.000000, 4.000000, 4.000000, 4.000000, 4.000000, 4.000000, 4.000000, 4.000000, 4.000000, 0.000000, 4.000000, 4.000000, 4.000000, 4.000000
38.000000, 0.000000, 4423.076660, 7006.153809, 4406.153809, 4472.307617, 4311.794922, 4185.641113, 4210.256348, 4200.000000, 4177.436035, 4301.538574, 4918.974121, 4428.205078, 5379.486816, 7599.486816, 0.000000, 8330.000000, 8119.000000, 0.000000, 0.000000, 0.000000, 22857.000000, 357.948700, 4.000000, 4.000000, 4.000000, 4.000000, 4.000000, 4.000000, 4.000000, 4.000000, 4.000000, 4.000000, 4.000000, 0.000000, 4.000000, 4.000000, 4.000000, 4.000000
39.000000, 0.000000, 4434.358887, 6979.486816, 4383.076660, 4480.512695, 4321.538574, 4194.358887, 4219.487305, 4201.538574, 4184.102539, 4303.076660, 4922.563965, 4422.051270, 5394.871582, 7598.974121, 0.000000, 8320.000000, 8102.000000, 0.000000, 0.000000, 0.000000, 22857.000000, 365.641022, 4.000000, 4.000000, 4.000000, 4.000000, 4.000000, 4.000000, 4.000000, 4.000000, 4.000000, 4.000000, 4.000000, 0.000000, 4.000000, 4.000000, 4.000000, 4.000000
40.000000, 0.000000, 4405.641113, 6916.410156, 4388.205078, 4471.281738, 4327.179199, 4193.846191, 4219.487305, 4202.563965, 4191.794922, 4316.410156, 4925.127930, 4410.256348, 5398.974121, 7599.486816, 0.000000, 8320.000000, 8102.000000, 0.000000, 0.000000, 0.000000, 22857.000000, 373.333313, 4.000000, 4.000000, 4.000000, 4.000000, 4.000000, 4.000000, 4.000000, 4.000000, 4.000000, 4.000000, 4.000000, 0.000000, 4.000000, 4.000000, 4.000000, 4.000000
41.000000, 0.000000, 4399.487305, 6837.948730, 4397.948730, 4483.076660, 4326.666504, 4192.820313, 4215.897461, 4201.538574, 4200.512695, 4322.051270, 4924.615234, 4413.846191, 5394.871582, 7599.486816, 0.000000, 8297.000000, 8045.000000, 0.000000, 0.000000, 0.000000, 22857.000000, 381.538452, 4.000000, 4.000000, 4.000000, 4.000000, 4.000000, 4.000000, 4.000000, 4.000000, 4.000000, 4.000000, 4.000000, 0.000000, 4.000000, 4.000000, 4.000000, 4.000000
42.000000, 0.000000, 4386.153809, 6761.025391, 4396.410156, 4491.281738, 4324.615234, 4198.461426, 4221.025391, 4202.051270, 4205.127930, 4326.153809, 4924.102539, 4418.974121, 5391.794922, 7598.974121, 0.000000, 8297.000000, 8045.000000, 0.000000, 0.000000, 0.000000, 22857.000000, 389.230774, 4.000000, 4.000000, 4.000000, 4.000000, 4.000000, 4.000000, 4.000000, 4.000000, 4.000000, 4.000000, 4.000000, 0.000000, 4.000000, 4.000000, 4.000000, 4.000000
43.000000, 0.000000, 4369.743652, 6693.333008, 4394.358887, 4486.153809, 4324.615234, 4193.846191, 4212.307617, 4202.051270, 4203.076660, 4329.230469, 4914.358887, 4412.307617, 5377.948730, 7599.486816, 0.000000, 8294.000000, 8017.000000, 0.000000, 0.000000, 0.000000, 22857.000000, 397.435883, 4.000000, 4.000000, 4.000000, 4.000000, 4.000000, 4.000000, 4.000000, 4.000000, 4.000000, 4.000000, 4.000000, 0.000000, 4.000000, 4.000000, 4.000000, 4.000000
44.000000, 0.000000, 4372.307617, 6633.846191, 4391.794922, 4491.794922, 4323.589844, 4180.000000, 4196.922852, 4200.000000, 4202.051270, 4324.615234, 4898.461426, 4401.025391, 5356.410156, 7598.974121, 0.000000, 8294.000000, 8017.000000, 0.000000, 0.000000, 0.000000, 22857.000000, 405.128204, 4.000000, 4.000000, 4.000000, 4.000000, 4.000000, 4.000000, 4.000000, 4.000000, 4.000000, 4.000000, 4.000000, 0.000000, 4.000000, 4.000000, 4.000000, 4.000000
45.000000, 0.000000, 4362.563965, 6569.743652, 4388.717773, 4499.487305, 4321.538574, 4180.000000, 4196.922852, 4198.974121, 4202.563965, 4317.948730, 4890.769043, 4389.743652, 5341.538574, 7599.486816, 0.000000, 8296.000000, 7988.000000, 0.000000, 0.000000, 0.000000, 22857.000000, 412.820496, 4.000000, 4.000000, 4.000000, 4.000000, 4.000000, 4.000000, 4.000000, 4.000000, 4.000000, 4.000000, 4.000000, 0.000000, 4.000000, 4.000000, 4.000000, 4.000000
46.000000, 0.000000, 4335.384277, 6490.256348, 4389.230469, 4502.051270, 4317.436035, 4186.666504, 4201.025391, 4200.000000, 4204.102539, 4320.000000, 4885.127930, 4386.153809, 5328.205078, 7599.486816, 0.000000, 8296.000000, 7988.000000, 0.000000, 0.000000, 0.000000, 22857.000000, 421.025635, 4.000000, 4.000000, 4.000000, 4.000000, 4.000000, 4.000000, 4.000000, 4.000000, 4.000000, 4.000000, 4.000000, 0.000000, 4.000000, 4.000000, 4.000000, 4.000000
47.000000, 0.000000, 4314.871582, 6401.538086, 4387.692383, 4507.179199, 4314.871582, 4181.538574, 4199.487305, 4201.025391, 4209.743652, 4327.179199, 4871.281738, 4383.076660, 5302.051270, 7598.974121, 0.000000, 8294.000000, 7918.000000, 0.000000, 0.000000, 0.000000, 22857.000000, 428.717926, 4.000000, 4.000000, 4.000000, 4.000000, 4.000000, 4.000000, 4.000000, 4.000000, 4.000000, 4.000000, 4.000000, 0.000000, 4.000000, 4.000000, 4.000000, 4.000000
48.000000, 0.000000, 4289.743652, 6295.384277, 4377.948730, 4508.717773, 4312.820313, 4180.512695, 4202.051270, 4200.512695, 4213.846191, 4328.205078, 4852.307617, 4374.358887, 5264.102539, 7599.486816, 0.000000, 8294.000000, 7918.000000, 0.000000, 0.000000, 0.000000, 22857.000000, 436.923065, 4.000000, 4.000000, 4.000000, 4.000000, 4.000000, 4.000000, 4.000000, 4.000000, 4.000000, 4.000000, 4.000000, 0.000000, 4.000000, 4.000000, 4.000000, 4.000000
49.000000, 0.000000, 4249.743652, 6166.153809, 4372.820313, 4504.615234, 4311.281738, 4185.127930, 4206.666504, 4201.538574, 4214.358887, 4325.641113, 4825.127930, 4366.666504, 5225.641113, 7599.486816, 0.000000, 8302.000000, 7876.000000, 0.000000, 0.000000, 0.000000, 22857.000000, 444.615387, 4.000000, 4.000000, 4.000000, 4.000000, 4.000000, 4.000000, 4.000000, 4.000000, 4.000000, 4.000000, 4.000000, 0.000000, 4.000000, 4.000000, 4.000000, 4.000000
50.000000, 0.000000, 4220.512695, 6012.307617, 4373.846191, 4505.127930, 4314.358887, 4186.153809, 4208.205078, 4201.538574, 4215.897461, 4328.205078, 4782.051270, 4361.538574, 5182.563965, 7599.486816, 0.000000, 8302.000000, 7876.000000, 0.000000, 0.000000, 0.000000, 22857.000000, 452.820496, 4.000000, 4.000000, 4.000000, 4.000000, 4.000000, 4.000000, 4.000000, 4.000000, 4.000000, 4.000000, 4.000000, 0.000000, 4.000000, 4.000000, 4.000000, 4.000000
51.000000, 0.000000, 4192.820313, 5814.871582, 4369.743652, 4508.717773, 4318.974121, 4186.153809, 4213.333008, 4200.512695, 4217.436035, 4327.179199, 4725.641113, 4353.333008, 5128.205078, 7599.486816, 0.000000, 8322.000000, 7785.000000, 0.000000, 0.000000, 0.000000, 22857.000000, 460.512817, 4.000000, 4.000000, 4.000000, 4.000000, 4.000000, 4.000000, 4.000000, 4.000000, 4.000000, 4.000000, 4.000000, 0.000000, 4.000000, 4.000000, 4.000000, 4.000000
52.000000, 0.000000, 4151.281738, 5579.486816, 4363.589844, 4505.641113, 4321.025391, 4188.205078, 4223.589844, 4200.512695, 4215.384277, 4315.897461, 4663.589844, 4342.563965, 5070.769043, 7598.974121, 0.000000, 8322.000000, 7785.000000, 0.000000, 0.000000, 0.000000, 22857.000000, 468.205109, 4.000000, 4.000000, 4.000000, 4.000000, 4.000000, 4.000000, 4.000000, 4.000000, 4.000000, 4.000000, 4.000000, 0.000000, 4.000000, 4.000000, 4.000000, 4.000000
53.000000, 0.000000, 4105.127930, 5325.641113, 4364.615234, 4501.538574, 4325.641113, 4187.179199, 4224.615234, 4201.538574, 4214.871582, 4309.230469, 4600.000000, 4331.281738, 5021.538574, 7599.486816, 0.000000, 8332.000000, 7734.000000, 0.000000, 0.000000, 0.000000, 22857.000000, 476.410248, 4.000000, 4.000000, 4.000000, 4.000000, 4.000000, 4.000000, 4.000000, 4.000000, 4.000000, 4.000000, 4.000000, 0.000000, 4.000000, 4.000000, 4.000000, 4.000000
54.000000, 0.000000, 4056.923096, 5020.512695, 4368.205078, 4496.922852, 4329.743652, 4187.692383, 4220.512695, 4201.025391, 4222.563965, 4312.820313, 4534.358887, 4319.487305, 4983.076660, 7599.486816, 0.000000, 8332.000000, 7734.000000, 0.000000, 0.000000, 0.000000, 22857.000000, 484.615387, 4.000000, 4.000000, 4.000000, 4.000000, 4.000000, 4.000000, 4.000000, 4.000000, 4.000000, 4.000000, 4.000000, 0.000000, 4.000000, 4.000000, 4.000000, 4.000000
55.000000, 0.000000, 4012.307617, 4656.922852, 4358.974121, 4487.179199, 4326.153809, 4191.794922, 4220.512695, 4201.025391, 4229.743652, 4314.358887, 4464.102539, 4312.820313, 4940.512695, 7598.974121, 0.000000, 8348.000000, 7663.000000, 0.000000, 0.000000, 0.000000, 22857.000000, 492.307678, 4.000000, 4.000000, 4.000000, 4.000000, 4.000000, 4.000000, 4.000000, 4.000000, 4.000000, 4.000000, 4.000000, 0.000000, 4.000000, 4.000000, 4.000000, 4.000000
56.000000, 0.000000, 3978.461426, 4292.307617, 4346.153809, 4474.358887, 4326.666504, 4193.333008, 4216.410156, 4201.025391, 4231.794922, 4310.256348, 4391.281738, 4300.000000, 4887.179199, 7599.486816, 0.000000, 8348.000000, 7663.000000, 0.000000, 0.000000, 0.000000, 22857.000000, 500.000000, 4.000000, 4.000000, 4.000000, 4.000000, 4.000000, 4.000000, 4.000000, 4.000000, 4.000000, 4.000000, 4.000000, 0.000000, 4.000000, 4.000000, 4.000000, 4.000000
57.000000, 0.000000, 3971.281982, 3961.025635, 4343.589844, 4466.153809, 4341.538574, 4196.922852, 4215.897461, 4201.538574, 4231.794922, 4311.281738, 4314.358887, 4269.743652, 4851.281738, 7599.486816, 0.000000, 8355.000000, 7661.000000, 0.000000, 0.000000, 0.000000, 22857.000000, 508.205109, 4.000000, 4.000000, 4.000000, 4.000000, 4.000000, 4.000000, 4.000000, 4.000000, 4.000000, 4.000000, 4.000000, 0.000000, 4.000000, 4.000000, 4.000000, 4.000000
58.000000, 0.000000, 3984.102539, 3664.615234, 4336.410156, 4451.281738, 4345.127930, 4209.230469, 4227.179199, 4202.563965, 4231.281738, 4312.307617, 4225.641113, 4240.512695, 4832.307617, 7598.974121, 0.000000, 8355.000000, 7661.000000, 0.000000, 0.000000, 0.000000, 22857.000000, 515.897400, 4.000000, 4.000000, 4.000000, 4.000000, 4.000000, 4.000000, 4.000000, 4.000000, 4.000000, 4.000000, 4.000000, 0.000000, 4.000000, 4.000000, 4.000000, 4.000000
59.000000, 0.000000, 3989.230713, 3410.769043, 4310.769043, 4428.205078, 4333.846191, 4218.974121, 4235.384277, 4202.563965, 4236.410156, 4307.179199, 4127.692383, 4151.794922, 4805.641113, 7599.486816, 0.000000, 8363.000000, 7675.000000, 0.000000, 0.000000, 0.000000, 22857.000000, 524.102539, 4.000000, 4.000000, 4.000000, 4.000000, 4.000000, 4.000000, 4.000000, 4.000000, 4.000000, 4.000000, 4.000000, 0.000000, 4.000000, 4.000000, 4.000000, 4.000000
60.000000, 0.000000, 3982.563965, 3203.589600, 4283.076660, 4416.410156, 4342.563965, 4220.512695, 4235.897461, 4202.563965, 4248.717773, 4307.179199, 4038.974365, 3958.974365, 4778.461426, 7599.486816, 0.000000, 8363.000000, 7675.000000, 0.000000, 0.000000, 0.000000, 22857.000000, 531.794861, 4.000000, 4.000000, 4.000000, 4.000000, 4.000000, 4.000000, 4.000000, 4.000000, 4.000000, 4.000000, 4.000000, 0.000000, 4.000000, 4.000000, 4.000000, 4.000000
61.000000, 0.000000, 3969.743408, 3025.640869, 4257.436035, 4411.281738, 4354.358887, 4225.127930, 4242.051270, 4202.563965, 4253.846191, 4313.333008, 3964.102539, 3780.512695, 4760.512695, 7596.410156, 0.000000, 8384.000000, 7730.000000, 0.000000, 0.000000, 0.000000, 22857.000000, 540.000000, 4.000000, 4.000000, 4.000000, 4.000000, 4.000000, 4.000000, 4.000000, 4.000000, 4.000000, 4.000000, 4.000000, 0.000000, 4.000000, 4.000000, 4.000000, 4.000000
62.000000, 0.000000, 3962.051270, 2868.717773, 4223.076660, 4396.410156, 4342.563965, 4229.743652, 4250.256348, 4202.051270, 4248.205078, 4312.820313, 3889.230713, 3703.589600, 4733.846191, 7595.384277, 0.000000, 8384.000000, 7730.000000, 0.000000, 0.000000, 0.000000, 22857.000000, 547.692322, 4.000000, 4.000000, 4.000000, 4.000000, 4.000000, 4.000000, 4.000000, 4.000000, 4.000000, 4.000000, 4.000000, 0.000000, 4.000000, 4.000000, 4.000000, 4.000000
63.000000, 0.000000, 3964.615234, 2728.717773, 4191.281738, 4383.589844, 4341.025391, 4231.794922, 4249.230469, 4201.538574, 4252.307617, 4309.743652, 3827.179443, 3666.153809, 4701.538574, 7598.461426, 0.000000, 8397.000000, 7773.000000, 0.000000, 0.000000, 0.000000, 22857.000000, 555.897400, 4.000000, 4.000000, 4.000000, 4.000000, 4.000000, 4.000000, 4.000000, 4.000000, 4.000000, 4.000000, 4.000000, 0.000000, 4.000000, 4.000000, 4.000000, 4.000000
64.000000, 0.000000, 3972.307617, 2587.692139, 4166.153809, 4376.922852, 4355.897461, 4238.974121, 4244.615234, 4202.563965, 4263.589844, 4312.307617, 3786.153809, 3635.384521, 4684.615234, 7601.538086, 3542.000000, 8397.000000, 7773.000000, 0.000000, 0.000000, 0.000000, 22857.000000, 563.589722, 4.000000, 4.000000, 4.000000, 4.000000, 4.000000, 4.000000, 4.000000, 4.000000, 4.000000, 4.000000, 4.000000, 0.000000, 4.000000, 4.000000, 4.000000, 4.000000
65.000000, 0.000000, 3987.692139, 2450.769287, 4132.820313, 4366.666504, 4353.846191, 4247.692383, 4241.538574, 4202.563965, 4261.025391, 4306.666504, 3740.000000, 3624.102539, 4670.256348, 7601.538086, 3528.000000, 8414.000000, 7828.000000, 0.000000, 0.000000, 0.000000, 22857.000000, 571.282043, 4.000000, 4.000000, 4.000000, 4.000000, 4.000000, 4.000000, 4.000000, 4.000000, 4.000000, 4.000000, 4.000000, 0.000000, 4.000000, 4.000000, 4.000000, 4.000000
66.000000, 0.000000, 4002.051270, 2341.025635, 4091.794678, 4355.897461, 4344.615234, 4245.641113, 4233.846191, 4199.487305, 4249.743652, 4293.333008, 3689.230713, 3610.769043, 4652.307617, 7600.000000, 2039.000000, 8414.000000, 7828.000000, 0.000000, 0.000000, 0.000000, 22857.000000, 579.487183, 4.000000, 4.000000, 4.000000, 4.000000, 4.000000, 4.000000, 4.000000, 4.000000, 4.000000, 4.000000, 4.000000, 0.000000, 4.000000, 4.000000, 4.000000, 4.000000
67.000000, 0.000000, 4000.512695, 2254.358887, 4044.102539, 4351.281738, 4347.179199, 4235.897461, 4222.051270, 4197.948730, 4246.153809, 4293.333008, 3658.974365, 3598.974365, 4645.641113, 7598.974121, 2407.000000, 8421.000000, 7844.000000, 0.000000, 0.000000, 0.000000, 22857.000000, 587.179443, 4.000000, 4.000000, 4.000000, 4.000000, 4.000000, 4.000000, 4.000000, 4.000000, 4.000000, 4.000000, 4.000000, 0.000000, 4.000000, 4.000000, 4.000000, 4.000000
68.000000, 0.000000, 4007.179443, 2156.923096, 3999.487061, 4342.563965, 4346.153809, 4231.794922, 4216.922852, 4201.025391, 4246.153809, 4295.384277, 3638.461426, 3595.897461, 4639.487305, 7600.512695, 3454.000000, 8421.000000, 7844.000000, 0.000000, 0.000000, 0.000000, 22857.000000, 594.871765, 4.000000, 4.000000, 4.000000, 4.000000, 4.000000, 4.000000, 4.000000, 4.000000, 4.000000, 4.000000, 4.000000, 0.000000, 4.000000, 4.000000, 4.000000, 4.000000
69.000000, 0.000000, 4036.923096, 2052.820557, 3973.845947, 4330.256348, 4333.846191, 4232.307617, 4216.922852, 4201.538574, 4249.743652, 4286.153809, 3616.923096, 3587.179443, 4622.051270, 7603.076660, 3565.000000, 8426.000000, 7856.000000, 0.000000, 0.000000, 0.000000, 22857.000000, 603.076904, 4.000000, 4.000000, 4.000000, 4.000000, 4.000000, 4.000000, 4.000000, 4.000000, 4.000000, 4.000000, 4.000000, 0.000000, 4.000000, 4.000000, 4.000000, 4.000000
70.000000, 0.000000, 4057.435791, 1960.512817, 3961.538330, 4325.127930, 4326.153809, 4231.794922, 4215.897461, 4200.000000, 4257.948730, 4280.512695, 3607.179443, 3583.076904, 4615.384277, 7600.512695, 2461.000000, 8426.000000, 7856.000000, 0.000000, 0.000000, 0.000000, 22857.000000, 610.769226, 4.000000, 4.000000, 4.000000, 4.000000, 4.000000, 4.000000, 4.000000, 4.000000, 4.000000, 4.000000, 4.000000, 0.000000, 4.000000, 4.000000, 4.000000, 4.000000
71.000000, 0.000000, 4048.205078, 1874.871704, 3945.128174, 4321.025391, 4330.769043, 4231.281738, 4222.051270, 4201.538574, 4257.436035, 4279.487305, 3600.512695, 3579.487061, 4618.974121, 7594.871582, 750.000000, 8426.000000, 7872.000000, 0.000000, 0.000000, 0.000000, 22857.000000, 618.974365, 4.000000, 4.000000, 4.000000, 4.000000, 4.000000, 4.000000, 4.000000, 4.000000, 4.000000, 4.000000, 4.000000, 0.000000, 4.000000, 4.000000, 4.000000, 4.000000
72.000000, 0.000000, 4032.820313, 1794.871704, 3924.615234, 4308.205078, 4325.641113, 4232.307617, 4229.743652, 4204.102539, 4247.692383, 4267.179199, 3583.589600, 3563.076904, 4604.102539, 7603.589355, 3588.000000, 8426.000000, 7872.000000, 0.000000, 0.000000, 0.000000, 22857.000000, 626.666626, 4.000000, 4.000000, 4.000000, 4.000000, 4.000000, 4.000000, 4.000000, 4.000000, 4.000000, 4.000000, 4.000000, 0.000000, 4.000000, 4.000000, 4.000000, 4.000000
73.000000, 0.000000, 4037.948730, 1722.051270, 3906.666504, 4295.897461, 4314.871582, 4231.794922, 4225.127930, 4203.076660, 4244.102539, 4250.769043, 3569.743408, 3542.051270, 4587.692383, 7604.615234, 3529.000000, 8427.000000, 7880.000000, 0.000000, 0.000000, 0.000000, 22857.000000, 634.871765, 4.000000, 4.000000, 4.000000, 4.000000, 4.000000, 4.000000, 4.000000, 4.000000, 4.000000, 4.000000, 4.000000, 0.000000, 4.000000, 4.000000, 4.000000, 4.000000
74.000000, 0.000000, 4046.153809, 1668.717896, 3893.845947, 4291.794922, 4318.461426, 4231.794922, 4223.589844, 4202.563965, 4247.692383, 4247.179199, 3563.589600, 3537.948730, 4585.127930, 7574.358887, 2466.000000, 8427.000000, 7880.000000, 0.000000, 0.000000, 0.000000, 22857.000000, 642.564087, 4.000000, 4.000000, 4.000000, 4.000000, 4.000000, 4.000000, 4.000000, 4.000000, 4.000000, 4.000000, 4.000000, 0.000000, 4.000000, 4.000000, 4.000000, 4.000000
75.000000, 0.000000, 4052.307617, 1643.076904, 3892.307617, 4281.025391, 4322.563965, 4233.846191, 4234.358887, 4203.076660, 4248.717773, 4247.179199, 3556.923096, 3551.794678, 4579.487305, 7568.205078, 0.000000, 8414.000000, 7909.000000, 0.000000, 0.000000, 0.000000, 22857.000000, 650.769226, 4.000000, 4.000000, 4.000000, 4.000000, 4.000000, 4.000000, 4.000000, 4.000000, 4.000000, 4.000000, 4.000000, 0.000000, 4.000000, 4.000000, 4.000000, 4.000000
76.000000, 0.000000, 4061.538330, 1613.846069, 3894.358887, 4264.102539, 4312.307617, 4232.820313, 4230.769043, 4201.538574, 4247.179199, 4235.384277, 3555.384521, 3560.512695, 4569.230469, 7599.486816, 3612.000000, 8414.000000, 7909.000000, 0.000000, 0.000000, 0.000000, 22857.000000, 658.461548, 4.000000, 4.000000, 4.000000, 4.000000, 4.000000, 4.000000, 4.000000, 4.000000, 4.000000, 4.000000, 4.000000, 0.000000, 4.000000, 4.000000, 4.000000, 4.000000
77.000000, 0.000000, 4064.615234, 1566.153809, 3886.153809, 4258.461426, 4306.153809, 4226.666504, 4215.897461, 4201.025391, 4244.615234, 4228.205078, 3554.871826, 3554.358887, 4567.692383, 7607.179199, 3493.000000, 8404.000000, 7911.000000, 0.000000, 0.000000, 0.000000, 22857.000000, 666.153809, 4.000000, 4.000000, 4.000000, 4.000000, 4.000000, 4.000000, 4.000000, 4.000000, 4.000000, 4.000000, 4.000000, 0.000000, 4.000000, 4.000000, 4.000000, 4.000000
78.000000, 0.000000, 4068.205078, 1536.923096, 3878.974365, 4262.051270, 4313.846191, 4230.769043, 4222.051270, 4202.563965, 4247.692383, 4240.512695, 3552.307617, 3551.794678, 4568.717773, 7598.974121, 2466.000000, 8404.000000, 7911.000000, 0.000000, 0.000000, 0.000000, 22857.000000, 674.358948, 4.000000, 4.000000, 4.000000, 4.000000, 4.000000, 4.000000, 4.000000, 4.000000, 4.000000, 4.000000, 4.000000, 0.000000, 4.000000, 4.000000, 4.000000, 4.000000
79.000000, 0.000000, 4071.281982, 1522.564087, 3882.051270, 4260.512695, 4314.871582, 4240.512695, 4231.281738, 4202.051270, 4253.333008, 4248.717773, 3555.897461, 3556.923096, 4562.051270, 7598.461426, 0.000000, 8386.000000, 7896.000000, 0.000000, 0.000000, 0.000000, 22857.000000, 682.051270, 4.000000, 4.000000, 4.000000, 4.000000, 4.000000, 4.000000, 4.000000, 4.000000, 4.000000, 4.000000, 4.000000, 0.000000, 4.000000, 4.000000, 4.000000, 4.000000
80.000000, 0.000000, 4071.281982, 1489.743530, 3884.615234, 4253.846191, 4309.743652, 4238.974121, 4223.589844, 4200.512695, 4249.743652, 4233.333008, 3558.974365, 3556.410156, 4554.871582, 7585.640625, 3612.000000, 8386.000000, 7896.000000, 0.000000, 0.000000, 0.000000, 22857.000000, 690.256409, 4.000000, 4.000000, 4.000000, 4.000000, 4.000000, 4.000000, 4.000000, 4.000000, 4.000000, 4.000000, 4.000000, 0.000000, 4.000000, 4.000000, 4.000000, 4.000000
81.000000, 0.000000, 4073.845947, 1462.564087, 3880.000000, 4249.230469, 4310.769043, 4235.384277, 4217.436035, 4201.538574, 4249.230469, 4222.563965, 3558.461426, 3556.923096, 4553.846191, 7586.153809, 3493.000000, 8331.000000, 7824.000000, 0.000000, 0.000000, 0.000000, 22857.000000, 697.948730, 4.000000, 4.000000, 4.000000, 4.000000, 4.000000, 4.000000, 4.000000, 4.000000, 4.000000, 4.000000, 4.000000, 0.000000, 4.000000, 4.000000, 4.000000, 4.000000
82.000000, 0.000000, 4078.461426, 1454.358887, 3881.025635, 4249.230469, 4312.820313, 4244.102539, 4222.563965, 4203.589844, 4262.051270, 4231.281738, 3568.205078, 3570.256348, 4557.948730, 7592.307617, 2466.000000, 8331.000000, 7824.000000, 0.000000, 0.000000, 0.000000, 22857.000000, 705.640991, 4.000000, 4.000000, 4.000000, 4.000000, 4.000000, 4.000000, 4.000000, 4.000000, 4.000000, 4.000000, 4.000000, 0.000000, 4.000000, 4.000000, 4.000000, 4.000000
83.000000, 0.000000, 4083.589600, 1433.333252, 3883.589600, 4247.179199, 4310.769043, 4249.230469, 4227.692383, 4203.076660, 4267.692383, 4235.897461, 3584.102539, 3579.487061, 4556.922852, 7526.153809, 0.000000, 8304.000000, 7788.000000, 0.000000, 0.000000, 0.000000, 22857.000000, 713.846130, 4.000000, 4.000000, 4.000000, 4.000000, 4.000000, 4.000000, 4.000000, 4.000000, 4.000000, 4.000000, 4.000000, 0.000000, 4.000000, 4.000000, 4.000000, 4.000000
84.000000, 0.000000, 4084.102539, 1411.281982, 3882.563965, 4238.974121, 4308.205078, 4245.641113, 4224.102539, 4203.589844, 4266.153809, 4231.281738, 3589.230713, 3575.384521, 4550.256348, 7474.871582, 3612.000000, 8304.000000, 7788.000000, 0.000000, 0.000000, 0.000000, 22857.000000, 721.538452, 4.000000, 4.000000, 4.000000, 4.000000, 4.000000, 4.000000, 4.000000, 4.000000, 4.000000, 4.000000, 4.000000, 0.000000, 4.000000, 4.000000, 4.000000, 4.000000
85.000000, 0.000000, 4083.589600, 1408.717896, 3885.128174, 4233.846191, 4308.205078, 4245.127930, 4222.051270, 4205.127930, 4270.769043, 4231.281738, 3591.794678, 3574.358887, 4540.512695, 7453.846191, 3493.000000, 8251.000000, 7723.000000, 0.000000, 0.000000, 0.000000, 22857.000000, 729.230774, 4.000000, 4.000000, 4.000000, 4.000000, 4.000000, 4.000000, 4.000000, 4.000000, 4.000000, 4.000000, 4.000000, 0.000000, 4.000000, 4.000000, 4.000000, 4.000000
86.000000, 0.000000, 4086.666504, 1411.281982, 3891.281982, 4233.846191, 4308.717773, 4249.743652, 4226.666504, 4204.615234, 4271.794922, 4233.333008, 3601.538330, 3573.333252, 4529.743652, 7314.871582, 2466.000000, 8251.000000, 7723.000000, 0.000000, 0.000000, 0.000000, 22857.000000, 737.435852, 4.000000, 4.000000, 4.000000, 4.000000, 4.000000, 4.000000, 4.000000, 4.000000, 4.000000, 4.000000, 4.000000, 0.000000, 4.000000, 4.000000, 4.000000, 4.000000
87.000000, 0.000000, 4091.794678, 1410.769165, 3894.358887, 4230.769043, 4310.256348, 4254.358887, 4229.743652, 4203.076660, 4265.127930, 4233.333008, 3607.692139, 3560.000000, 4521.538574, 7187.179199, 0.000000, 8221.000000, 7699.000000, 0.000000, 0.000000, 0.000000, 22857.000000, 745.128174, 4.000000, 4.000000, 4.000000, 4.000000, 4.000000, 4.000000, 4.000000, 4.000000, 4.000000, 4.000000, 4.000000, 0.000000, 4.000000, 4.000000, 4.000000, 4.000000
88.000000, 0.000000, 4094.871582, 1402.564087, 3896.923096, 4222.563965, 4309.743652, 4256.922852, 4230.256348, 4203.076660, 4264.615234, 4229.743652, 3607.179443, 3551.794678, 4509.743652, 7237.948730, 3612.000000, 8221.000000, 7699.000000, 0.000000, 0.000000, 0.000000, 22857.000000, 752.820496, 4.000000, 4.000000, 4.000000, 4.000000, 4.000000, 4.000000, 4.000000, 4.000000, 4.000000, 4.000000, 4.000000, 0.000000, 4.000000, 4.000000, 4.000000, 4.000000
89.000000, 0.000000, 4087.692139, 1388.205078, 3896.923096, 4213.333008, 4306.153809, 4254.358887, 4227.692383, 4202.563965, 4265.127930, 4224.102539, 3604.615234, 3554.871826, 4490.769043, 7283.589355, 3493.000000, 8177.000000, 7658.000000, 0.000000, 0.000000, 0.000000, 22857.000000, 761.025635, 4.000000, 4.000000, 4.000000, 4.000000, 4.000000, 4.000000, 4.000000, 4.000000, 4.000000, 4.000000, 4.000000, 0.000000, 4.000000, 4.000000, 4.000000, 4.000000
90.000000, 0.000000, 4089.230713, 1382.564087, 3894.871582, 4205.127930, 4307.179199, 4250.769043, 4226.153809, 4202.051270, 4255.897461, 4218.461426, 3604.615234, 3556.410156, 4475.897461, 7216.410156, 2466.000000, 8177.000000, 7658.000000, 0.000000, 0.000000, 0.000000, 22857.000000, 768.717957, 4.000000, 4.000000, 4.000000, 4.000000, 4.000000, 4.000000, 4.000000, 4.000000, 4.000000, 4.000000, 4.000000, 0.000000, 4.000000, 4.000000, 4.000000, 4.000000
91.000000, 0.000000, 4107.692383, 1387.179443, 3902.563965, 4204.102539, 4309.743652, 4250.769043, 4225.641113, 4202.051270, 4247.692383, 4217.948730, 3606.666504, 3563.589600, 4473.333008, 7166.153809, 0.000000, 8161.000000, 7644.000000, 0.000000, 0.000000, 0.000000, 22857.000000, 776.923035, 4.000000, 4.000000, 4.000000, 4.000000, 4.000000, 4.000000, 4.000000, 4.000000, 4.000000, 4.000000, 4.000000, 0.000000, 4.000000, 4.000000, 4.000000, 4.000000
92.000000, 0.000000, 4114.358887, 1388.205078, 3912.307617, 4205.641113, 4306.153809, 4255.897461, 4224.102539, 4201.025391, 4247.692383, 4220.512695, 3610.769043, 3574.871826, 4469.743652, 7124.615234, 3612.000000, 8161.000000, 7644.000000, 0.000000, 0.000000, 0.000000, 22857.000000, 784.615356, 4.000000, 4.000000, 4.000000, 4.000000, 4.000000, 4.000000, 4.000000, 4.000000, 4.000000, 4.000000, 4.000000, 0.000000, 4.000000, 4.000000, 4.000000, 4.000000
93.000000, 0.000000, 4106.666504, 1382.051270, 3905.128174, 4197.948730, 4297.948730, 4259.487305, 4225.127930, 4201.538574, 4247.179199, 4218.461426, 3606.153809, 3574.871826, 4453.846191, 7044.102539, 3493.000000, 8151.000000, 7623.000000, 0.000000, 0.000000, 0.000000, 22857.000000, 792.307678, 4.000000, 4.000000, 4.000000, 4.000000, 4.000000, 4.000000, 4.000000, 4.000000, 4.000000, 4.000000, 4.000000, 0.000000, 4.000000, 4.000000, 4.000000, 4.000000
94.000000, 0.000000, 4101.538574, 1371.794800, 3895.897461, 4185.641113, 4294.871582, 4260.512695, 4227.179199, 4202.563965, 4247.179199, 4213.846191, 3592.307617, 3569.743408, 4433.846191, 7000.512695, 2466.000000, 8151.000000, 7623.000000, 0.000000, 0.000000, 0.000000, 22857.000000, 800.512817, 4.000000, 4.000000, 4.000000, 4.000000, 4.000000, 4.000000, 4.000000, 4.000000, 4.000000, 4.000000, 4.000000, 0.000000, 4.000000, 4.000000, 4.000000, 4.000000
95.000000, 0.000000, 4104.102539, 1371.281982, 3898.974365, 4184.102539, 4296.410156, 4257.436035, 4226.153809, 4200.512695, 4247.692383, 4215.384277, 3588.717773, 3572.820313, 4428.205078, 6964.102539, 0.000000, 8142.000000, 7567.000000, 0.000000, 0.000000, 0.000000, 22857.000000, 808.205078, 4.000000, 4.000000, 4.000000, 4.000000, 4.000000, 4.000000, 4.000000, 4.000000, 4.000000, 4.000000, 4.000000, 0.000000, 4.000000, 4.000000, 4.000000, 4.000000
96.000000, 0.000000, 4108.205078, 1379.487183, 3900.512695, 4182.563965, 4293.333008, 4251.281738, 4221.538574, 4206.666504, 4250.256348, 4220.000000, 3590.769043, 3575.897461, 4429.230469, 6896.410156, 3612.000000, 8142.000000, 7567.000000, 0.000000, 0.000000, 0.000000, 22857.000000, 815.897400, 4.000000, 4.000000, 4.000000, 4.000000, 4.000000, 4.000000, 4.000000, 4.000000, 4.000000, 4.000000, 4.000000, 0.000000, 4.000000, 4.000000, 4.000000, 4.000000
97.000000, 0.000000, 4108.205078, 1374.871704, 3901.025635, 4172.307617, 4289.230469, 4253.333008, 4226.666504, 4212.820313, 4259.487305, 4219.487305, 3578.974365, 3575.897461, 4414.358887, 6846.153809, 3493.000000, 8147.000000, 7541.000000, 0.000000, 0.000000, 0.000000, 22857.000000, 824.102539, 4.000000, 4.000000, 4.000000, 4.000000, 4.000000, 4.000000, 4.000000, 4.000000, 4.000000, 4.000000, 4.000000, 0.000000, 4.000000, 4.000000, 4.000000, 4.000000
98.000000, 0.000000, 4112.820313, 1373.846069, 3907.179443, 4169.230469, 4287.692383, 4260.512695, 4235.897461, 4211.281738, 4261.538574, 4216.922852, 3574.358887, 3582.563965, 4401.538574, 6817.435547, 2466.000000, 8147.000000, 7541.000000, 0.000000, 0.000000, 0.000000, 22857.000000, 831.794861, 4.000000, 4.000000, 4.000000, 4.000000, 4.000000, 4.000000, 4.000000, 4.000000, 4.000000, 4.000000, 4.000000, 0.000000, 4.000000, 4.000000, 4.000000, 4.000000
99.000000, 0.000000, 4117.436035, 1386.153809, 3905.640869, 4167.692383, 4283.076660, 4256.410156, 4228.717773, 4211.281738, 4249.743652, 4217.948730, 3586.153809, 3590.769043, 4402.051270, 6757.435547, 0.000000, 8149.000000, 7502.000000, 0.000000, 0.000000, 0.000000, 22857.000000, 840.000000, 4.000000, 4.000000, 4.000000, 4.000000, 4.000000, 4.000000, 4.000000, 4.000000, 4.000000, 4.000000, 4.000000, 0.000000, 4.000000, 4.000000, 4.000000, 4.000000
100.000000, 0.000000, 4115.897461, 1388.205078, 3897.435791, 4150.769043, 4277.948730, 4244.615234, 4218.974121, 4210.769043, 4244.615234, 4216.922852, 3583.589600, 3587.179443, 4390.769043, 6651.281738, 3612.000000, 8149.000000, 7502.000000, 0.000000, 0.000000, 0.000000, 22857.000000, 847.692261, 4.000000, 4.000000, 4.000000, 4.000000, 4.000000, 4.000000, 4.000000, 4.000000, 4.000000, 4.000000, 4.000000, 0.000000, 4.000000, 4.000000, 4.000000, 4.000000
101.000000, 0.000000, 4119.487305, 1381.025635, 3896.410156, 4137.948730, 4273.846191, 4238.461426, 4216.922852, 4211.794922, 4246.153809, 4213.333008, 3567.692139, 3581.538330, 4368.205078, 6565.127930, 3493.000000, 8151.000000, 7487.000000, 0.000000, 0.000000, 0.000000, 22857.000000, 855.897400, 4.000000, 4.000000, 4.000000, 4.000000, 4.000000, 4.000000, 4.000000, 4.000000, 4.000000, 4.000000, 4.000000, 0.000000, 4.000000, 4.000000, 4.000000, 4.000000
102.000000, 0.000000, 4123.589844, 1388.205078, 3898.461426, 4141.025391, 4268.717773, 4239.487305, 4216.410156, 4211.794922, 4235.384277, 4207.692383, 3559.487061, 3585.128174, 4353.846191, 6516.922852, 2466.000000, 8151.000000, 7487.000000, 0.000000, 0.000000, 0.000000, 22857.000000, 863.589722, 4.000000, 4.000000, 4.000000, 4.000000, 4.000000, 4.000000, 4.000000, 4.000000, 4.000000, 4.000000, 4.000000, 0.000000, 4.000000, 4.000000, 4.000000, 4.000000
103.000000, 0.000000, 4123.589844, 1398.461548, 3897.435791, 4135.384277, 4263.076660, 4240.512695, 4215.897461, 4208.717773, 4225.127930, 4203.076660, 3550.769043, 3590.256348, 4347.179199, 6466.153809, 0.000000, 8150.000000, 7459.000000, 0.000000, 0.000000, 0.000000, 22857.000000, 871.282043, 4.000000, 4.000000, 4.000000, 4.000000, 4.000000, 4.000000, 4.000000, 4.000000, 4.000000, 4.000000, 4.000000, 0.000000, 4.000000, 4.000000, 4.000000, 4.000000
104.000000, 0.000000, 4125.127930, 1397.948730, 3903.589600, 4125.127930, 4263.589844, 4242.051270, 4213.846191, 4208.205078, 4230.256348, 4209.230469, 3542.563965, 3591.281982, 4340.512695, 6438.974121, 3612.000000, 8150.000000, 7459.000000, 0.000000, 0.000000, 0.000000, 22857.000000, 879.487183, 4.000000, 4.000000, 4.000000, 4.000000, 4.000000, 4.000000, 4.000000, 4.000000, 4.000000, 4.000000, 4.000000, 0.000000, 4.000000, 4.000000, 4.000000, 4.000000
105.000000, 0.000000, 4126.666504, 1403.589722, 3911.794678, 4123.076660, 4270.256348, 4247.179199, 4215.897461, 4210.256348, 4234.871582, 4214.871582, 3544.615234, 3591.281982, 4331.281738, 6466.153809, 3493.000000, 8151.000000, 7414.000000, 0.000000, 0.000000, 0.000000, 22857.000000, 887.179443, 4.000000, 4.000000, 4.000000, 4.000000, 4.000000, 4.000000, 4.000000, 4.000000, 4.000000, 4.000000, 4.000000, 0.000000, 4.000000, 4.000000, 4.000000, 4.000000
106.000000, 0.000000, 4127.692383, 1421.025635, 3907.179443, 4118.461426, 4273.846191, 4253.333008, 4224.102539, 4210.769043, 4233.333008, 4210.256348, 3543.076904, 3587.692139, 4317.436035, 6473.846191, 2466.000000, 8151.000000, 7414.000000, 0.000000, 0.000000, 0.000000, 22857.000000, 894.871765, 4.000000, 4.000000, 4.000000, 4.000000, 4.000000, 4.000000, 4.000000, 4.000000, 4.000000, 4.000000, 4.000000, 0.000000, 4.000000, 4.000000, 4.000000, 4.000000
107.000000, 0.000000, 4126.153809, 1426.153809, 3897.435791, 4108.717773, 4271.794922, 4250.769043, 4224.102539, 4211.281738, 4231.281738, 4199.487305, 3532.307617, 3586.666504, 4301.538574, 6406.666504, 0.000000, 8149.000000, 7390.000000, 0.000000, 0.000000, 0.000000, 22857.000000, 903.076904, 4.000000, 4.000000, 4.000000, 4.000000, 4.000000, 4.000000, 4.000000, 4.000000, 4.000000, 4.000000, 4.000000, 0.000000, 4.000000, 4.000000, 4.000000, 4.000000
108.000000, 0.000000, 4126.666504, 1417.435913, 3897.435791, 4098.461426, 4265.641113, 4253.333008, 4220.512695, 4216.922852, 4227.692383, 4190.769043, 3518.461426, 3587.692139, 4285.127930, 6365.127930, 3612.000000, 8149.000000, 7390.000000, 0.000000, 0.000000, 0.000000, 22857.000000, 910.769226, 4.000000, 4.000000, 4.000000, 4.000000, 4.000000, 4.000000, 4.000000, 4.000000, 4.000000, 4.000000, 4.000000, 0.000000, 4.000000, 4.000000, 4.000000, 4.000000
109.000000, 0.000000, 4131.794922, 1420.000000, 3911.281982, 4091.794678, 4263.076660, 4260.000000, 4225.641113, 4215.384277, 4232.307617, 4193.846191, 3514.871826, 3586.666504, 4280.000000, 6402.563965, 3493.000000, 8155.000000, 7335.000000, 0.000000, 0.000000, 0.000000, 22857.000000, 918.461487, 4.000000, 4.000000, 4.000000, 4.000000, 4.000000, 4.000000, 4.000000, 4.000000, 4.000000, 4.000000, 4.000000, 0.000000, 4.000000, 4.000000, 4.000000, 4.000000
110.000000, 0.000000, 4134.871582, 1434.358887, 3925.640869, 4093.845947, 4261.025391, 4254.358887, 4227.692383, 4209.743652, 4242.051270, 4203.076660, 3526.153809, 3595.384521, 4278.974121, 6418.461426, 2466.000000, 8155.000000, 7335.000000, 0.000000, 0.000000, 0.000000, 22857.000000, 926.666626, 4.000000, 4.000000, 4.000000, 4.000000, 4.000000, 4.000000, 4.000000, 4.000000, 4.000000, 4.000000, 4.000000, 0.000000, 4.000000, 4.000000, 4.000000, 4.000000
111.000000, 0.000000, 4135.384277, 1439.487183, 3929.743408, 4095.897217, 4254.358887, 4246.153809, 4219.487305, 4209.743652, 4234.358887, 4204.615234, 3528.717773, 3603.076904, 4269.230469, 6355.384277, 0.000000, 8153.000000, 7306.000000, 1.000000, 2.000000, 0.000000, 22857.000000, 934.358948, 4.000000, 4.000000, 4.000000, 4.000000, 4.000000, 4.000000, 4.000000, 4.000000, 4.000000, 4.000000, 4.000000, 0.000000, 4.000000, 4.000000, 4.000000, 4.000000
112.000000, 0.000000, 4128.205078, 1444.102539, 3925.640869, 4091.281982, 4248.205078, 4245.127930, 4213.333008, 4210.769043, 4217.948730, 4200.000000, 3515.384521, 3595.384521, 4260.000000, 6284.615234, 3612.000000, 8153.000000, 7306.000000, 0.000000, 0.000000, 0.000000, 22857.000000, 942.051270, 4.000000, 4.000000, 4.000000, 4.000000, 4.000000, 4.000000, 4.000000, 4.000000, 4.000000, 4.000000, 4.000000, 0.000000, 4.000000, 4.000000, 4.000000, 4.000000
113.000000, 0.000000, 4126.153809, 1460.000000, 3926.666504, 4091.281982, 4247.179199, 4244.102539, 4217.436035, 4214.358887, 4222.051270, 4200.512695, 3515.897461, 3592.820313, 4253.333008, 6234.358887, 3493.000000, 8164.000000, 7275.000000, 0.000000, 0.000000, 0.000000, 22857.000000, 949.743591, 4.000000, 4.000000, 4.000000, 4.000000, 4.000000, 4.000000, 4.000000, 4.000000, 4.000000, 4.000000, 4.000000, 0.000000, 4.000000, 4.000000, 4.000000, 4.000000
114.000000, 0.000000, 4134.358887, 1466.666626, 3936.410156, 4089.230713, 4247.692383, 4242.563965, 4222.563965, 4214.358887, 4233.333008, 4201.025391, 3521.538330, 3604.102539, 4240.512695, 6164.615234, 2466.000000, 8164.000000, 7275.000000, 0.000000, 0.000000, 0.000000, 22857.000000, 957.948669, 4.000000, 4.000000, 4.000000, 4.000000, 4.000000, 4.000000, 4.000000, 4.000000, 4.000000, 4.000000, 4.000000, 0.000000, 4.000000, 4.000000, 4.000000, 4.000000
115.000000, 0.000000, 4140.512695, 1467.692261, 3941.025635, 4081.025635, 4247.179199, 4248.717773, 4222.051270, 4209.743652, 4227.692383, 4198.974121, 3515.384521, 3607.179443, 4230.256348, 6104.102539, 0.000000, 8176.000000, 7285.000000, 0.000000, 0.000000, 0.000000, 22857.000000, 965.640991, 4.000000, 4.000000, 4.000000, 4.000000, 4.000000, 4.000000, 4.000000, 4.000000, 4.000000, 4.000000, 4.000000, 0.000000, 4.000000, 4.000000, 4.000000, 4.000000
116.000000, 0.000000, 4144.615234, 1485.128174, 3940.000000, 4079.487061, 4247.692383, 4258.974121, 4226.666504, 4212.307617, 4218.974121, 4201.025391, 3505.128174, 3598.974365, 4221.538574, 6088.205078, 3612.000000, 8176.000000, 7285.000000, 0.000000, 0.000000, 0.000000, 22857.000000, 973.333313, 4.000000, 4.000000, 4.000000, 4.000000, 4.000000, 4.000000, 4.000000, 4.000000, 4.000000, 4.000000, 4.000000, 0.000000, 4.000000, 4.000000, 4.000000, 4.000000
117.000000, 0.000000, 4144.102539, 1505.640991, 3940.000000, 4076.410156, 4248.717773, 4257.436035, 4229.743652, 4212.307617, 4218.974121, 4198.461426, 3498.461426, 3591.794678, 4206.666504, 6073.846191, 3493.000000, 8186.000000, 7296.000000, 0.000000, 0.000000, 0.000000, 22857.000000, 981.538452, 4.000000, 4.000000, 4.000000, 4.000000, 4.000000, 4.000000, 4.000000, 4.000000, 4.000000, 4.000000, 4.000000, 0.000000, 4.000000, 4.000000, 4.000000, 4.000000
118.000000, 0.000000, 4148.717773, 1507.692261, 3944.102539, 4064.102539, 4245.127930, 4248.205078, 4225.641113, 4209.743652, 4216.922852, 4192.307617, 3491.281982, 3584.102539, 4195.897461, 6024.615234, 2466.000000, 8186.000000, 7296.000000, 0.000000, 0.000000, 0.000000, 22857.000000, 989.230774, 4.000000, 4.000000, 4.000000, 4.000000, 4.000000, 4.000000, 4.000000, 4.000000, 4.000000, 4.000000, 4.000000, 0.000000, 4.000000, 4.000000, 4.000000, 4.000000
119.000000, 0.000000, 4158.461426, 1507.692261, 3949.743408, 4060.000000, 4238.461426, 4247.179199, 4222.563965, 4213.846191, 4215.384277, 4191.794922, 3485.640869, 3570.256348, 4189.230469, 5971.794922, 0.000000, 8189.000000, 7318.000000, 0.000000, 0.000000, 0.000000, 22857.000000, 996.923035, 4.000000, 4.000000, 4.000000, 4.000000, 4.000000, 4.000000, 4.000000, 4.000000, 4.000000, 4.000000, 4.000000, 0.000000, 4.000000, 4.000000, 4.000000, 4.000000
120.000000, 0.000000, 4163.589844, 1529.230713, 3957.948730, 4068.205078, 4242.563965, 4251.281738, 4226.153809, 4215.384277, 4223.076660, 4200.000000, 3488.717773, 3558.974365, 4183.076660, 5948.205078, 3612.000000, 8189.000000, 7318.000000, 0.000000, 0.000000, 0.000000, 22858.000000, 4.615385, 4.000000, 4.000000, 4.000000, 4.000000, 4.000000, 4.000000, 4.000000, 4.000000, 4.000000, 4.000000, 4.000000, 0.000000, 4.000000, 4.000000, 4.000000, 4.000000
121.000000, 0.000000, 4167.179199, 1547.692261, 3968.717773, 4068.717773, 4245.127930, 4248.205078, 4227.692383, 4209.743652, 4230.769043, 4204.102539, 3492.820313, 3553.333252, 4178.974121, 5915.897461, 3493.000000, 8179.000000, 7344.000000, 0.000000, 0.000000, 0.000000, 22858.000000, 12.820513, 4.000000, 4.000000, 4.000000, 4.000000, 4.000000, 4.000000, 4.000000, 4.000000, 4.000000, 4.000000, 4.000000, 0.000000, 4.000000, 4.000000, 4.000000, 4.000000
122.000000, 0.000000, 4166.153809, 1550.769165, 3972.820313, 4061.538330, 4236.922852, 4243.076660, 4225.641113, 4211.281738, 4231.281738, 4201.025391, 3491.281982, 3545.128174, 4173.846191, 5882.563965, 2466.000000, 8179.000000, 7344.000000, 0.000000, 0.000000, 0.000000, 22858.000000, 20.512819, 4.000000, 4.000000, 4.000000, 4.000000, 4.000000, 4.000000, 4.000000, 4.000000, 4.000000, 4.000000, 4.000000, 0.000000, 4.000000, 4.000000, 4.000000, 4.000000
123.000000, 0.000000, 4164.102539, 1561.025635, 3974.358887, 4063.076904, 4237.948730, 4248.205078, 4232.820313, 4218.461426, 4229.230469, 4201.538574, 3489.743408, 3531.794678, 4163.589844, 5926.666504, 0.000000, 8149.000000, 7407.000000, 0.000000, 0.000000, 0.000000, 22858.000000, 28.205128, 4.000000, 4.000000, 4.000000, 4.000000, 4.000000, 4.000000, 4.000000, 4.000000, 4.000000, 4.000000, 4.000000, 0.000000, 4.000000, 4.000000, 4.000000, 4.000000
124.000000, 0.000000, 4167.179199, 1575.384521, 3976.410156, 4065.640869, 4242.563965, 4256.410156, 4243.589844, 4216.410156, 4230.769043, 4204.102539, 3491.794678, 3526.153809, 4154.871582, 6022.051270, 3612.000000, 8149.000000, 7407.000000, 0.000000, 0.000000, 0.000000, 22858.000000, 35.897434, 4.000000, 4.000000, 4.000000, 4.000000, 4.000000, 4.000000, 4.000000, 4.000000, 4.000000, 4.000000, 4.000000, 0.000000, 4.000000, 4.000000, 4.000000, 4.000000
125.000000, 0.000000, 4165.641113, 1585.128174, 3974.358887, 4053.845947, 4235.384277, 4255.897461, 4245.127930, 4208.205078, 4229.743652, 4201.025391, 3490.256348, 3525.640869, 4150.256348, 6084.102539, 3493.000000, 8132.000000, 7431.000000, 0.000000, 0.000000, 0.000000, 22858.000000, 44.102562, 4.000000, 4.000000, 4.000000, 4.000000, 4.000000, 4.000000, 4.000000, 4.000000, 4.000000, 4.000000, 4.000000, 0.000000, 4.000000, 4.000000, 4.000000, 4.000000
126.000000, 0.000000, 4167.692383, 1597.435913, 3973.845947, 4043.589600, 4228.205078, 4249.743652, 4244.615234, 4208.717773, 4222.051270, 4197.948730, 3487.179443, 3523.076904, 4149.230469, 6098.461426, 2466.000000, 8132.000000, 7431.000000, 0.000000, 0.000000, 0.000000, 22858.000000, 51.794872, 4.000000, 4.000000, 4.000000, 4.000000, 4.000000, 4.000000, 4.000000, 4.000000, 4.000000, 4.000000, 4.000000, 0.000000, 4.000000, 4.000000, 4.000000, 4.000000
127.000000, 0.000000, 4172.307617, 1608.717896, 3985.128174, 4048.205078, 4227.692383, 4249.230469, 4245.127930, 4213.333008, 4217.436035, 4195.384277, 3493.333252, 3527.692139, 4152.820313, 6035.897461, 56.000000, 8127.000000, 7456.000000, 0.000000, 0.000000, 0.000000, 22858.000000, 59.487179, 4.000000, 4.000000, 4.000000, 4.000000, 4.000000, 4.000000, 4.000000, 4.000000, 4.000000, 4.000000, 4.000000, 0.000000, 4.000000, 4.000000, 4.000000, 4.000000
0.000000, 0.000000, 4169.230469, 1615.897339, 3993.333252, 4048.205078, 4221.025391, 4250.256348, 4251.794922, 4210.769043, 4219.487305, 4191.794922, 3496.923096, 3529.743408, 4151.281738, 5886.666504, 3566.000000, 8127.000000, 7456.000000, 0.000000, 0.000000, 0.000000, 22858.000000, 67.692307, 4.000000, 4.000000, 4.000000, 4.000000, 4.000000, 4.000000, 4.000000, 4.000000, 4.000000, 4.000000, 4.000000, 0.000000, 4.000000, 4.000000, 4.000000, 4.000000
1.000000, 0.000000, 4167.692383, 1623.589722, 3989.230713, 4031.794678, 4207.692383, 4245.641113, 4263.589844, 4205.641113, 4215.384277, 4181.538574, 3494.358887, 3511.794678, 4143.589844, 5803.076660, 3555.000000, 8130.000000, 7509.000000, 0.000000, 0.000000, 0.000000, 22858.000000, 75.384613, 4.000000, 4.000000, 4.000000, 4.000000, 4.000000, 4.000000, 4.000000, 4.000000, 4.000000, 4.000000, 4.000000, 0.000000, 4.000000, 4.000000, 4.000000, 4.000000
2.000000, 0.000000, 4168.205078, 1629.743530, 3987.692139, 4026.666504, 4197.948730, 4240.512695, 4271.281738, 4205.127930, 4205.641113, 4174.358887, 3493.845947, 3488.717773, 4136.922852, 5824.102539, 2026.000000, 8130.000000, 7509.000000, 0.000000, 0.000000, 0.000000, 22858.000000, 83.076920, 4.000000, 4.000000, 4.000000, 4.000000, 4.000000, 4.000000, 4.000000, 4.000000, 4.000000, 4.000000, 4.000000, 0.000000, 4.000000, 4.000000, 4.000000, 4.000000
3.000000, 0.000000, 4167.692383, 1633.846069, 3990.769043, 4038.461426, 4202.051270, 4243.589844, 4274.358887, 4207.692383, 4202.563965, 4175.384277, 3495.384521, 3484.102539, 4138.461426, 5694.871582, 3578.000000, 8147.000000, 7550.000000, 0.000000, 0.000000, 0.000000, 22858.000000, 91.282051, 4.000000, 4.000000, 4.000000, 4.000000, 4.000000, 4.000000, 4.000000, 4.000000, 4.000000, 4.000000, 4.000000, 0.000000, 4.000000, 4.000000, 4.000000, 4.000000
4.000000, 0.000000, 4167.692383, 1651.281982, 3993.333252, 4041.025635, 4215.384277, 4247.179199, 4280.000000, 4209.230469, 4202.051270, 4173.333008, 3496.410156, 3496.410156, 4140.000000, 5409.743652, 3466.000000, 8147.000000, 7550.000000, 0.000000, 0.000000, 0.000000, 22858.000000, 98.974358, 4.000000, 4.000000, 4.000000, 4.000000, 4.000000, 4.000000, 4.000000, 4.000000, 4.000000, 4.000000, 4.000000, 0.000000, 4.000000, 4.000000, 4.000000, 4.000000
5.000000, 0.000000, 4165.127930, 1672.820435, 3999.487061, 4036.410156, 4216.410156, 4248.205078, 4285.127930, 4212.820313, 4207.179199, 4171.794922, 3496.923096, 3502.563965, 4138.461426, 5260.512695, 3571.000000, 8174.000000, 7695.000000, 0.000000, 0.000000, 0.000000, 22858.000000, 107.179482, 4.000000, 4.000000, 4.000000, 4.000000, 4.000000, 4.000000, 4.000000, 4.000000, 4.000000, 4.000000, 4.000000, 0.000000, 4.000000, 4.000000, 4.000000, 4.000000
6.000000, 0.000000, 4159.487305, 1675.384521, 4004.615234, 4034.871582, 4205.127930, 4248.205078, 4283.076660, 4214.358887, 4215.897461, 4176.410156, 3489.743408, 3524.615234, 4136.410156, 5335.897461, 2461.000000, 8174.000000, 7695.000000, 0.000000, 0.000000, 0.000000, 22858.000000, 115.384613, 4.000000, 4.000000, 4.000000, 4.000000, 4.000000, 4.000000, 4.000000, 4.000000, 4.000000, 4.000000, 4.000000, 0.000000, 4.000000, 4.000000, 4.000000, 4.000000
7.000000, 0.000000, 4154.871582, 1678.974365, 4004.102539, 4030.769043, 4199.487305, 4241.538574, 4272.820313, 4208.717773, 4208.717773, 4179.487305, 3480.000000, 3586.666504, 4134.871582, 5503.076660, 692.000000, 8186.000000, 7772.000000, 0.000000, 0.000000, 0.000000, 22858.000000, 123.076920, 4.000000, 4.000000, 4.000000, 4.000000, 4.000000, 4.000000, 4.000000, 4.000000, 4.000000, 4.000000, 4.000000, 0.000000, 4.000000, 4.000000, 4.000000, 4.000000
8.000000, 0.000000, 4160.512695, 1695.897339, 4002.051270, 4020.000000, 4197.436035, 4230.769043, 4267.179199, 4205.641113, 4193.846191, 4173.846191, 3474.871826, 3638.974365, 4133.333008, 5612.820313, 3545.000000, 8186.000000, 7772.000000, 0.000000, 0.000000, 0.000000, 22858.000000, 131.282043, 4.000000, 4.000000, 4.000000, 4.000000, 4.000000, 4.000000, 4.000000, 4.000000, 4.000000, 4.000000, 4.000000, 0.000000, 4.000000, 4.000000, 4.000000, 4.000000
9.000000, 0.000000, 4166.666504, 1707.179443, 4000.512695, 4012.307617, 4191.281738, 4231.794922, 4270.256348, 4206.666504, 4195.384277, 4171.794922, 3474.871826, 3643.076904, 4133.333008, 5589.743652, 3544.000000, 8189.000000, 7863.000000, 0.000000, 0.000000, 0.000000, 22858.000000, 138.974350, 4.000000, 4.000000, 4.000000, 4.000000, 4.000000, 4.000000, 4.000000, 4.000000, 4.000000, 4.000000, 4.000000, 0.000000, 4.000000, 4.000000, 4.000000, 4.000000
10.000000, 0.000000, 4166.153809, 1714.358887, 4001.538330, 4011.281982, 4185.641113, 4237.436035, 4270.256348, 4210.769043, 4207.179199, 4175.384277, 3476.923096, 3635.384521, 4137.436035, 5507.692383, 2522.000000, 8189.000000, 7863.000000, 0.000000, 0.000000, 0.000000, 22858.000000, 147.179489, 4.000000, 4.000000, 4.000000, 4.000000, 4.000000, 4.000000, 4.000000, 4.000000, 4.000000, 4.000000, 4.000000, 0.000000, 4.000000, 4.000000, 4.000000, 4.000000
11.000000, 0.000000, 4171.281738, 1741.538452, 4008.205078, 4016.410156, 4182.563965, 4233.846191, 4267.692383, 4210.769043, 4199.487305, 4169.743652, 3477.948730, 3642.563965, 4140.512695, 5440.000000, 2173.000000, 8185.000000, 8006.000000, 0.000000, 0.000000, 0.000000, 22858.000000, 154.871796, 4.000000, 4.000000, 4.000000, 4.000000, 4.000000, 4.000000, 4.000000, 4.000000, 4.000000, 4.000000, 4.000000, 4.000000, 4.000000, 4.000000, 4.000000, 4.000000
12.000000, 0.000000, 4173.333008, 1770.256348, 4012.307617, 4023.589600, 4182.563965, 4236.922852, 4270.769043, 4203.589844, 4181.025391, 4155.897461, 3480.512695, 3645.640869, 4138.461426, 5338.461426, 3582.000000, 8185.000000, 8006.000000, 0.000000, 0.000000, 0.000000, 22858.000000, 163.076920, 4.000000, 4.000000, 4.000000, 4.000000, 4.000000, 4.000000, 4.000000, 4.000000, 4.000000, 4.000000, 4.000000, 4.000000, 4.000000, 4.000000, 4.000000, 4.000000
13.000000, 0.000000, 4172.307617, 1780.512817, 4015.384521, 4028.717773, 4190.769043, 4245.641113, 4275.384277, 4205.127930, 4179.487305, 4148.205078, 3487.179443, 3651.281982, 4136.410156, 5277.435547, 3523.000000, 8180.000000, 8051.000000, 0.000000, 0.000000, 0.000000, 22858.000000, 170.769226, 4.000000, 4.000000, 4.000000, 4.000000, 4.000000, 4.000000, 4.000000, 4.000000, 4.000000, 4.000000, 4.000000, 4.000000, 4.000000, 4.000000, 4.000000, 4.000000
14.000000, 1.000000, 4171.281738, 1795.897339, 4013.333252, 4024.102539, 4187.692383, 4243.076660, 4274.871582, 4206.153809, 4180.512695, 4147.179199, 3498.974365, 3651.281982, 4138.974121, 5287.692383, 2936.000000, 8180.000000, 8051.000000, 0.000000, 0.000000, 0.000000, 22858.000000, 178.974350, 4.000000, 4.000000, 4.000000, 4.000000, 4.000000, 4.000000, 4.000000, 4.000000, 4.000000, 4.000000, 4.000000, 4.000000, 4.000000, 4.000000, 4.000000, 4.000000
15.000000, 1.000000, 4170.256348, 1811.281982, 4011.794678, 4019.487061, 4184.615234, 4241.025391, 4274.358887, 4207.179199, 4181.538574, 4146.153809, 3510.769043, 3651.281982, 4141.538574, 5297.435547, 2349.000000, 8180.000000, 8051.000000, 0.000000, 0.000000, 0.000000, 22858.000000, 186.666656, 4.000000, 4.000000, 4.000000, 4.000000, 4.000000, 4.000000, 4.000000, 4.000000, 4.000000, 4.000000, 4.000000, 4.000000, 4.000000, 4.000000, 4.000000, 4.000000
16.000000, 1.000000, 4169.230469, 1827.179443, 4009.743408, 4014.871582, 4181.538574, 4238.461426, 4273.846191, 4208.205078, 4182.563965, 4145.127930, 3522.563965, 3651.281982, 4144.102539, 5307.692383, 1762.000000, 8180.000000, 8051.000000, 0.000000, 0.000000, 0.000000, 22858.000000, 194.358963, 4.000000, 4.000000, 4.000000, 4.000000, 4.000000, 4.000000, 4.000000, 4.000000, 4.000000, 4.000000, 4.000000, 4.000000, 4.000000, 4.000000, 4.000000, 4.000000
17.000000, 1.000000, 4168.205078, 1842.564087, 4008.205078, 4010.256348, 4178.461426, 4235.897461, 4272.820313, 4209.230469, 4183.589844, 4144.615234, 3533.845947, 3651.281982, 4146.153809, 5317.948730, 1175.000000, 8180.000000, 8051.000000, 0.000000, 0.000000, 0.000000, 22858.000000, 202.564102, 4.000000, 4.000000, 4.000000, 4.000000, 4.000000, 4.000000, 4.000000, 4.000000, 4.000000, 4.000000, 4.000000, 4.000000, 4.000000, 4.000000, 4.000000, 4.000000
18.000000, 1.000000, 4167.179199, 1857.948730, 4006.153809, 4005.640869, 4175.384277, 4233.333008, 4272.307617, 4210.256348, 4184.615234, 4143.589844, 3545.640869, 3651.281982, 4148.717773, 5328.205078, 588.000000, 8180.000000, 8051.000000, 0.000000, 0.000000, 0.000000, 22858.000000, 210.256409, 4.000000, 4.000000, 4.000000, 4.000000, 4.000000, 4.000000, 4.000000, 4.000000, 4.000000, 4.000000, 4.000000, 4.000000, 4.000000, 4.000000, 4.000000, 4.000000
19.000000, 0.000000, 4166.153809, 1873.846069, 4004.615234, 4001.025635, 4171.794922, 4230.769043, 4271.281738, 4211.281738, 4185.641113, 4142.563965, 3557.435791, 3651.281982, 4151.794922, 5337.948730, 0.000000, 8180.000000, 8051.000000, 0.000000, 0.000000, 0.000000, 22858.000000, 218.461533, 4.000000, 4.000000, 4.000000, 4.000000, 4.000000, 4.000000, 4.000000, 4.000000, 4.000000, 4.000000, 4.000000, 4.000000, 4.000000, 4.000000, 4.000000, 4.000000
20.000000, 0.000000, 4171.281738, 1900.000000, 4006.153809, 4009.743408, 4176.922852, 4236.410156, 4269.743652, 4209.743652, 4187.179199, 4146.666504, 3566.153809, 3654.871826, 4154.871582, 5223.076660, 0.000000, 8180.000000, 8051.000000, 0.000000, 0.000000, 0.000000, 22858.000000, 226.153839, 4.000000, 4.000000, 4.000000, 4.000000, 4.000000, 4.000000, 4.000000, 4.000000, 4.000000, 4.000000, 4.000000, 4.000000, 4.000000, 4.000000, 4.000000, 4.000000
21.000000, 0.000000, 4172.307617, 1922.564087, 4012.820313, 4023.076904, 4188.205078, 4245.641113, 4272.307617, 4212.307617, 4188.717773, 4155.384277, 3586.153809, 3670.769043, 4160.000000, 5080.000000, 0.000000, 8208.000000, 7903.000000, 0.000000, 0.000000, 0.000000, 22858.000000, 233.846146, 4.000000, 4.000000, 4.000000, 4.000000, 4.000000, 4.000000, 4.000000, 4.000000, 4.000000, 4.000000, 4.000000, 4.000000, 4.000000, 4.000000, 4.000000, 4.000000
22.000000, 0.000000, 4169.230469, 1940.512817, 4011.281982, 4008.717773, 4187.692383, 4237.948730, 4271.794922, 4212.307617, 4186.153809, 4154.871582, 3603.076904, 3677.948730, 4160.512695, 5007.692383, 0.000000, 8208.000000, 7903.000000, 0.000000, 0.000000, 0.000000, 22858.000000, 242.051270, 4.000000, 4.000000, 4.000000, 4.000000, 4.000000, 4.000000, 4.000000, 4.000000, 4.000000, 4.000000, 4.000000, 4.000000, 4.000000, 4.000000, 4.000000, 4.000000
23.000000, 0.000000, 4170.769043, 1967.692261, 4020.000000, 4001.538330, 4182.051270, 4230.769043, 4277.948730, 4209.743652, 4188.717773, 4154.358887, 3621.538330, 3684.102539, 4162.563965, 4969.743652, 0.000000, 8217.000000, 7884.000000, 0.000000, 0.000000, 0.000000, 22858.000000, 249.743576, 4.000000, 4.000000, 4.000000, 4.000000, 4.000000, 4.000000, 4.000000, 4.000000, 4.000000, 4.000000, 4.000000, 4.000000, 4.000000, 4.000000, 4.000000, 4.000000
24.000000, 0.000000, 4173.846191, 1992.820435, 4033.333252, 4016.923096, 4184.102539, 4237.436035, 4287.179199, 4210.769043, 4196.410156, 4157.948730, 3639.487061, 3696.923096, 4169.743652, 4865.641113, 0.000000, 8217.000000, 7884.000000, 0.000000, 0.000000, 0.000000, 22858.000000, 257.948700, 4.000000, 4.000000, 4.000000, 4.000000, 4.000000, 4.000000, 4.000000, 4.000000, 4.000000, 4.000000, 4.000000, 4.000000, 4.000000, 4.000000, 4.000000, 4.000000
25.000000, 0.000000, 4167.692383, 2002.051270, 4029.743408, 4015.384521, 4184.102539, 4243.589844, 4291.281738, 4213.846191, 4194.871582, 4153.846191, 3640.000000, 3697.948730, 4170.769043, 4783.589844, 0.000000, 8219.000000, 7936.000000, 0.000000, 0.000000, 0.000000, 22858.000000, 265.641022, 4.000000, 4.000000, 4.000000, 4.000000, 4.000000, 4.000000, 4.000000, 4.000000, 4.000000, 4.000000, 4.000000, 4.000000, 4.000000, 4.000000, 4.000000, 4.000000
26.000000, 0.000000, 4167.179199, 2010.769165, 4029.743408, 4003.076904, 4184.102539, 4241.025391, 4292.820313, 4213.846191, 4190.769043, 4151.794922, 3636.410156, 3692.307617, 4165.641113, 4848.717773, 0.000000, 8219.000000, 7936.000000, 0.000000, 0.000000, 0.000000, 22858.000000, 273.333313, 4.000000, 4.000000, 4.000000, 4.000000, 4.000000, 4.000000, 4.000000, 4.000000, 4.000000, 4.000000, 4.000000, 4.000000, 4.000000, 4.000000, 4.000000, 4.000000
27.000000, 0.000000, 4169.230469, 2027.692261, 4036.410156, 4005.640869, 4185.127930, 4240.000000, 4291.794922, 4212.820313, 4193.846191, 4154.358887, 3640.000000, 3696.923096, 4161.538574, 4910.769043, 0.000000, 8215.000000, 7988.000000, 0.000000, 0.000000, 0.000000, 22858.000000, 281.025635, 4.000000, 4.000000, 4.000000, 4.000000, 4.000000, 4.000000, 4.000000, 4.000000, 4.000000, 4.000000, 4.000000, 4.000000, 4.000000, 4.000000, 4.000000, 4.000000
28.000000, 0.000000, 4168.205078, 2040.000000, 4028.717773, 4006.666504, 4175.897461, 4233.846191, 4285.641113, 4210.769043, 4187.692383, 4141.538574, 3632.307617, 3700.000000, 4154.871582, 4921.025391, 0.000000, 8215.000000, 7988.000000, 0.000000, 0.000000, 0.000000, 22858.000000, 289.230774, 4.000000, 4.000000, 4.000000, 4.000000, 4.000000, 4.000000, 4.000000, 4.000000, 4.000000, 4.000000, 4.000000, 4.000000, 4.000000, 4.000000, 4.000000, 4.000000
29.000000, 0.000000, 4170.769043, 2053.333252, 4027.692139, 4004.102539, 4169.230469, 4223.076660, 4274.358887, 4202.563965, 4171.794922, 4124.102539, 3620.000000, 3696.410156, 4150.256348, 4971.794922, 0.000000, 8209.000000, 8135.000000, 0.000000, 0.000000, 0.000000, 22858.000000, 296.923065, 4.000000, 4.000000, 4.000000, 4.000000, 4.000000, 4.000000, 4.000000, 4.000000, 4.000000, 4.000000, 4.000000, 4.000000, 4.000000, 4.000000, 4.000000, 4.000000
30.000000, 0.000000, 4170.769043, 2069.230713, 4035.384521, 4005.640869, 4173.333008, 4222.563965, 4272.307617, 4198.974121, 4165.641113, 4119.487305, 3621.025635, 3694.871826, 4149.743652, 4938.974121, 0.000000, 8209.000000, 8135.000000, 0.000000, 0.000000, 0.000000, 22858.000000, 304.615387, 4.000000, 4.000000, 4.000000, 4.000000, 4.000000, 4.000000, 4.000000, 4.000000, 4.000000, 4.000000, 4.000000, 4.000000, 4.000000, 4.000000, 4.000000, 4.000000
31.000000, 0.000000, 4171.794922, 2082.051270, 4034.358887, 4003.076904, 4174.358887, 4226.666504, 4277.948730, 4206.153809, 4170.769043, 4121.025391, 3625.640869, 3696.923096, 4141.538574, 4809.230469, 0.000000, 8209.000000, 8215.000000, 0.000000, 0.000000, 0.000000, 22858.000000, 312.307678, 4.000000, 4.000000, 4.000000, 4.000000, 4.000000, 4.000000, 4.000000, 4.000000, 4.000000, 4.000000, 4.000000, 4.000000, 4.000000, 4.000000, 4.000000, 4.000000
32.000000, 0.000000, 4173.333008, 2095.384521, 4035.897217, 4003.589600, 4168.205078, 4224.102539, 4278.461426, 4207.692383, 4170.256348, 4120.512695, 3625.640869, 3701.025635, 4134.358887, 4726.153809, 0.000000, 8209.000000, 8215.000000, 0.000000, 0.000000, 0.000000, 22858.000000, 320.000000, 4.000000, 4.000000, 4.000000, 4.000000, 4.000000, 4.000000, 4.000000, 4.000000, 4.000000, 4.000000, 4.000000, 4.000000, 4.000000, 4.000000, 4.000000, 4.000000
33.000000, 0.000000, 4170.769043, 2111.794922, 4046.666504, 4011.794678, 4167.692383, 4218.974121, 4276.922852, 4203.589844, 4167.179199, 4120.512695, 3627.179443, 3707.179443, 4142.051270, 4669.230469, 0.000000, 8206.000000, 8304.000000, 0.000000, 0.000000, 0.000000, 22858.000000, 327.692291, 4.000000, 4.000000, 4.000000, 4.000000, 4.000000, 4.000000, 4.000000, 4.000000, 4.000000, 4.000000, 4.000000, 4.000000, 4.000000, 4.000000, 4.000000, 4.000000
