title:neutral16, recorded:17.05.18 21.51.07, timestamp started:2018-05-12T20:28:52.032863+02:00            , sampling:128, subject:Noé, labels:COUNTER INTERPOLATED AF3 F7 F3 FC5 T7 P7 O1 O2 P8 T8 FC6 F4 F8 AF4 RAW_CQ GYROX GYROY MARKER MARKER_HARDWARE SYNC TIME_STAMP_s TIME_STAMP_ms CQ_AF3 CQ_F7 CQ_F3 CQ_FC5 CQ_T7 CQ_P7 CQ_O1 CQ_O2 CQ_P8 CQ_T8 CQ_FC6 CQ_F4 CQ_F8 CQ_AF4 CQ_CMS CQ_DRL, chan:40, samples:2654, units:emotiv
70.000000, 0.000000, 4282.051270, 4195.897461, 4186.666504, 4184.615234, 4188.717773, 4194.871582, 4182.051270, 4176.410156, 4175.897461, 4179.487305, 4178.974121, 4166.153809, 4218.461426, 4203.076660, 3047.000000, 8251.000000, 8139.000000, 0.000000, 0.000000, 0.000000, -21817.000000, 961.538452, 4.000000, 4.000000, 4.000000, 4.000000, 4.000000, 4.000000, 4.000000, 4.000000, 4.000000, 4.000000, 4.000000, 4.000000, 4.000000, 4.000000, 4.000000, 4.000000
71.000000, 0.000000, 4276.410156, 4190.256348, 4184.102539, 4182.051270, 4201.538574, 4195.384277, 4187.179199, 4185.127930, 4184.615234, 4174.871582, 4173.333008, 4165.641113, 4211.281738, 4203.076660, 3504.000000, 8242.000000, 8145.000000, 0.000000, 0.000000, 0.000000, -21817.000000, 969.743591, 4.000000, 4.000000, 4.000000, 4.000000, 4.000000, 4.000000, 4.000000, 4.000000, 4.000000, 4.000000, 4.000000, 4.000000, 4.000000, 4.000000, 4.000000, 4.000000
72.000000, 0.000000, 4270.256348, 4187.179199, 4178.974121, 4182.051270, 4194.358887, 4187.692383, 4184.615234, 4191.281738, 4197.948730, 4178.974121, 4176.410156, 4164.615234, 4211.281738, 4206.153809, 3511.000000, 8242.000000, 8145.000000, 0.000000, 0.000000, 0.000000, -21817.000000, 977.435852, 4.000000, 4.000000, 4.000000, 4.000000, 4.000000, 4.000000, 4.000000, 4.000000, 4.000000, 4.000000, 4.000000, 4.000000, 4.000000, 4.000000, 4.000000, 4.000000
73.000000, 0.000000, 4280.000000, 4193.846191, 4182.563965, 4182.051270, 4184.615234, 4189.743652, 4180.000000, 4182.051270, 4195.384277, 4187.692383, 4182.051270, 4168.717773, 4218.461426, 4203.589844, 3540.000000, 8243.000000, 8137.000000, 0.000000, 0.000000, 0.000000, -21817.000000, 985.640991, 4.000000, 4.000000, 4.000000, 4.000000, 4.000000, 4.000000, 4.000000, 4.000000, 4.000000, 4.000000, 4.000000, 4.000000, 4.000000, 4.000000, 4.000000, 4.000000
74.000000, 0.000000, 4283.589844, 4197.948730, 4189.230469, 4183.076660, 4191.281738, 4196.922852, 4188.717773, 4194.358887, 4202.563965, 4197.436035, 4188.205078, 4177.948730, 4229.230469, 4204.102539, 3536.000000, 8243.000000, 8137.000000, 0.000000, 0.000000, 0.000000, -21817.000000, 993.333313, 4.000000, 4.000000, 4.000000, 4.000000, 4.000000, 4.000000, 4.000000, 4.000000, 4.000000, 4.000000, 4.000000, 4.000000, 4.000000, 4.000000, 4.000000, 4.000000
75.000000, 0.000000, 4285.641113, 4193.846191, 4195.384277, 4187.179199, 4203.589844, 4198.974121, 4196.410156, 4217.436035, 4217.948730, 4200.000000, 4194.871582, 4188.717773, 4234.358887, 4201.538574, 1049.000000, 8248.000000, 8131.000000, 0.000000, 0.000000, 0.000000, -21816.000000, 1.538461, 4.000000, 4.000000, 4.000000, 4.000000, 4.000000, 4.000000, 4.000000, 4.000000, 4.000000, 4.000000, 4.000000, 4.000000, 4.000000, 4.000000, 4.000000, 4.000000
76.000000, 0.000000, 4283.589844, 4192.307617, 4196.922852, 4188.205078, 4196.922852, 4200.512695, 4194.871582, 4206.666504, 4210.256348, 4196.922852, 4195.897461, 4191.794922, 4233.846191, 4202.051270, 3476.000000, 8248.000000, 8131.000000, 0.000000, 0.000000, 0.000000, -21816.000000, 9.230769, 4.000000, 4.000000, 4.000000, 4.000000, 4.000000, 4.000000, 4.000000, 4.000000, 4.000000, 4.000000, 4.000000, 4.000000, 4.000000, 4.000000, 4.000000, 4.000000
77.000000, 0.000000, 4280.000000, 4192.820313, 4192.820313, 4186.153809, 4182.563965, 4196.922852, 4188.717773, 4186.153809, 4194.871582, 4197.436035, 4187.692383, 4184.102539, 4232.820313, 4202.051270, 3222.000000, 8244.000000, 8131.000000, 0.000000, 0.000000, 0.000000, -21816.000000, 16.923077, 4.000000, 4.000000, 4.000000, 4.000000, 4.000000, 4.000000, 4.000000, 4.000000, 4.000000, 4.000000, 4.000000, 4.000000, 4.000000, 4.000000, 4.000000, 4.000000
78.000000, 0.000000, 4288.205078, 4193.333008, 4195.897461, 4187.692383, 4190.769043, 4190.769043, 4185.641113, 4197.948730, 4207.692383, 4205.127930, 4187.692383, 4184.615234, 4231.794922, 4198.461426, 3536.000000, 8244.000000, 8131.000000, 0.000000, 0.000000, 0.000000, -21816.000000, 24.615383, 4.000000, 4.000000, 4.000000, 4.000000, 4.000000, 4.000000, 4.000000, 4.000000, 4.000000, 4.000000, 4.000000, 4.000000, 4.000000, 4.000000, 4.000000, 4.000000
79.000000, 0.000000, 4285.641113, 4194.871582, 4200.000000, 4189.743652, 4208.717773, 4197.436035, 4193.846191, 4213.846191, 4220.512695, 4210.256348, 4198.461426, 4193.333008, 4235.897461, 4202.051270, 1049.000000, 8249.000000, 8130.000000, 0.000000, 0.000000, 0.000000, -21816.000000, 32.820511, 4.000000, 4.000000, 4.000000, 4.000000, 4.000000, 4.000000, 4.000000, 4.000000, 4.000000, 4.000000, 4.000000, 4.000000, 4.000000, 4.000000, 4.000000, 4.000000
80.000000, 0.000000, 4281.538574, 4193.846191, 4197.436035, 4190.256348, 4207.179199, 4206.153809, 4198.461426, 4204.615234, 4205.641113, 4207.692383, 4198.974121, 4187.179199, 4239.487305, 4197.436035, 3476.000000, 8249.000000, 8130.000000, 0.000000, 0.000000, 0.000000, -21816.000000, 40.512821, 4.000000, 4.000000, 4.000000, 4.000000, 4.000000, 4.000000, 4.000000, 4.000000, 4.000000, 4.000000, 4.000000, 4.000000, 4.000000, 4.000000, 4.000000, 4.000000
81.000000, 0.000000, 4281.538574, 4189.743652, 4195.897461, 4190.769043, 4198.461426, 4202.051270, 4192.307617, 4190.769043, 4193.333008, 4197.948730, 4190.769043, 4171.794922, 4234.871582, 4194.871582, 3222.000000, 8245.000000, 8123.000000, 0.000000, 0.000000, 0.000000, -21816.000000, 48.717949, 4.000000, 4.000000, 4.000000, 4.000000, 4.000000, 4.000000, 4.000000, 4.000000, 4.000000, 4.000000, 4.000000, 4.000000, 4.000000, 4.000000, 4.000000, 4.000000
82.000000, 0.000000, 4273.333008, 4190.769043, 4194.358887, 4193.333008, 4200.000000, 4195.897461, 4189.230469, 4196.922852, 4202.051270, 4196.410156, 4188.717773, 4173.333008, 4230.256348, 4197.948730, 3536.000000, 8245.000000, 8123.000000, 0.000000, 0.000000, 0.000000, -21816.000000, 56.410255, 4.000000, 4.000000, 4.000000, 4.000000, 4.000000, 4.000000, 4.000000, 4.000000, 4.000000, 4.000000, 4.000000, 4.000000, 4.000000, 4.000000, 4.000000, 4.000000
83.000000, 0.000000, 4275.897461, 4193.333008, 4192.820313, 4195.897461, 4198.974121, 4201.025391, 4201.025391, 4215.384277, 4212.820313, 4211.281738, 4195.897461, 4184.615234, 4236.922852, 4191.794922, 1049.000000, 8245.000000, 8125.000000, 0.000000, 0.000000, 0.000000, -21816.000000, 64.102562, 4.000000, 4.000000, 4.000000, 4.000000, 4.000000, 4.000000, 4.000000, 4.000000, 4.000000, 4.000000, 4.000000, 4.000000, 4.000000, 4.000000, 4.000000, 4.000000
84.000000, 0.000000, 4274.871582, 4184.615234, 4188.717773, 4192.307617, 4191.281738, 4204.615234, 4210.769043, 4210.256348, 4208.205078, 4211.281738, 4192.820313, 4179.487305, 4236.410156, 4190.256348, 3476.000000, 8245.000000, 8125.000000, 0.000000, 0.000000, 0.000000, -21816.000000, 72.307693, 4.000000, 4.000000, 4.000000, 4.000000, 4.000000, 4.000000, 4.000000, 4.000000, 4.000000, 4.000000, 4.000000, 4.000000, 4.000000, 4.000000, 4.000000, 4.000000
85.000000, 0.000000, 4270.769043, 4176.410156, 4187.179199, 4184.615234, 4181.025391, 4198.461426, 4195.384277, 4185.127930, 4194.871582, 4196.410156, 4181.025391, 4166.153809, 4226.666504, 4188.717773, 3222.000000, 8246.000000, 8129.000000, 0.000000, 0.000000, 0.000000, -21816.000000, 80.000000, 4.000000, 4.000000, 4.000000, 4.000000, 4.000000, 4.000000, 4.000000, 4.000000, 4.000000, 4.000000, 4.000000, 4.000000, 4.000000, 4.000000, 4.000000, 4.000000
86.000000, 0.000000, 4274.358887, 4181.538574, 4193.846191, 4189.230469, 4180.512695, 4197.436035, 4182.051270, 4182.563965, 4189.743652, 4195.384277, 4184.102539, 4167.692383, 4229.230469, 4190.769043, 3536.000000, 8246.000000, 8129.000000, 0.000000, 0.000000, 0.000000, -21816.000000, 87.692307, 4.000000, 4.000000, 4.000000, 4.000000, 4.000000, 4.000000, 4.000000, 4.000000, 4.000000, 4.000000, 4.000000, 4.000000, 4.000000, 4.000000, 4.000000, 4.000000
87.000000, 0.000000, 4278.974121, 4190.256348, 4198.461426, 4198.974121, 4192.307617, 4203.076660, 4192.820313, 4194.358887, 4194.358887, 4200.512695, 4190.256348, 4178.461426, 4235.897461, 4197.436035, 1049.000000, 8251.000000, 8128.000000, 0.000000, 0.000000, 0.000000, -21816.000000, 95.897430, 4.000000, 4.000000, 4.000000, 4.000000, 4.000000, 4.000000, 4.000000, 4.000000, 4.000000, 4.000000, 4.000000, 4.000000, 4.000000, 4.000000, 4.000000, 4.000000
88.000000, 0.000000, 4285.641113, 4191.281738, 4196.922852, 4196.922852, 4200.512695, 4202.051270, 4197.436035, 4190.769043, 4197.948730, 4201.538574, 4188.717773, 4178.461426, 4235.897461, 4193.846191, 3476.000000, 8251.000000, 8128.000000, 0.000000, 0.000000, 0.000000, -21816.000000, 103.589745, 4.000000, 4.000000, 4.000000, 4.000000, 4.000000, 4.000000, 4.000000, 4.000000, 4.000000, 4.000000, 4.000000, 4.000000, 4.000000, 4.000000, 4.000000, 4.000000
89.000000, 0.000000, 4277.436035, 4184.615234, 4191.794922, 4187.692383, 4200.000000, 4198.461426, 4188.717773, 4188.717773, 4197.948730, 4201.025391, 4184.102539, 4171.281738, 4233.846191, 4193.846191, 3222.000000, 8252.000000, 8132.000000, 0.000000, 0.000000, 0.000000, -21816.000000, 111.794868, 4.000000, 4.000000, 4.000000, 4.000000, 4.000000, 4.000000, 4.000000, 4.000000, 4.000000, 4.000000, 4.000000, 4.000000, 4.000000, 4.000000, 4.000000, 4.000000
90.000000, 0.000000, 4272.307617, 4181.538574, 4189.743652, 4186.666504, 4197.436035, 4204.102539, 4192.820313, 4197.436035, 4200.512695, 4196.922852, 4181.538574, 4166.153809, 4232.307617, 4195.384277, 3536.000000, 8252.000000, 8132.000000, 0.000000, 0.000000, 0.000000, -21816.000000, 119.487175, 4.000000, 4.000000, 4.000000, 4.000000, 4.000000, 4.000000, 4.000000, 4.000000, 4.000000, 4.000000, 4.000000, 4.000000, 4.000000, 4.000000, 4.000000, 4.000000
91.000000, 0.000000, 4281.538574, 4187.692383, 4192.307617, 4190.256348, 4197.948730, 4203.589844, 4198.974121, 4192.820313, 4201.025391, 4197.436035, 4184.102539, 4169.743652, 4233.846191, 4197.948730, 1049.000000, 8254.000000, 8138.000000, 0.000000, 0.000000, 0.000000, -21816.000000, 127.179482, 4.000000, 4.000000, 4.000000, 4.000000, 4.000000, 4.000000, 4.000000, 4.000000, 4.000000, 4.000000, 4.000000, 4.000000, 4.000000, 4.000000, 4.000000, 4.000000
92.000000, 0.000000, 4281.025391, 4185.127930, 4191.794922, 4188.717773, 4197.948730, 4191.794922, 4193.333008, 4186.153809, 4198.461426, 4208.717773, 4188.717773, 4177.948730, 4235.897461, 4201.025391, 3476.000000, 8254.000000, 8138.000000, 0.000000, 0.000000, 0.000000, -21816.000000, 134.871796, 4.000000, 4.000000, 4.000000, 4.000000, 4.000000, 4.000000, 4.000000, 4.000000, 4.000000, 4.000000, 4.000000, 4.000000, 4.000000, 4.000000, 4.000000, 4.000000
93.000000, 0.000000, 4276.410156, 4173.333008, 4193.333008, 4184.102539, 4186.153809, 4188.205078, 4194.871582, 4198.461426, 4202.051270, 4210.769043, 4184.102539, 4181.025391, 4226.666504, 4195.897461, 3222.000000, 8250.000000, 8134.000000, 0.000000, 0.000000, 0.000000, -21816.000000, 143.076920, 4.000000, 4.000000, 4.000000, 4.000000, 4.000000, 4.000000, 4.000000, 4.000000, 4.000000, 4.000000, 4.000000, 4.000000, 4.000000, 4.000000, 4.000000, 4.000000
94.000000, 0.000000, 4276.410156, 4173.846191, 4191.794922, 4183.589844, 4169.230469, 4189.230469, 4195.384277, 4206.153809, 4203.076660, 4202.563965, 4177.436035, 4175.897461, 4221.025391, 4199.487305, 3536.000000, 8250.000000, 8134.000000, 0.000000, 0.000000, 0.000000, -21816.000000, 150.769226, 4.000000, 4.000000, 4.000000, 4.000000, 4.000000, 4.000000, 4.000000, 4.000000, 4.000000, 4.000000, 4.000000, 4.000000, 4.000000, 4.000000, 4.000000, 4.000000
95.000000, 0.000000, 4286.153809, 4186.153809, 4185.127930, 4188.717773, 4175.897461, 4185.641113, 4185.641113, 4192.820313, 4192.307617, 4198.974121, 4178.461426, 4166.666504, 4229.230469, 4201.025391, 1049.000000, 8249.000000, 8139.000000, 0.000000, 0.000000, 0.000000, -21816.000000, 158.974350, 4.000000, 4.000000, 4.000000, 4.000000, 4.000000, 4.000000, 4.000000, 4.000000, 4.000000, 4.000000, 4.000000, 4.000000, 4.000000, 4.000000, 4.000000, 4.000000
96.000000, 0.000000, 4291.794922, 4190.256348, 4181.538574, 4189.230469, 4195.384277, 4183.589844, 4181.025391, 4182.051270, 4185.641113, 4197.436035, 4175.897461, 4162.051270, 4230.769043, 4197.436035, 3476.000000, 8249.000000, 8139.000000, 0.000000, 0.000000, 0.000000, -21816.000000, 166.666656, 4.000000, 4.000000, 4.000000, 4.000000, 4.000000, 4.000000, 4.000000, 4.000000, 4.000000, 4.000000, 4.000000, 4.000000, 4.000000, 4.000000, 4.000000, 4.000000
97.000000, 0.000000, 4275.897461, 4187.179199, 4179.487305, 4185.641113, 4192.307617, 4187.692383, 4184.615234, 4183.589844, 4184.615234, 4190.769043, 4166.666504, 4162.051270, 4223.076660, 4197.436035, 3222.000000, 8246.000000, 8141.000000, 0.000000, 0.000000, 0.000000, -21816.000000, 174.358963, 4.000000, 4.000000, 4.000000, 4.000000, 4.000000, 4.000000, 4.000000, 4.000000, 4.000000, 4.000000, 4.000000, 4.000000, 4.000000, 4.000000, 4.000000, 4.000000
98.000000, 0.000000, 4275.897461, 4191.281738, 4176.922852, 4187.179199, 4185.641113, 4186.666504, 4181.025391, 4181.538574, 4184.615234, 4186.666504, 4167.692383, 4159.487305, 4223.076660, 4195.897461, 3536.000000, 8246.000000, 8141.000000, 0.000000, 0.000000, 0.000000, -21816.000000, 182.564102, 4.000000, 4.000000, 4.000000, 4.000000, 4.000000, 4.000000, 4.000000, 4.000000, 4.000000, 4.000000, 4.000000, 4.000000, 4.000000, 4.000000, 4.000000, 4.000000
99.000000, 0.000000, 4280.512695, 4190.769043, 4171.281738, 4188.205078, 4191.794922, 4186.153809, 4178.461426, 4176.410156, 4184.615234, 4193.333008, 4174.358887, 4156.410156, 4226.153809, 4198.974121, 1049.000000, 8243.000000, 8142.000000, 0.000000, 0.000000, 0.000000, -21816.000000, 190.256409, 4.000000, 4.000000, 4.000000, 4.000000, 4.000000, 4.000000, 4.000000, 4.000000, 4.000000, 4.000000, 4.000000, 4.000000, 4.000000, 4.000000, 4.000000, 4.000000
100.000000, 0.000000, 4275.384277, 4186.666504, 4167.692383, 4183.589844, 4192.820313, 4193.846191, 4187.179199, 4184.615234, 4183.589844, 4198.974121, 4169.743652, 4152.307617, 4226.153809, 4196.922852, 3476.000000, 8243.000000, 8142.000000, 0.000000, 0.000000, 0.000000, -21816.000000, 197.948715, 4.000000, 4.000000, 4.000000, 4.000000, 4.000000, 4.000000, 4.000000, 4.000000, 4.000000, 4.000000, 4.000000, 4.000000, 4.000000, 4.000000, 4.000000, 4.000000
101.000000, 0.000000, 4280.000000, 4192.820313, 4172.820313, 4181.538574, 4186.666504, 4192.820313, 4191.794922, 4198.974121, 4187.692383, 4197.948730, 4167.692383, 4153.333008, 4230.769043, 4194.358887, 3222.000000, 8242.000000, 8149.000000, 0.000000, 0.000000, 0.000000, -21816.000000, 206.153839, 4.000000, 4.000000, 4.000000, 4.000000, 4.000000, 4.000000, 4.000000, 4.000000, 4.000000, 4.000000, 4.000000, 4.000000, 4.000000, 4.000000, 4.000000, 4.000000
102.000000, 0.000000, 4284.102539, 4193.333008, 4181.025391, 4188.717773, 4193.333008, 4188.205078, 4184.615234, 4201.025391, 4202.563965, 4201.025391, 4177.436035, 4166.666504, 4232.307617, 4202.051270, 3536.000000, 8242.000000, 8149.000000, 0.000000, 0.000000, 0.000000, -21816.000000, 213.846146, 4.000000, 4.000000, 4.000000, 4.000000, 4.000000, 4.000000, 4.000000, 4.000000, 4.000000, 4.000000, 4.000000, 4.000000, 4.000000, 4.000000, 4.000000, 4.000000
103.000000, 0.000000, 4290.256348, 4190.769043, 4189.230469, 4195.897461, 4204.102539, 4195.897461, 4185.127930, 4198.974121, 4211.281738, 4209.743652, 4183.076660, 4175.384277, 4232.820313, 4200.000000, 1049.000000, 8244.000000, 8151.000000, 0.000000, 0.000000, 0.000000, -21816.000000, 222.051270, 4.000000, 4.000000, 4.000000, 4.000000, 4.000000, 4.000000, 4.000000, 4.000000, 4.000000, 4.000000, 4.000000, 4.000000, 4.000000, 4.000000, 4.000000, 4.000000
104.000000, 0.000000, 4288.717773, 4193.333008, 4193.333008, 4198.974121, 4196.922852, 4204.102539, 4200.512695, 4205.127930, 4207.179199, 4214.871582, 4185.127930, 4174.358887, 4234.871582, 4200.512695, 3476.000000, 8244.000000, 8151.000000, 0.000000, 0.000000, 0.000000, -21816.000000, 229.743591, 4.000000, 4.000000, 4.000000, 4.000000, 4.000000, 4.000000, 4.000000, 4.000000, 4.000000, 4.000000, 4.000000, 4.000000, 4.000000, 4.000000, 4.000000, 4.000000
105.000000, 0.000000, 4285.127930, 4192.820313, 4193.846191, 4201.025391, 4189.743652, 4201.538574, 4203.589844, 4206.666504, 4202.051270, 4207.179199, 4186.666504, 4173.333008, 4232.820313, 4204.615234, 3222.000000, 8246.000000, 8162.000000, 0.000000, 0.000000, 0.000000, -21816.000000, 237.435898, 4.000000, 4.000000, 4.000000, 4.000000, 4.000000, 4.000000, 4.000000, 4.000000, 4.000000, 4.000000, 4.000000, 4.000000, 4.000000, 4.000000, 4.000000, 4.000000
106.000000, 0.000000, 4293.846191, 4192.820313, 4195.897461, 4203.589844, 4205.641113, 4199.487305, 4194.871582, 4198.461426, 4200.000000, 4205.127930, 4187.692383, 4177.436035, 4238.461426, 4204.615234, 3536.000000, 8246.000000, 8162.000000, 0.000000, 0.000000, 0.000000, -21816.000000, 245.128204, 4.000000, 4.000000, 4.000000, 4.000000, 4.000000, 4.000000, 4.000000, 4.000000, 4.000000, 4.000000, 4.000000, 4.000000, 4.000000, 4.000000, 4.000000, 4.000000
107.000000, 0.000000, 4295.897461, 4192.820313, 4197.948730, 4202.051270, 4214.871582, 4201.025391, 4197.948730, 4201.025391, 4204.615234, 4218.974121, 4192.820313, 4181.025391, 4247.692383, 4207.692383, 1049.000000, 8248.000000, 8171.000000, 0.000000, 0.000000, 0.000000, -21816.000000, 253.333328, 4.000000, 4.000000, 4.000000, 4.000000, 4.000000, 4.000000, 4.000000, 4.000000, 4.000000, 4.000000, 4.000000, 4.000000, 4.000000, 4.000000, 4.000000, 4.000000
108.000000, 0.000000, 4300.000000, 4192.307617, 4202.051270, 4202.051270, 4204.102539, 4201.025391, 4203.076660, 4212.307617, 4213.846191, 4233.846191, 4202.563965, 4184.102539, 4250.769043, 4205.641113, 3476.000000, 8248.000000, 8171.000000, 0.000000, 0.000000, 0.000000, -21816.000000, 261.538452, 4.000000, 4.000000, 4.000000, 4.000000, 4.000000, 4.000000, 4.000000, 4.000000, 4.000000, 4.000000, 4.000000, 4.000000, 4.000000, 4.000000, 4.000000, 4.000000
109.000000, 0.000000, 4301.025391, 4194.871582, 4206.666504, 4206.666504, 4201.025391, 4205.127930, 4201.538574, 4218.974121, 4222.563965, 4235.897461, 4203.589844, 4190.769043, 4251.794922, 4205.127930, 3222.000000, 8252.000000, 8174.000000, 0.000000, 0.000000, 0.000000, -21816.000000, 269.230774, 4.000000, 4.000000, 4.000000, 4.000000, 4.000000, 4.000000, 4.000000, 4.000000, 4.000000, 4.000000, 4.000000, 4.000000, 4.000000, 4.000000, 4.000000, 4.000000
110.000000, 0.000000, 4296.922852, 4196.410156, 4203.589844, 4204.102539, 4197.436035, 4198.974121, 4201.025391, 4211.794922, 4214.871582, 4227.692383, 4191.281738, 4184.615234, 4245.127930, 4203.076660, 3536.000000, 8252.000000, 8174.000000, 0.000000, 0.000000, 0.000000, -21816.000000, 276.923065, 4.000000, 4.000000, 4.000000, 4.000000, 4.000000, 4.000000, 4.000000, 4.000000, 4.000000, 4.000000, 4.000000, 4.000000, 4.000000, 4.000000, 4.000000, 4.000000
111.000000, 0.000000, 4297.948730, 4194.871582, 4195.897461, 4194.358887, 4178.974121, 4187.692383, 4195.897461, 4201.025391, 4198.974121, 4218.974121, 4183.589844, 4170.769043, 4231.794922, 4201.025391, 1049.000000, 8253.000000, 8176.000000, 0.000000, 0.000000, 0.000000, -21816.000000, 285.128204, 4.000000, 4.000000, 4.000000, 4.000000, 4.000000, 4.000000, 4.000000, 4.000000, 4.000000, 4.000000, 4.000000, 4.000000, 4.000000, 4.000000, 4.000000, 4.000000
112.000000, 0.000000, 4294.871582, 4193.846191, 4195.384277, 4194.871582, 4185.641113, 4192.820313, 4186.153809, 4206.666504, 4205.641113, 4216.410156, 4187.179199, 4174.358887, 4230.769043, 4207.692383, 3476.000000, 8253.000000, 8176.000000, 0.000000, 0.000000, 0.000000, -21816.000000, 292.820496, 4.000000, 4.000000, 4.000000, 4.000000, 4.000000, 4.000000, 4.000000, 4.000000, 4.000000, 4.000000, 4.000000, 4.000000, 4.000000, 4.000000, 4.000000, 4.000000
113.000000, 0.000000, 4299.487305, 4194.871582, 4195.897461, 4201.025391, 4207.692383, 4203.076660, 4192.307617, 4220.000000, 4216.922852, 4220.512695, 4188.717773, 4177.948730, 4234.358887, 4203.589844, 3222.000000, 8248.000000, 8174.000000, 0.000000, 0.000000, 0.000000, -21816.000000, 301.025635, 4.000000, 4.000000, 4.000000, 4.000000, 4.000000, 4.000000, 4.000000, 4.000000, 4.000000, 4.000000, 4.000000, 4.000000, 4.000000, 4.000000, 4.000000, 4.000000
114.000000, 0.000000, 4304.102539, 4195.897461, 4195.384277, 4201.538574, 4205.127930, 4202.563965, 4204.615234, 4220.512695, 4211.794922, 4221.025391, 4186.153809, 4172.820313, 4232.307617, 4203.589844, 3536.000000, 8248.000000, 8174.000000, 0.000000, 0.000000, 0.000000, -21816.000000, 308.717926, 4.000000, 4.000000, 4.000000, 4.000000, 4.000000, 4.000000, 4.000000, 4.000000, 4.000000, 4.000000, 4.000000, 4.000000, 4.000000, 4.000000, 4.000000, 4.000000
115.000000, 0.000000, 4299.487305, 4196.922852, 4195.897461, 4201.025391, 4197.948730, 4194.871582, 4192.820313, 4209.743652, 4206.666504, 4217.948730, 4186.153809, 4175.384277, 4233.333008, 4211.794922, 1049.000000, 8245.000000, 8165.000000, 0.000000, 0.000000, 0.000000, -21816.000000, 316.410248, 4.000000, 4.000000, 4.000000, 4.000000, 4.000000, 4.000000, 4.000000, 4.000000, 4.000000, 4.000000, 4.000000, 4.000000, 4.000000, 4.000000, 4.000000, 4.000000
116.000000, 0.000000, 4303.076660, 4197.948730, 4194.871582, 4201.025391, 4200.512695, 4196.922852, 4177.948730, 4207.692383, 4210.256348, 4214.871582, 4181.538574, 4177.948730, 4230.256348, 4209.743652, 3476.000000, 8245.000000, 8165.000000, 0.000000, 0.000000, 0.000000, -21816.000000, 324.102570, 4.000000, 4.000000, 4.000000, 4.000000, 4.000000, 4.000000, 4.000000, 4.000000, 4.000000, 4.000000, 4.000000, 4.000000, 4.000000, 4.000000, 4.000000, 4.000000
117.000000, 0.000000, 4300.512695, 4194.871582, 4188.205078, 4197.948730, 4189.743652, 4196.922852, 4186.153809, 4201.538574, 4199.487305, 4210.769043, 4176.922852, 4173.846191, 4224.615234, 4212.820313, 3222.000000, 8246.000000, 8162.000000, 0.000000, 0.000000, 0.000000, -21816.000000, 332.307678, 4.000000, 4.000000, 4.000000, 4.000000, 4.000000, 4.000000, 4.000000, 4.000000, 4.000000, 4.000000, 4.000000, 4.000000, 4.000000, 4.000000, 4.000000, 4.000000
118.000000, 0.000000, 4297.948730, 4194.358887, 4186.666504, 4196.922852, 4181.538574, 4190.769043, 4189.230469, 4182.051270, 4182.051270, 4208.717773, 4176.410156, 4173.333008, 4228.205078, 4214.358887, 3536.000000, 8246.000000, 8162.000000, 0.000000, 0.000000, 0.000000, -21816.000000, 340.000000, 4.000000, 4.000000, 4.000000, 4.000000, 4.000000, 4.000000, 4.000000, 4.000000, 4.000000, 4.000000, 4.000000, 4.000000, 4.000000, 4.000000, 4.000000, 4.000000
119.000000, 0.000000, 4298.974121, 4197.948730, 4194.871582, 4202.051270, 4197.436035, 4194.358887, 4187.692383, 4187.692383, 4192.307617, 4213.846191, 4179.487305, 4178.461426, 4234.871582, 4209.743652, 1049.000000, 8240.000000, 8161.000000, 0.000000, 0.000000, 0.000000, -21816.000000, 348.205109, 4.000000, 4.000000, 4.000000, 4.000000, 4.000000, 4.000000, 4.000000, 4.000000, 4.000000, 4.000000, 4.000000, 4.000000, 4.000000, 4.000000, 4.000000, 4.000000
120.000000, 0.000000, 4289.230469, 4195.384277, 4197.436035, 4203.589844, 4205.127930, 4198.461426, 4197.436035, 4203.589844, 4202.051270, 4211.794922, 4181.025391, 4175.384277, 4230.256348, 4201.538574, 3476.000000, 8240.000000, 8161.000000, 0.000000, 0.000000, 0.000000, -21816.000000, 355.897430, 4.000000, 4.000000, 4.000000, 4.000000, 4.000000, 4.000000, 4.000000, 4.000000, 4.000000, 4.000000, 4.000000, 4.000000, 4.000000, 4.000000, 4.000000, 4.000000
121.000000, 0.000000, 4284.615234, 4187.179199, 4193.333008, 4194.871582, 4188.205078, 4188.205078, 4192.307617, 4185.127930, 4183.076660, 4197.948730, 4173.333008, 4166.153809, 4218.461426, 4193.846191, 3222.000000, 8242.000000, 8152.000000, 0.000000, 0.000000, 0.000000, -21816.000000, 364.102570, 4.000000, 4.000000, 4.000000, 4.000000, 4.000000, 4.000000, 4.000000, 4.000000, 4.000000, 4.000000, 4.000000, 4.000000, 4.000000, 4.000000, 4.000000, 4.000000
122.000000, 0.000000, 4281.025391, 4185.641113, 4191.281738, 4188.205078, 4183.589844, 4177.948730, 4176.922852, 4167.179199, 4163.076660, 4191.281738, 4165.127930, 4162.051270, 4215.897461, 4200.512695, 3536.000000, 8242.000000, 8152.000000, 0.000000, 0.000000, 0.000000, -21816.000000, 371.794861, 4.000000, 4.000000, 4.000000, 4.000000, 4.000000, 4.000000, 4.000000, 4.000000, 4.000000, 4.000000, 4.000000, 4.000000, 4.000000, 4.000000, 4.000000, 4.000000
123.000000, 0.000000, 4276.410156, 4187.692383, 4192.307617, 4188.717773, 4196.410156, 4183.589844, 4178.974121, 4182.051270, 4167.179199, 4196.410156, 4164.102539, 4163.589844, 4216.922852, 4198.974121, 1049.000000, 8240.000000, 8150.000000, 0.000000, 0.000000, 0.000000, -21816.000000, 379.487183, 4.000000, 4.000000, 4.000000, 4.000000, 4.000000, 4.000000, 4.000000, 4.000000, 4.000000, 4.000000, 4.000000, 4.000000, 4.000000, 4.000000, 4.000000, 4.000000
124.000000, 0.000000, 4269.743652, 4181.025391, 4193.333008, 4186.153809, 4191.794922, 4186.153809, 4184.615234, 4192.820313, 4177.948730, 4200.512695, 4168.717773, 4168.717773, 4213.333008, 4193.846191, 3476.000000, 8240.000000, 8150.000000, 0.000000, 0.000000, 0.000000, -21816.000000, 387.692291, 4.000000, 4.000000, 4.000000, 4.000000, 4.000000, 4.000000, 4.000000, 4.000000, 4.000000, 4.000000, 4.000000, 4.000000, 4.000000, 4.000000, 4.000000, 4.000000
125.000000, 0.000000, 4264.615234, 4178.974121, 4192.820313, 4188.717773, 4180.512695, 4182.051270, 4181.538574, 4187.179199, 4183.589844, 4201.538574, 4171.281738, 4171.281738, 4218.974121, 4199.487305, 3222.000000, 8233.000000, 8161.000000, 0.000000, 0.000000, 0.000000, -21816.000000, 395.384613, 4.000000, 4.000000, 4.000000, 4.000000, 4.000000, 4.000000, 4.000000, 4.000000, 4.000000, 4.000000, 4.000000, 4.000000, 4.000000, 4.000000, 4.000000, 4.000000
126.000000, 0.000000, 4276.410156, 4191.281738, 4195.897461, 4200.512695, 4187.179199, 4183.076660, 4183.076660, 4189.743652, 4188.717773, 4205.641113, 4173.333008, 4168.205078, 4231.281738, 4199.487305, 3536.000000, 8233.000000, 8161.000000, 0.000000, 0.000000, 0.000000, -21816.000000, 403.589722, 4.000000, 4.000000, 4.000000, 4.000000, 4.000000, 4.000000, 4.000000, 4.000000, 4.000000, 4.000000, 4.000000, 4.000000, 4.000000, 4.000000, 4.000000, 4.000000
127.000000, 0.000000, 4273.333008, 4193.333008, 4194.871582, 4202.051270, 4188.717773, 4185.127930, 4183.076660, 4185.127930, 4182.051270, 4202.051270, 4174.358887, 4169.743652, 4229.743652, 4201.025391, 54.000000, 8229.000000, 8160.000000, 0.000000, 0.000000, 0.000000, -21816.000000, 411.282043, 4.000000, 4.000000, 4.000000, 4.000000, 4.000000, 4.000000, 4.000000, 4.000000, 4.000000, 4.000000, 4.000000, 4.000000, 4.000000, 4.000000, 4.000000, 4.000000
0.000000, 0.000000, 4263.589844, 4187.179199, 4199.487305, 4197.436035, 4182.051270, 4188.717773, 4180.512695, 4184.102539, 4180.512695, 4203.589844, 4178.461426, 4179.487305, 4226.666504, 4199.487305, 3350.000000, 8229.000000, 8160.000000, 0.000000, 0.000000, 0.000000, -21816.000000, 418.974335, 4.000000, 4.000000, 4.000000, 4.000000, 4.000000, 4.000000, 4.000000, 4.000000, 4.000000, 4.000000, 4.000000, 4.000000, 4.000000, 4.000000, 4.000000, 4.000000
1.000000, 0.000000, 4268.205078, 4188.717773, 4205.127930, 4198.974121, 4188.717773, 4189.743652, 4188.205078, 4200.000000, 4192.307617, 4215.897461, 4186.666504, 4183.589844, 4233.846191, 4197.436035, 3502.000000, 8227.000000, 8165.000000, 0.000000, 0.000000, 0.000000, -21816.000000, 427.179474, 4.000000, 4.000000, 4.000000, 4.000000, 4.000000, 4.000000, 4.000000, 4.000000, 4.000000, 4.000000, 4.000000, 4.000000, 4.000000, 4.000000, 4.000000, 4.000000
2.000000, 0.000000, 4263.589844, 4187.179199, 4196.922852, 4195.897461, 4197.948730, 4178.974121, 4183.076660, 4193.846191, 4188.205078, 4215.897461, 4182.563965, 4175.384277, 4231.281738, 4200.512695, 2697.000000, 8227.000000, 8165.000000, 0.000000, 0.000000, 0.000000, -21816.000000, 434.871796, 4.000000, 4.000000, 4.000000, 4.000000, 4.000000, 4.000000, 4.000000, 4.000000, 4.000000, 4.000000, 4.000000, 4.000000, 4.000000, 4.000000, 4.000000, 4.000000
3.000000, 0.000000, 4262.051270, 4188.717773, 4194.358887, 4194.871582, 4200.512695, 4173.846191, 4174.358887, 4173.333008, 4178.461426, 4210.769043, 4178.974121, 4172.307617, 4226.153809, 4199.487305, 1999.000000, 8223.000000, 8160.000000, 0.000000, 0.000000, 0.000000, -21816.000000, 442.564087, 4.000000, 4.000000, 4.000000, 4.000000, 4.000000, 4.000000, 4.000000, 4.000000, 4.000000, 4.000000, 4.000000, 4.000000, 4.000000, 4.000000, 4.000000, 4.000000
4.000000, 0.000000, 4260.512695, 4194.358887, 4198.974121, 4199.487305, 4201.538574, 4186.153809, 4186.153809, 4178.461426, 4185.127930, 4214.871582, 4185.641113, 4175.897461, 4233.846191, 4200.000000, 3528.000000, 8223.000000, 8160.000000, 0.000000, 0.000000, 0.000000, -21816.000000, 450.769226, 4.000000, 4.000000, 4.000000, 4.000000, 4.000000, 4.000000, 4.000000, 4.000000, 4.000000, 4.000000, 4.000000, 4.000000, 4.000000, 4.000000, 4.000000, 4.000000
5.000000, 0.000000, 4248.205078, 4190.256348, 4193.846191, 4193.846191, 4194.871582, 4190.769043, 4186.153809, 4191.281738, 4190.769043, 4217.948730, 4185.641113, 4171.281738, 4232.820313, 4196.922852, 3539.000000, 8225.000000, 8163.000000, 0.000000, 0.000000, 0.000000, -21816.000000, 458.974335, 4.000000, 4.000000, 4.000000, 4.000000, 4.000000, 4.000000, 4.000000, 4.000000, 4.000000, 4.000000, 4.000000, 4.000000, 4.000000, 4.000000, 4.000000, 4.000000
6.000000, 0.000000, 4239.487305, 4187.692383, 4184.615234, 4184.615234, 4188.205078, 4184.102539, 4175.897461, 4186.153809, 4186.153809, 4216.922852, 4178.974121, 4162.051270, 4223.589844, 4195.384277, 3051.000000, 8225.000000, 8163.000000, 0.000000, 0.000000, 0.000000, -21816.000000, 466.666656, 4.000000, 4.000000, 4.000000, 4.000000, 4.000000, 4.000000, 4.000000, 4.000000, 4.000000, 4.000000, 4.000000, 4.000000, 4.000000, 4.000000, 4.000000, 4.000000
7.000000, 0.000000, 4234.358887, 4192.307617, 4187.179199, 4189.230469, 4188.717773, 4188.205078, 4190.256348, 4186.666504, 4190.769043, 4218.461426, 4182.563965, 4165.127930, 4225.127930, 4201.025391, 3512.000000, 8214.000000, 8163.000000, 0.000000, 0.000000, 0.000000, -21816.000000, 474.358948, 4.000000, 4.000000, 4.000000, 4.000000, 4.000000, 4.000000, 4.000000, 4.000000, 4.000000, 4.000000, 4.000000, 4.000000, 4.000000, 4.000000, 4.000000, 4.000000
8.000000, 0.000000, 4237.948730, 4192.820313, 4196.922852, 4201.538574, 4183.076660, 4191.281738, 4200.512695, 4198.974121, 4198.461426, 4218.461426, 4186.153809, 4174.871582, 4228.717773, 4197.436035, 3516.000000, 8214.000000, 8163.000000, 0.000000, 0.000000, 0.000000, -21816.000000, 482.051270, 4.000000, 4.000000, 4.000000, 4.000000, 4.000000, 4.000000, 4.000000, 4.000000, 4.000000, 4.000000, 4.000000, 4.000000, 4.000000, 4.000000, 4.000000, 4.000000
9.000000, 0.000000, 4233.333008, 4188.205078, 4198.461426, 4201.538574, 4178.461426, 4187.179199, 4189.743652, 4203.076660, 4196.922852, 4216.410156, 4178.461426, 4175.384277, 4223.589844, 4195.897461, 3539.000000, 8215.000000, 8168.000000, 0.000000, 0.000000, 0.000000, -21816.000000, 490.256409, 4.000000, 4.000000, 4.000000, 4.000000, 4.000000, 4.000000, 4.000000, 4.000000, 4.000000, 4.000000, 4.000000, 4.000000, 4.000000, 4.000000, 4.000000, 4.000000
10.000000, 0.000000, 4220.000000, 4189.743652, 4188.717773, 4189.743652, 4192.307617, 4190.769043, 4186.666504, 4200.512695, 4194.358887, 4211.794922, 4169.743652, 4166.666504, 4214.358887, 4192.820313, 3540.000000, 8215.000000, 8168.000000, 0.000000, 0.000000, 0.000000, -21816.000000, 497.948700, 4.000000, 4.000000, 4.000000, 4.000000, 4.000000, 4.000000, 4.000000, 4.000000, 4.000000, 4.000000, 4.000000, 4.000000, 4.000000, 4.000000, 4.000000, 4.000000
11.000000, 0.000000, 4216.410156, 4198.974121, 4182.563965, 4183.076660, 4202.051270, 4197.948730, 4189.743652, 4201.538574, 4193.846191, 4209.230469, 4170.769043, 4164.615234, 4216.922852, 4191.281738, 1050.000000, 8213.000000, 8177.000000, 0.000000, 0.000000, 0.000000, -21816.000000, 505.641022, 4.000000, 4.000000, 4.000000, 4.000000, 4.000000, 4.000000, 4.000000, 4.000000, 4.000000, 4.000000, 4.000000, 4.000000, 4.000000, 4.000000, 4.000000, 4.000000
12.000000, 0.000000, 4212.820313, 4199.487305, 4186.666504, 4186.153809, 4193.333008, 4200.000000, 4194.871582, 4212.820313, 4198.461426, 4215.897461, 4181.025391, 4171.794922, 4227.179199, 4199.487305, 3478.000000, 8213.000000, 8177.000000, 0.000000, 0.000000, 0.000000, -21816.000000, 513.333313, 4.000000, 4.000000, 4.000000, 4.000000, 4.000000, 4.000000, 4.000000, 4.000000, 4.000000, 4.000000, 4.000000, 4.000000, 4.000000, 4.000000, 4.000000, 4.000000
13.000000, 0.000000, 4214.871582, 4194.871582, 4192.820313, 4189.743652, 4192.307617, 4201.025391, 4199.487305, 4218.461426, 4205.127930, 4215.897461, 4185.127930, 4176.922852, 4229.743652, 4199.487305, 3390.000000, 8208.000000, 8181.000000, 0.000000, 0.000000, 0.000000, -21816.000000, 521.025635, 4.000000, 4.000000, 4.000000, 4.000000, 4.000000, 4.000000, 4.000000, 4.000000, 4.000000, 4.000000, 4.000000, 4.000000, 4.000000, 4.000000, 4.000000, 4.000000
14.000000, 0.000000, 4210.256348, 4195.384277, 4188.205078, 4188.717773, 4189.743652, 4202.563965, 4194.358887, 4207.692383, 4202.051270, 4205.641113, 4178.461426, 4173.333008, 4225.127930, 4197.948730, 3540.000000, 8208.000000, 8181.000000, 0.000000, 0.000000, 0.000000, -21816.000000, 529.230774, 4.000000, 4.000000, 4.000000, 4.000000, 4.000000, 4.000000, 4.000000, 4.000000, 4.000000, 4.000000, 4.000000, 4.000000, 4.000000, 4.000000, 4.000000, 4.000000
15.000000, 0.000000, 4193.846191, 4195.384277, 4173.333008, 4182.563965, 4172.820313, 4197.948730, 4187.692383, 4191.281738, 4187.179199, 4195.897461, 4167.179199, 4159.487305, 4215.384277, 4195.384277, 1050.000000, 8207.000000, 8187.000000, 0.000000, 0.000000, 0.000000, -21816.000000, 536.923035, 4.000000, 4.000000, 4.000000, 4.000000, 4.000000, 4.000000, 4.000000, 4.000000, 4.000000, 4.000000, 4.000000, 4.000000, 4.000000, 4.000000, 4.000000, 4.000000
16.000000, 0.000000, 4193.333008, 4191.794922, 4171.281738, 4180.000000, 4175.897461, 4187.692383, 4182.051270, 4189.230469, 4182.051270, 4200.512695, 4167.179199, 4154.871582, 4214.871582, 4191.794922, 0.000000, 8207.000000, 8187.000000, 0.000000, 0.000000, 0.000000, -21816.000000, 545.128174, 4.000000, 4.000000, 4.000000, 4.000000, 4.000000, 4.000000, 4.000000, 4.000000, 4.000000, 4.000000, 4.000000, 4.000000, 4.000000, 4.000000, 4.000000, 4.000000
17.000000, 0.000000, 4194.871582, 4193.333008, 4182.563965, 4183.076660, 4195.384277, 4188.205078, 4180.512695, 4198.974121, 4190.256348, 4214.871582, 4181.025391, 4167.692383, 4227.692383, 4200.512695, 0.000000, 8205.000000, 8188.000000, 0.000000, 0.000000, 0.000000, -21816.000000, 552.820496, 4.000000, 4.000000, 4.000000, 4.000000, 4.000000, 4.000000, 4.000000, 4.000000, 4.000000, 4.000000, 4.000000, 4.000000, 4.000000, 4.000000, 4.000000, 4.000000
18.000000, 0.000000, 4195.384277, 4202.051270, 4190.256348, 4184.615234, 4188.717773, 4193.333008, 4185.641113, 4206.153809, 4198.461426, 4216.922852, 4184.615234, 4171.794922, 4235.897461, 4203.076660, 0.000000, 8205.000000, 8188.000000, 0.000000, 0.000000, 0.000000, -21816.000000, 561.025635, 4.000000, 4.000000, 4.000000, 4.000000, 4.000000, 4.000000, 4.000000, 4.000000, 4.000000, 4.000000, 4.000000, 4.000000, 4.000000, 4.000000, 4.000000, 4.000000
19.000000, 0.000000, 4196.410156, 4203.076660, 4191.281738, 4184.102539, 4180.000000, 4193.846191, 4191.281738, 4215.384277, 4210.769043, 4213.846191, 4180.512695, 4169.230469, 4236.410156, 4200.512695, 0.000000, 8205.000000, 8189.000000, 0.000000, 0.000000, 0.000000, -21816.000000, 568.717957, 4.000000, 4.000000, 4.000000, 4.000000, 4.000000, 4.000000, 4.000000, 4.000000, 4.000000, 4.000000, 4.000000, 4.000000, 4.000000, 4.000000, 4.000000, 4.000000
20.000000, 0.000000, 4188.205078, 4194.358887, 4186.153809, 4184.615234, 4189.743652, 4193.333008, 4188.717773, 4215.897461, 4216.922852, 4211.794922, 4178.974121, 4171.794922, 4233.333008, 4198.461426, 0.000000, 8205.000000, 8189.000000, 0.000000, 0.000000, 0.000000, -21816.000000, 576.410217, 4.000000, 4.000000, 4.000000, 4.000000, 4.000000, 4.000000, 4.000000, 4.000000, 4.000000, 4.000000, 4.000000, 4.000000, 4.000000, 4.000000, 4.000000, 4.000000
21.000000, 0.000000, 4182.563965, 4193.846191, 4178.461426, 4182.563965, 4180.512695, 4191.281738, 4187.179199, 4197.948730, 4201.538574, 4203.589844, 4173.333008, 4167.692383, 4227.179199, 4192.820313, 0.000000, 8207.000000, 8186.000000, 0.000000, 0.000000, 0.000000, -21816.000000, 584.615356, 4.000000, 4.000000, 4.000000, 4.000000, 4.000000, 4.000000, 4.000000, 4.000000, 4.000000, 4.000000, 4.000000, 4.000000, 4.000000, 4.000000, 4.000000, 4.000000
22.000000, 0.000000, 4175.384277, 4195.897461, 4176.410156, 4181.538574, 4172.820313, 4190.769043, 4193.846191, 4193.333008, 4193.333008, 4198.974121, 4168.205078, 4161.025391, 4218.974121, 4196.410156, 0.000000, 8207.000000, 8186.000000, 0.000000, 0.000000, 0.000000, -21816.000000, 592.307678, 4.000000, 4.000000, 4.000000, 4.000000, 4.000000, 4.000000, 4.000000, 4.000000, 4.000000, 4.000000, 4.000000, 4.000000, 4.000000, 4.000000, 4.000000, 4.000000
23.000000, 0.000000, 4173.333008, 4191.794922, 4177.436035, 4180.000000, 4193.333008, 4198.974121, 4196.922852, 4201.538574, 4195.384277, 4203.076660, 4167.179199, 4155.897461, 4214.358887, 4194.358887, 0.000000, 8212.000000, 8184.000000, 0.000000, 0.000000, 0.000000, -21816.000000, 600.512817, 4.000000, 4.000000, 4.000000, 4.000000, 4.000000, 4.000000, 4.000000, 4.000000, 4.000000, 4.000000, 4.000000, 4.000000, 4.000000, 4.000000, 4.000000, 4.000000
24.000000, 0.000000, 4170.769043, 4189.230469, 4175.384277, 4176.410156, 4203.589844, 4204.102539, 4191.794922, 4198.461426, 4187.692383, 4203.076660, 4168.717773, 4152.820313, 4217.948730, 4193.333008, 0.000000, 8212.000000, 8184.000000, 0.000000, 0.000000, 0.000000, -21816.000000, 608.205139, 4.000000, 4.000000, 4.000000, 4.000000, 4.000000, 4.000000, 4.000000, 4.000000, 4.000000, 4.000000, 4.000000, 4.000000, 4.000000, 4.000000, 4.000000, 4.000000
25.000000, 0.000000, 4167.179199, 4197.436035, 4178.974121, 4180.000000, 4196.410156, 4198.461426, 4185.641113, 4195.384277, 4190.769043, 4200.512695, 4177.948730, 4160.512695, 4230.256348, 4201.538574, 0.000000, 8205.000000, 8175.000000, 0.000000, 0.000000, 0.000000, -21816.000000, 615.897400, 4.000000, 4.000000, 4.000000, 4.000000, 4.000000, 4.000000, 4.000000, 4.000000, 4.000000, 4.000000, 4.000000, 4.000000, 4.000000, 4.000000, 4.000000, 4.000000
26.000000, 0.000000, 4178.461426, 4205.127930, 4188.717773, 4190.769043, 4197.436035, 4190.256348, 4186.153809, 4194.871582, 4200.000000, 4202.563965, 4183.589844, 4164.102539, 4234.871582, 4200.000000, 0.000000, 8205.000000, 8175.000000, 0.000000, 0.000000, 0.000000, -21816.000000, 623.589722, 4.000000, 4.000000, 4.000000, 4.000000, 4.000000, 4.000000, 4.000000, 4.000000, 4.000000, 4.000000, 4.000000, 4.000000, 4.000000, 4.000000, 4.000000, 4.000000
27.000000, 0.000000, 4175.384277, 4204.102539, 4187.692383, 4192.820313, 4201.025391, 4190.769043, 4187.692383, 4183.076660, 4189.743652, 4200.000000, 4176.410156, 4156.410156, 4225.127930, 4198.461426, 0.000000, 8213.000000, 8168.000000, 0.000000, 0.000000, 0.000000, -21816.000000, 631.794861, 4.000000, 4.000000, 4.000000, 4.000000, 4.000000, 4.000000, 4.000000, 4.000000, 4.000000, 4.000000, 4.000000, 4.000000, 4.000000, 4.000000, 4.000000, 4.000000
28.000000, 0.000000, 4167.692383, 4204.615234, 4185.641113, 4187.692383, 4191.281738, 4197.948730, 4183.589844, 4180.000000, 4182.051270, 4196.410156, 4172.820313, 4156.410156, 4224.102539, 4197.436035, 0.000000, 8213.000000, 8168.000000, 0.000000, 0.000000, 0.000000, -21816.000000, 639.487183, 4.000000, 4.000000, 4.000000, 4.000000, 4.000000, 4.000000, 4.000000, 4.000000, 4.000000, 4.000000, 4.000000, 4.000000, 4.000000, 4.000000, 4.000000, 4.000000
29.000000, 0.000000, 4171.794922, 4203.076660, 4194.358887, 4192.307617, 4183.589844, 4201.025391, 4181.538574, 4186.153809, 4189.230469, 4197.436035, 4179.487305, 4163.076660, 4232.307617, 4197.436035, 0.000000, 8215.000000, 8172.000000, 0.000000, 0.000000, 0.000000, -21816.000000, 647.692322, 4.000000, 4.000000, 4.000000, 4.000000, 4.000000, 4.000000, 4.000000, 4.000000, 4.000000, 4.000000, 4.000000, 4.000000, 4.000000, 4.000000, 4.000000, 4.000000
30.000000, 0.000000, 4167.692383, 4197.436035, 4198.974121, 4196.410156, 4189.743652, 4198.974121, 4186.666504, 4183.076660, 4191.794922, 4202.051270, 4181.025391, 4163.589844, 4230.769043, 4196.922852, 0.000000, 8215.000000, 8172.000000, 0.000000, 0.000000, 0.000000, -21816.000000, 655.384583, 4.000000, 4.000000, 4.000000, 4.000000, 4.000000, 4.000000, 4.000000, 4.000000, 4.000000, 4.000000, 4.000000, 4.000000, 4.000000, 4.000000, 4.000000, 4.000000
31.000000, 0.000000, 4173.846191, 4204.102539, 4197.948730, 4197.436035, 4205.127930, 4200.000000, 4192.820313, 4185.127930, 4197.436035, 4209.743652, 4182.563965, 4169.230469, 4228.205078, 4194.358887, 0.000000, 8224.000000, 8173.000000, 0.000000, 0.000000, 0.000000, -21816.000000, 663.076904, 4.000000, 4.000000, 4.000000, 4.000000, 4.000000, 4.000000, 4.000000, 4.000000, 4.000000, 4.000000, 4.000000, 4.000000, 4.000000, 4.000000, 4.000000, 4.000000
32.000000, 0.000000, 4182.051270, 4211.794922, 4200.512695, 4206.666504, 4209.230469, 4201.538574, 4193.333008, 4189.230469, 4197.436035, 4212.820313, 4191.794922, 4184.615234, 4234.871582, 4203.076660, 0.000000, 8224.000000, 8173.000000, 0.000000, 0.000000, 0.000000, -21816.000000, 671.282043, 4.000000, 4.000000, 4.000000, 4.000000, 4.000000, 4.000000, 4.000000, 4.000000, 4.000000, 4.000000, 4.000000, 4.000000, 4.000000, 4.000000, 4.000000, 4.000000
33.000000, 0.000000, 4180.512695, 4207.692383, 4205.641113, 4215.384277, 4207.179199, 4204.615234, 4187.692383, 4182.563965, 4185.641113, 4208.717773, 4195.897461, 4188.717773, 4237.436035, 4204.615234, 0.000000, 8230.000000, 8167.000000, 0.000000, 0.000000, 0.000000, -21816.000000, 678.974365, 4.000000, 4.000000, 4.000000, 4.000000, 4.000000, 4.000000, 4.000000, 4.000000, 4.000000, 4.000000, 4.000000, 4.000000, 4.000000, 4.000000, 4.000000, 4.000000
34.000000, 0.000000, 4177.948730, 4203.589844, 4206.666504, 4208.205078, 4213.846191, 4212.820313, 4188.717773, 4183.076660, 4184.615234, 4205.641113, 4187.179199, 4184.102539, 4227.692383, 4197.436035, 0.000000, 8230.000000, 8167.000000, 0.000000, 0.000000, 0.000000, -21816.000000, 686.666626, 4.000000, 4.000000, 4.000000, 4.000000, 4.000000, 4.000000, 4.000000, 4.000000, 4.000000, 4.000000, 4.000000, 4.000000, 4.000000, 4.000000, 4.000000, 4.000000
35.000000, 0.000000, 4164.615234, 4197.436035, 4197.948730, 4194.358887, 4203.076660, 4213.333008, 4196.410156, 4184.615234, 4184.615234, 4195.384277, 4165.641113, 4175.384277, 4210.769043, 4197.436035, 0.000000, 8238.000000, 8153.000000, 0.000000, 0.000000, 0.000000, -21816.000000, 694.871765, 4.000000, 4.000000, 4.000000, 4.000000, 4.000000, 4.000000, 4.000000, 4.000000, 4.000000, 4.000000, 4.000000, 4.000000, 4.000000, 4.000000, 4.000000, 4.000000
36.000000, 0.000000, 4160.512695, 4187.692383, 4188.205078, 4185.641113, 4187.179199, 4212.820313, 4196.922852, 4182.051270, 4183.076660, 4185.641113, 4154.358887, 4165.127930, 4203.589844, 4204.615234, 0.000000, 8238.000000, 8153.000000, 0.000000, 0.000000, 0.000000, -21816.000000, 702.564087, 4.000000, 4.000000, 4.000000, 4.000000, 4.000000, 4.000000, 4.000000, 4.000000, 4.000000, 4.000000, 4.000000, 4.000000, 4.000000, 4.000000, 4.000000, 4.000000
37.000000, 0.000000, 4160.512695, 4187.692383, 4187.692383, 4182.563965, 4196.410156, 4215.897461, 4197.948730, 4191.281738, 4197.436035, 4198.974121, 4168.205078, 4167.179199, 4214.871582, 4218.461426, 0.000000, 8238.000000, 8146.000000, 0.000000, 0.000000, 0.000000, -21816.000000, 710.256409, 4.000000, 4.000000, 4.000000, 4.000000, 4.000000, 4.000000, 4.000000, 4.000000, 4.000000, 4.000000, 4.000000, 4.000000, 4.000000, 4.000000, 4.000000, 4.000000
38.000000, 0.000000, 4165.127930, 4196.922852, 4193.333008, 4189.743652, 4211.794922, 4210.769043, 4195.897461, 4200.000000, 4206.666504, 4218.974121, 4184.615234, 4178.461426, 4236.410156, 4222.563965, 0.000000, 8238.000000, 8146.000000, 0.000000, 0.000000, 0.000000, -21816.000000, 718.461548, 4.000000, 4.000000, 4.000000, 4.000000, 4.000000, 4.000000, 4.000000, 4.000000, 4.000000, 4.000000, 4.000000, 4.000000, 4.000000, 4.000000, 4.000000, 4.000000
39.000000, 0.000000, 4179.487305, 4204.615234, 4200.512695, 4204.102539, 4212.307617, 4201.538574, 4187.692383, 4199.487305, 4201.538574, 4220.512695, 4190.769043, 4183.076660, 4249.230469, 4221.538574, 0.000000, 8236.000000, 8143.000000, 0.000000, 0.000000, 0.000000, -21816.000000, 726.153809, 4.000000, 4.000000, 4.000000, 4.000000, 4.000000, 4.000000, 4.000000, 4.000000, 4.000000, 4.000000, 4.000000, 4.000000, 4.000000, 4.000000, 4.000000, 4.000000
40.000000, 0.000000, 4182.051270, 4205.641113, 4205.641113, 4209.743652, 4209.743652, 4199.487305, 4190.769043, 4207.692383, 4209.743652, 4215.897461, 4190.256348, 4182.051270, 4247.179199, 4228.205078, 0.000000, 8236.000000, 8143.000000, 0.000000, 0.000000, 0.000000, -21816.000000, 733.846130, 4.000000, 4.000000, 4.000000, 4.000000, 4.000000, 4.000000, 4.000000, 4.000000, 4.000000, 4.000000, 4.000000, 4.000000, 4.000000, 4.000000, 4.000000, 4.000000
41.000000, 0.000000, 4185.127930, 4205.641113, 4208.717773, 4207.179199, 4211.281738, 4203.589844, 4196.410156, 4218.461426, 4221.025391, 4224.102539, 4191.281738, 4182.563965, 4243.589844, 4225.641113, 0.000000, 8239.000000, 8120.000000, 0.000000, 0.000000, 0.000000, -21816.000000, 742.051270, 4.000000, 4.000000, 4.000000, 4.000000, 4.000000, 4.000000, 4.000000, 4.000000, 4.000000, 4.000000, 4.000000, 4.000000, 4.000000, 4.000000, 4.000000, 4.000000
42.000000, 0.000000, 4184.102539, 4203.589844, 4205.127930, 4204.102539, 4214.358887, 4204.102539, 4191.281738, 4209.230469, 4208.205078, 4227.179199, 4190.769043, 4180.512695, 4241.025391, 4223.589844, 0.000000, 8239.000000, 8120.000000, 0.000000, 0.000000, 0.000000, -21816.000000, 749.743591, 4.000000, 4.000000, 4.000000, 4.000000, 4.000000, 4.000000, 4.000000, 4.000000, 4.000000, 4.000000, 4.000000, 4.000000, 4.000000, 4.000000, 4.000000, 4.000000
43.000000, 0.000000, 4177.436035, 4196.410156, 4190.769043, 4198.461426, 4213.333008, 4201.538574, 4188.717773, 4195.384277, 4195.384277, 4212.820313, 4184.615234, 4167.179199, 4233.846191, 4218.461426, 0.000000, 8235.000000, 8116.000000, 0.000000, 0.000000, 0.000000, -21816.000000, 757.948669, 4.000000, 4.000000, 4.000000, 4.000000, 4.000000, 4.000000, 4.000000, 4.000000, 4.000000, 4.000000, 4.000000, 4.000000, 4.000000, 4.000000, 4.000000, 4.000000
44.000000, 0.000000, 4178.461426, 4195.897461, 4182.563965, 4189.743652, 4202.051270, 4207.179199, 4200.000000, 4202.563965, 4200.512695, 4206.666504, 4177.436035, 4156.922852, 4229.743652, 4215.897461, 0.000000, 8235.000000, 8116.000000, 0.000000, 0.000000, 0.000000, -21816.000000, 765.640991, 4.000000, 4.000000, 4.000000, 4.000000, 4.000000, 4.000000, 4.000000, 4.000000, 4.000000, 4.000000, 4.000000, 4.000000, 4.000000, 4.000000, 4.000000, 4.000000
45.000000, 0.000000, 4173.333008, 4200.000000, 4183.589844, 4190.769043, 4205.127930, 4216.410156, 4203.589844, 4216.922852, 4209.230469, 4213.333008, 4178.974121, 4160.512695, 4231.281738, 4219.487305, 0.000000, 8240.000000, 8109.000000, 0.000000, 0.000000, 0.000000, -21816.000000, 773.846130, 4.000000, 4.000000, 4.000000, 4.000000, 4.000000, 4.000000, 4.000000, 4.000000, 4.000000, 4.000000, 4.000000, 4.000000, 4.000000, 4.000000, 4.000000, 4.000000
46.000000, 0.000000, 4176.922852, 4204.615234, 4187.179199, 4201.538574, 4222.051270, 4216.410156, 4197.436035, 4222.051270, 4215.897461, 4218.974121, 4185.641113, 4163.589844, 4229.743652, 4211.281738, 0.000000, 8240.000000, 8109.000000, 0.000000, 0.000000, 0.000000, -21816.000000, 781.538452, 4.000000, 4.000000, 4.000000, 4.000000, 4.000000, 4.000000, 4.000000, 4.000000, 4.000000, 4.000000, 4.000000, 4.000000, 4.000000, 4.000000, 4.000000, 4.000000
47.000000, 0.000000, 4181.538574, 4205.641113, 4190.256348, 4204.102539, 4222.563965, 4214.358887, 4201.538574, 4215.897461, 4220.000000, 4217.948730, 4185.127930, 4163.589844, 4229.743652, 4211.794922, 0.000000, 8247.000000, 8094.000000, 0.000000, 0.000000, 0.000000, -21816.000000, 789.743591, 4.000000, 4.000000, 4.000000, 4.000000, 4.000000, 4.000000, 4.000000, 4.000000, 4.000000, 4.000000, 4.000000, 4.000000, 4.000000, 4.000000, 4.000000, 4.000000
48.000000, 0.000000, 4182.051270, 4199.487305, 4189.743652, 4201.025391, 4216.410156, 4219.487305, 4206.666504, 4203.589844, 4212.820313, 4218.974121, 4183.076660, 4167.179199, 4229.230469, 4218.461426, 0.000000, 8247.000000, 8094.000000, 0.000000, 0.000000, 0.000000, -21816.000000, 797.435852, 4.000000, 4.000000, 4.000000, 4.000000, 4.000000, 4.000000, 4.000000, 4.000000, 4.000000, 4.000000, 4.000000, 4.000000, 4.000000, 4.000000, 4.000000, 4.000000
49.000000, 0.000000, 4186.666504, 4198.974121, 4187.179199, 4204.102539, 4216.410156, 4214.871582, 4195.897461, 4196.922852, 4202.563965, 4221.538574, 4185.127930, 4168.205078, 4225.127930, 4210.256348, 0.000000, 8262.000000, 8075.000000, 0.000000, 0.000000, 0.000000, -21816.000000, 805.128174, 4.000000, 4.000000, 4.000000, 4.000000, 4.000000, 4.000000, 4.000000, 4.000000, 4.000000, 4.000000, 4.000000, 4.000000, 4.000000, 4.000000, 4.000000, 4.000000
50.000000, 0.000000, 4177.436035, 4199.487305, 4176.410156, 4199.487305, 4209.743652, 4205.641113, 4187.692383, 4198.974121, 4196.922852, 4212.307617, 4178.461426, 4161.025391, 4219.487305, 4205.641113, 0.000000, 8262.000000, 8075.000000, 0.000000, 0.000000, 0.000000, -21816.000000, 812.820496, 4.000000, 4.000000, 4.000000, 4.000000, 4.000000, 4.000000, 4.000000, 4.000000, 4.000000, 4.000000, 4.000000, 4.000000, 4.000000, 4.000000, 4.000000, 4.000000
51.000000, 0.000000, 4170.769043, 4194.871582, 4166.666504, 4188.717773, 4196.410156, 4207.179199, 4191.794922, 4202.051270, 4196.922852, 4198.461426, 4163.076660, 4155.384277, 4209.230469, 4208.205078, 0.000000, 8264.000000, 8072.000000, 0.000000, 0.000000, 0.000000, -21816.000000, 821.025635, 4.000000, 4.000000, 4.000000, 4.000000, 4.000000, 4.000000, 4.000000, 4.000000, 4.000000, 4.000000, 4.000000, 4.000000, 4.000000, 4.000000, 4.000000, 4.000000
52.000000, 0.000000, 4175.384277, 4194.871582, 4171.794922, 4191.281738, 4195.897461, 4209.230469, 4191.281738, 4193.846191, 4200.512695, 4197.948730, 4162.563965, 4157.436035, 4205.641113, 4209.230469, 0.000000, 8264.000000, 8072.000000, 0.000000, 0.000000, 0.000000, -21816.000000, 828.717957, 4.000000, 4.000000, 4.000000, 4.000000, 4.000000, 4.000000, 4.000000, 4.000000, 4.000000, 4.000000, 4.000000, 4.000000, 4.000000, 4.000000, 4.000000, 4.000000
53.000000, 0.000000, 4176.922852, 4197.436035, 4179.487305, 4195.384277, 4210.256348, 4205.127930, 4188.205078, 4182.563965, 4198.461426, 4200.512695, 4170.256348, 4155.384277, 4211.794922, 4199.487305, 0.000000, 8269.000000, 8062.000000, 0.000000, 0.000000, 0.000000, -21816.000000, 836.410217, 4.000000, 4.000000, 4.000000, 4.000000, 4.000000, 4.000000, 4.000000, 4.000000, 4.000000, 4.000000, 4.000000, 4.000000, 4.000000, 4.000000, 4.000000, 4.000000
54.000000, 0.000000, 4182.563965, 4196.922852, 4182.051270, 4188.717773, 4215.384277, 4200.512695, 4194.871582, 4192.307617, 4200.512695, 4199.487305, 4170.256348, 4155.897461, 4215.384277, 4193.846191, 0.000000, 8269.000000, 8062.000000, 0.000000, 0.000000, 0.000000, -21816.000000, 844.615356, 4.000000, 4.000000, 4.000000, 4.000000, 4.000000, 4.000000, 4.000000, 4.000000, 4.000000, 4.000000, 4.000000, 4.000000, 4.000000, 4.000000, 4.000000, 4.000000
55.000000, 0.000000, 4182.563965, 4195.897461, 4185.127930, 4184.615234, 4200.512695, 4202.051270, 4204.102539, 4209.743652, 4210.769043, 4208.205078, 4174.871582, 4166.666504, 4213.846191, 4201.025391, 0.000000, 8278.000000, 8046.000000, 0.000000, 0.000000, 0.000000, -21816.000000, 852.307678, 4.000000, 4.000000, 4.000000, 4.000000, 4.000000, 4.000000, 4.000000, 4.000000, 4.000000, 4.000000, 4.000000, 4.000000, 4.000000, 4.000000, 4.000000, 4.000000
56.000000, 0.000000, 4185.641113, 4198.974121, 4192.307617, 4189.230469, 4190.769043, 4205.127930, 4200.000000, 4207.179199, 4207.692383, 4218.461426, 4187.179199, 4177.436035, 4215.384277, 4197.948730, 0.000000, 8278.000000, 8046.000000, 0.000000, 0.000000, 0.000000, -21816.000000, 860.000000, 4.000000, 4.000000, 4.000000, 4.000000, 4.000000, 4.000000, 4.000000, 4.000000, 4.000000, 4.000000, 4.000000, 4.000000, 4.000000, 4.000000, 4.000000, 4.000000
57.000000, 0.000000, 4189.230469, 4198.461426, 4188.717773, 4189.743652, 4202.563965, 4203.076660, 4192.307617, 4204.102539, 4200.000000, 4220.512695, 4193.333008, 4181.025391, 4217.948730, 4194.871582, 0.000000, 8281.000000, 8036.000000, 0.000000, 0.000000, 0.000000, -21816.000000, 868.205078, 4.000000, 4.000000, 4.000000, 4.000000, 4.000000, 4.000000, 4.000000, 4.000000, 4.000000, 4.000000, 4.000000, 4.000000, 4.000000, 4.000000, 4.000000, 4.000000
58.000000, 0.000000, 4183.076660, 4191.281738, 4182.563965, 4180.000000, 4202.051270, 4198.974121, 4196.410156, 4217.436035, 4212.307617, 4221.538574, 4187.179199, 4178.974121, 4215.897461, 4196.410156, 0.000000, 8281.000000, 8036.000000, 0.000000, 0.000000, 0.000000, -21816.000000, 875.897400, 4.000000, 4.000000, 4.000000, 4.000000, 4.000000, 4.000000, 4.000000, 4.000000, 4.000000, 4.000000, 4.000000, 4.000000, 4.000000, 4.000000, 4.000000, 4.000000
59.000000, 0.000000, 4188.205078, 4192.307617, 4186.153809, 4178.461426, 4182.563965, 4200.512695, 4199.487305, 4216.922852, 4219.487305, 4216.410156, 4178.461426, 4174.871582, 4214.871582, 4192.307617, 0.000000, 8280.000000, 7994.000000, 0.000000, 0.000000, 0.000000, -21816.000000, 883.589722, 4.000000, 4.000000, 4.000000, 4.000000, 4.000000, 4.000000, 4.000000, 4.000000, 4.000000, 4.000000, 4.000000, 4.000000, 4.000000, 4.000000, 4.000000, 4.000000
60.000000, 0.000000, 4194.871582, 4203.076660, 4188.717773, 4186.153809, 4184.102539, 4204.102539, 4191.794922, 4201.538574, 4206.666504, 4209.230469, 4178.461426, 4172.307617, 4214.358887, 4196.410156, 0.000000, 8280.000000, 7994.000000, 0.000000, 0.000000, 0.000000, -21816.000000, 891.794861, 4.000000, 4.000000, 4.000000, 4.000000, 4.000000, 4.000000, 4.000000, 4.000000, 4.000000, 4.000000, 4.000000, 4.000000, 4.000000, 4.000000, 4.000000, 4.000000
61.000000, 0.000000, 4201.025391, 4208.205078, 4187.179199, 4188.205078, 4202.051270, 4201.538574, 4181.025391, 4198.974121, 4200.000000, 4212.820313, 4183.589844, 4168.205078, 4211.794922, 4197.436035, 0.000000, 8278.000000, 7970.000000, 0.000000, 0.000000, 0.000000, -21816.000000, 900.000000, 4.000000, 4.000000, 4.000000, 4.000000, 4.000000, 4.000000, 4.000000, 4.000000, 4.000000, 4.000000, 4.000000, 4.000000, 4.000000, 4.000000, 4.000000, 4.000000
62.000000, 0.000000, 4205.641113, 4206.666504, 4183.589844, 4190.256348, 4205.641113, 4193.846191, 4183.076660, 4203.589844, 4204.102539, 4218.461426, 4184.102539, 4165.641113, 4214.871582, 4194.358887, 0.000000, 8278.000000, 7970.000000, 0.000000, 0.000000, 0.000000, -21816.000000, 907.692261, 4.000000, 4.000000, 4.000000, 4.000000, 4.000000, 4.000000, 4.000000, 4.000000, 4.000000, 4.000000, 4.000000, 4.000000, 4.000000, 4.000000, 4.000000, 4.000000
63.000000, 0.000000, 4204.102539, 4210.769043, 4181.538574, 4201.538574, 4202.563965, 4198.974121, 4193.846191, 4203.076660, 4206.153809, 4217.436035, 4184.102539, 4167.179199, 4220.512695, 4195.384277, 0.000000, 8270.000000, 7952.000000, 0.000000, 0.000000, 0.000000, -21816.000000, 915.384583, 4.000000, 4.000000, 4.000000, 4.000000, 4.000000, 4.000000, 4.000000, 4.000000, 4.000000, 4.000000, 4.000000, 4.000000, 4.000000, 4.000000, 4.000000, 4.000000
64.000000, 0.000000, 4208.205078, 4218.974121, 4181.025391, 4205.641113, 4204.102539, 4211.281738, 4200.000000, 4202.051270, 4201.538574, 4215.897461, 4185.127930, 4166.153809, 4218.974121, 4194.871582, 3353.000000, 8270.000000, 7952.000000, 0.000000, 0.000000, 0.000000, -21816.000000, 923.076904, 4.000000, 4.000000, 4.000000, 4.000000, 4.000000, 4.000000, 4.000000, 4.000000, 4.000000, 4.000000, 4.000000, 4.000000, 4.000000, 4.000000, 4.000000, 4.000000
65.000000, 0.000000, 4209.230469, 4221.538574, 4182.051270, 4200.512695, 4204.102539, 4208.717773, 4204.102539, 4207.179199, 4202.051270, 4221.025391, 4184.102539, 4169.230469, 4215.384277, 4197.948730, 3503.000000, 8248.000000, 7940.000000, 0.000000, 0.000000, 0.000000, -21816.000000, 931.282043, 4.000000, 4.000000, 4.000000, 4.000000, 4.000000, 4.000000, 4.000000, 4.000000, 4.000000, 4.000000, 4.000000, 4.000000, 4.000000, 4.000000, 4.000000, 4.000000
66.000000, 0.000000, 4212.820313, 4221.538574, 4187.179199, 4206.153809, 4203.076660, 4203.076660, 4206.666504, 4217.436035, 4216.922852, 4233.333008, 4193.333008, 4179.487305, 4225.641113, 4196.410156, 2706.000000, 8248.000000, 7940.000000, 0.000000, 0.000000, 0.000000, -21816.000000, 938.974365, 4.000000, 4.000000, 4.000000, 4.000000, 4.000000, 4.000000, 4.000000, 4.000000, 4.000000, 4.000000, 4.000000, 4.000000, 4.000000, 4.000000, 4.000000, 4.000000
67.000000, 0.000000, 4212.307617, 4223.589844, 4185.127930, 4205.127930, 4193.846191, 4212.307617, 4206.153809, 4214.358887, 4217.948730, 4233.846191, 4196.410156, 4177.948730, 4231.794922, 4193.846191, 1999.000000, 8244.000000, 7934.000000, 0.000000, 0.000000, 0.000000, -21816.000000, 946.666626, 4.000000, 4.000000, 4.000000, 4.000000, 4.000000, 4.000000, 4.000000, 4.000000, 4.000000, 4.000000, 4.000000, 4.000000, 4.000000, 4.000000, 4.000000, 4.000000
68.000000, 0.000000, 4206.153809, 4223.589844, 4180.000000, 4199.487305, 4189.743652, 4218.461426, 4205.641113, 4204.615234, 4203.589844, 4220.512695, 4187.179199, 4172.820313, 4221.025391, 4195.384277, 3519.000000, 8244.000000, 7934.000000, 0.000000, 0.000000, 0.000000, -21816.000000, 954.871765, 4.000000, 4.000000, 4.000000, 4.000000, 4.000000, 4.000000, 4.000000, 4.000000, 4.000000, 4.000000, 4.000000, 4.000000, 4.000000, 4.000000, 4.000000, 4.000000
69.000000, 0.000000, 4214.358887, 4223.589844, 4183.076660, 4204.102539, 4204.615234, 4208.717773, 4196.410156, 4203.589844, 4198.974121, 4216.922852, 4184.615234, 4176.410156, 4212.820313, 4190.256348, 3539.000000, 8225.000000, 7918.000000, 0.000000, 0.000000, 0.000000, -21816.000000, 962.564087, 4.000000, 4.000000, 4.000000, 4.000000, 4.000000, 4.000000, 4.000000, 4.000000, 4.000000, 4.000000, 4.000000, 4.000000, 4.000000, 4.000000, 4.000000, 4.000000
70.000000, 0.000000, 4209.743652, 4220.000000, 4183.076660, 4195.384277, 4204.102539, 4197.948730, 4184.102539, 4202.051270, 4192.307617, 4217.948730, 4184.102539, 4174.871582, 4212.307617, 4190.256348, 3051.000000, 8225.000000, 7918.000000, 0.000000, 0.000000, 0.000000, -21816.000000, 970.256409, 4.000000, 4.000000, 4.000000, 4.000000, 4.000000, 4.000000, 4.000000, 4.000000, 4.000000, 4.000000, 4.000000, 4.000000, 4.000000, 4.000000, 4.000000, 4.000000
71.000000, 0.000000, 4209.743652, 4224.102539, 4186.666504, 4190.769043, 4191.794922, 4205.127930, 4192.307617, 4203.589844, 4191.281738, 4213.846191, 4183.589844, 4172.307617, 4220.512695, 4194.871582, 3519.000000, 8224.000000, 7918.000000, 0.000000, 0.000000, 0.000000, -21816.000000, 978.461487, 4.000000, 4.000000, 4.000000, 4.000000, 4.000000, 4.000000, 4.000000, 4.000000, 4.000000, 4.000000, 4.000000, 4.000000, 4.000000, 4.000000, 4.000000, 4.000000
72.000000, 0.000000, 4237.436035, 4237.436035, 4205.641113, 4213.333008, 4201.538574, 4216.922852, 4210.256348, 4210.769043, 4212.307617, 4220.000000, 4197.948730, 4185.641113, 4238.974121, 4199.487305, 3520.000000, 8224.000000, 7918.000000, 0.000000, 0.000000, 0.000000, -21816.000000, 986.153809, 4.000000, 4.000000, 4.000000, 4.000000, 4.000000, 4.000000, 4.000000, 4.000000, 4.000000, 4.000000, 4.000000, 4.000000, 4.000000, 4.000000, 4.000000, 4.000000
73.000000, 0.000000, 4248.205078, 4242.563965, 4219.487305, 4224.102539, 4207.692383, 4209.230469, 4205.127930, 4201.538574, 4215.384277, 4225.127930, 4205.127930, 4198.974121, 4250.769043, 4203.589844, 3544.000000, 8222.000000, 7917.000000, 0.000000, 0.000000, 0.000000, -21816.000000, 993.846130, 4.000000, 4.000000, 4.000000, 4.000000, 4.000000, 4.000000, 4.000000, 4.000000, 4.000000, 4.000000, 4.000000, 4.000000, 4.000000, 4.000000, 4.000000, 4.000000
74.000000, 0.000000, 4243.076660, 4240.000000, 4218.974121, 4210.769043, 4200.512695, 4197.436035, 4192.307617, 4194.871582, 4203.589844, 4215.897461, 4195.897461, 4198.974121, 4244.102539, 4197.436035, 3544.000000, 8222.000000, 7917.000000, 0.000000, 0.000000, 0.000000, -21815.000000, 2.051282, 4.000000, 4.000000, 4.000000, 4.000000, 4.000000, 4.000000, 4.000000, 4.000000, 4.000000, 4.000000, 4.000000, 4.000000, 4.000000, 4.000000, 4.000000, 4.000000
75.000000, 0.000000, 4241.538574, 4238.974121, 4217.948730, 4208.717773, 4198.974121, 4200.512695, 4193.846191, 4207.692383, 4217.948730, 4217.948730, 4203.589844, 4202.563965, 4244.615234, 4196.922852, 1057.000000, 8214.000000, 7906.000000, 0.000000, 0.000000, 0.000000, -21815.000000, 9.743589, 4.000000, 4.000000, 4.000000, 4.000000, 4.000000, 4.000000, 4.000000, 4.000000, 4.000000, 4.000000, 4.000000, 4.000000, 4.000000, 4.000000, 4.000000, 4.000000
76.000000, 0.000000, 4243.589844, 4236.410156, 4214.871582, 4212.307617, 4189.230469, 4195.384277, 4193.846191, 4204.615234, 4220.000000, 4233.333008, 4216.922852, 4202.563965, 4254.871582, 4199.487305, 3485.000000, 8214.000000, 7906.000000, 0.000000, 0.000000, 0.000000, -21815.000000, 17.435898, 4.000000, 4.000000, 4.000000, 4.000000, 4.000000, 4.000000, 4.000000, 4.000000, 4.000000, 4.000000, 4.000000, 4.000000, 4.000000, 4.000000, 4.000000, 4.000000
77.000000, 0.000000, 4246.153809, 4236.922852, 4210.256348, 4208.717773, 4185.127930, 4189.230469, 4191.794922, 4197.948730, 4203.589844, 4238.974121, 4214.871582, 4194.358887, 4259.487305, 4195.897461, 3425.000000, 8211.000000, 7909.000000, 0.000000, 0.000000, 0.000000, -21815.000000, 25.641026, 4.000000, 4.000000, 4.000000, 4.000000, 4.000000, 4.000000, 4.000000, 4.000000, 4.000000, 4.000000, 4.000000, 4.000000, 4.000000, 4.000000, 4.000000, 4.000000
78.000000, 0.000000, 4231.794922, 4233.333008, 4199.487305, 4198.974121, 4192.820313, 4189.743652, 4186.153809, 4200.512695, 4201.538574, 4224.615234, 4198.974121, 4180.000000, 4244.615234, 4191.281738, 3544.000000, 8211.000000, 7909.000000, 0.000000, 0.000000, 0.000000, -21815.000000, 33.333332, 4.000000, 4.000000, 4.000000, 4.000000, 4.000000, 4.000000, 4.000000, 4.000000, 4.000000, 4.000000, 4.000000, 4.000000, 4.000000, 4.000000, 4.000000, 4.000000
79.000000, 0.000000, 4220.000000, 4224.615234, 4184.102539, 4183.076660, 4187.179199, 4180.000000, 4169.743652, 4187.692383, 4192.307617, 4206.153809, 4178.974121, 4163.076660, 4223.589844, 4186.153809, 1057.000000, 8207.000000, 7930.000000, 0.000000, 0.000000, 0.000000, -21815.000000, 41.538460, 4.000000, 4.000000, 4.000000, 4.000000, 4.000000, 4.000000, 4.000000, 4.000000, 4.000000, 4.000000, 4.000000, 4.000000, 4.000000, 4.000000, 4.000000, 4.000000
80.000000, 0.000000, 4228.717773, 4230.256348, 4189.230469, 4185.127930, 4186.666504, 4176.410156, 4169.743652, 4185.641113, 4189.743652, 4220.000000, 4188.717773, 4173.333008, 4235.384277, 4192.307617, 3485.000000, 8207.000000, 7930.000000, 0.000000, 0.000000, 0.000000, -21815.000000, 49.230766, 4.000000, 4.000000, 4.000000, 4.000000, 4.000000, 4.000000, 4.000000, 4.000000, 4.000000, 4.000000, 4.000000, 4.000000, 4.000000, 4.000000, 4.000000, 4.000000
81.000000, 0.000000, 4242.051270, 4244.102539, 4206.666504, 4203.076660, 4203.589844, 4189.743652, 4182.563965, 4203.076660, 4210.256348, 4245.127930, 4212.820313, 4195.384277, 4257.948730, 4200.512695, 3425.000000, 8213.000000, 7936.000000, 0.000000, 0.000000, 0.000000, -21815.000000, 57.435898, 4.000000, 4.000000, 4.000000, 4.000000, 4.000000, 4.000000, 4.000000, 4.000000, 4.000000, 4.000000, 4.000000, 4.000000, 4.000000, 4.000000, 4.000000, 4.000000
82.000000, 0.000000, 4243.076660, 4242.563965, 4209.230469, 4202.563965, 4205.641113, 4192.820313, 4188.205078, 4208.717773, 4222.051270, 4242.563965, 4211.794922, 4194.358887, 4256.410156, 4199.487305, 3544.000000, 8213.000000, 7936.000000, 0.000000, 0.000000, 0.000000, -21815.000000, 65.128204, 4.000000, 4.000000, 4.000000, 4.000000, 4.000000, 4.000000, 4.000000, 4.000000, 4.000000, 4.000000, 4.000000, 4.000000, 4.000000, 4.000000, 4.000000, 4.000000
83.000000, 0.000000, 4228.205078, 4231.794922, 4197.436035, 4186.666504, 4196.922852, 4187.692383, 4188.717773, 4200.000000, 4209.743652, 4230.256348, 4197.436035, 4185.127930, 4250.769043, 4198.974121, 1057.000000, 8225.000000, 7945.000000, 0.000000, 0.000000, 0.000000, -21815.000000, 72.820511, 4.000000, 4.000000, 4.000000, 4.000000, 4.000000, 4.000000, 4.000000, 4.000000, 4.000000, 4.000000, 4.000000, 4.000000, 4.000000, 4.000000, 4.000000, 4.000000
84.000000, 0.000000, 4227.179199, 4234.358887, 4194.358887, 4183.076660, 4198.974121, 4191.281738, 4187.692383, 4195.897461, 4198.974121, 4233.333008, 4199.487305, 4190.256348, 4253.333008, 4195.384277, 3485.000000, 8225.000000, 7945.000000, 0.000000, 0.000000, 0.000000, -21815.000000, 81.025642, 4.000000, 4.000000, 4.000000, 4.000000, 4.000000, 4.000000, 4.000000, 4.000000, 4.000000, 4.000000, 4.000000, 4.000000, 4.000000, 4.000000, 4.000000, 4.000000
85.000000, 0.000000, 4226.666504, 4233.846191, 4198.461426, 4185.127930, 4192.820313, 4190.769043, 4180.512695, 4203.076660, 4201.538574, 4230.769043, 4201.025391, 4192.307617, 4245.127930, 4196.922852, 3425.000000, 8231.000000, 7944.000000, 0.000000, 0.000000, 0.000000, -21815.000000, 88.717949, 4.000000, 4.000000, 4.000000, 4.000000, 4.000000, 4.000000, 4.000000, 4.000000, 4.000000, 4.000000, 4.000000, 4.000000, 4.000000, 4.000000, 4.000000, 4.000000
86.000000, 0.000000, 4221.025391, 4228.205078, 4198.974121, 4182.563965, 4180.512695, 4180.000000, 4172.307617, 4201.025391, 4202.563965, 4226.153809, 4197.436035, 4186.153809, 4248.205078, 4200.000000, 3544.000000, 8231.000000, 7944.000000, 0.000000, 0.000000, 0.000000, -21815.000000, 96.410255, 4.000000, 4.000000, 4.000000, 4.000000, 4.000000, 4.000000, 4.000000, 4.000000, 4.000000, 4.000000, 4.000000, 4.000000, 4.000000, 4.000000, 4.000000, 4.000000
87.000000, 0.000000, 4227.692383, 4235.897461, 4198.974121, 4182.051270, 4186.153809, 4178.974121, 4174.358887, 4186.666504, 4200.512695, 4241.025391, 4202.051270, 4186.153809, 4270.256348, 4195.384277, 1057.000000, 8238.000000, 7938.000000, 0.000000, 0.000000, 0.000000, -21815.000000, 104.615379, 4.000000, 4.000000, 4.000000, 4.000000, 4.000000, 4.000000, 4.000000, 4.000000, 4.000000, 4.000000, 4.000000, 4.000000, 4.000000, 4.000000, 4.000000, 4.000000
88.000000, 0.000000, 4222.051270, 4242.051270, 4196.922852, 4186.666504, 4200.000000, 4193.333008, 4191.281738, 4188.717773, 4198.461426, 4245.127930, 4200.000000, 4188.717773, 4271.281738, 4197.436035, 3485.000000, 8238.000000, 7938.000000, 0.000000, 0.000000, 0.000000, -21815.000000, 112.307686, 4.000000, 4.000000, 4.000000, 4.000000, 4.000000, 4.000000, 4.000000, 4.000000, 4.000000, 4.000000, 4.000000, 4.000000, 4.000000, 4.000000, 4.000000, 4.000000
89.000000, 0.000000, 4227.692383, 4247.179199, 4204.102539, 4203.589844, 4211.281738, 4206.666504, 4205.641113, 4208.205078, 4199.487305, 4237.948730, 4202.563965, 4195.897461, 4268.205078, 4200.512695, 3425.000000, 8232.000000, 7975.000000, 0.000000, 0.000000, 0.000000, -21815.000000, 120.512817, 4.000000, 4.000000, 4.000000, 4.000000, 4.000000, 4.000000, 4.000000, 4.000000, 4.000000, 4.000000, 4.000000, 4.000000, 4.000000, 4.000000, 4.000000, 4.000000
90.000000, 0.000000, 4240.000000, 4254.871582, 4213.846191, 4209.743652, 4201.538574, 4201.025391, 4198.461426, 4204.615234, 4202.563965, 4241.538574, 4212.820313, 4202.563965, 4283.076660, 4201.538574, 3544.000000, 8232.000000, 7975.000000, 0.000000, 0.000000, 0.000000, -21815.000000, 128.205124, 4.000000, 4.000000, 4.000000, 4.000000, 4.000000, 4.000000, 4.000000, 4.000000, 4.000000, 4.000000, 4.000000, 4.000000, 4.000000, 4.000000, 4.000000, 4.000000
91.000000, 0.000000, 4234.871582, 4253.333008, 4214.358887, 4204.102539, 4192.820313, 4192.820313, 4191.281738, 4201.538574, 4213.846191, 4246.666504, 4216.922852, 4202.051270, 4288.717773, 4201.538574, 1057.000000, 8238.000000, 7998.000000, 0.000000, 0.000000, 0.000000, -21815.000000, 136.410248, 4.000000, 4.000000, 4.000000, 4.000000, 4.000000, 4.000000, 4.000000, 4.000000, 4.000000, 4.000000, 4.000000, 4.000000, 4.000000, 4.000000, 4.000000, 4.000000
92.000000, 0.000000, 4237.948730, 4252.820313, 4218.461426, 4213.846191, 4221.538574, 4200.000000, 4194.871582, 4215.384277, 4220.512695, 4247.179199, 4215.384277, 4202.563965, 4282.051270, 4198.974121, 3485.000000, 8238.000000, 7998.000000, 0.000000, 0.000000, 0.000000, -21815.000000, 144.102554, 4.000000, 4.000000, 4.000000, 4.000000, 4.000000, 4.000000, 4.000000, 4.000000, 4.000000, 4.000000, 4.000000, 4.000000, 4.000000, 4.000000, 4.000000, 4.000000
93.000000, 0.000000, 4242.563965, 4259.487305, 4227.692383, 4222.051270, 4234.871582, 4202.563965, 4196.922852, 4209.230469, 4206.666504, 4251.281738, 4218.974121, 4209.230469, 4288.717773, 4200.512695, 3425.000000, 8243.000000, 8000.000000, 0.000000, 0.000000, 0.000000, -21815.000000, 152.307693, 4.000000, 4.000000, 4.000000, 4.000000, 4.000000, 4.000000, 4.000000, 4.000000, 4.000000, 4.000000, 4.000000, 4.000000, 4.000000, 4.000000, 4.000000, 4.000000
94.000000, 0.000000, 4235.384277, 4255.897461, 4226.666504, 4207.692383, 4197.436035, 4188.717773, 4195.897461, 4198.461426, 4200.512695, 4249.743652, 4214.871582, 4204.615234, 4285.127930, 4196.410156, 3544.000000, 8243.000000, 8000.000000, 0.000000, 0.000000, 0.000000, -21815.000000, 160.000000, 4.000000, 4.000000, 4.000000, 4.000000, 4.000000, 4.000000, 4.000000, 4.000000, 4.000000, 4.000000, 4.000000, 4.000000, 4.000000, 4.000000, 4.000000, 4.000000
95.000000, 0.000000, 4226.666504, 4244.615234, 4215.897461, 4196.922852, 4177.436035, 4180.000000, 4193.846191, 4198.461426, 4204.102539, 4240.000000, 4202.051270, 4191.281738, 4265.641113, 4194.871582, 1057.000000, 8250.000000, 7998.000000, 0.000000, 0.000000, 0.000000, -21815.000000, 168.205124, 4.000000, 4.000000, 4.000000, 4.000000, 4.000000, 4.000000, 4.000000, 4.000000, 4.000000, 4.000000, 4.000000, 4.000000, 4.000000, 4.000000, 4.000000, 4.000000
96.000000, 0.000000, 4221.025391, 4244.102539, 4213.333008, 4202.563965, 4200.512695, 4187.179199, 4189.230469, 4191.794922, 4198.461426, 4230.769043, 4197.436035, 4191.794922, 4265.641113, 4196.922852, 3485.000000, 8250.000000, 7998.000000, 0.000000, 0.000000, 0.000000, -21815.000000, 175.897430, 4.000000, 4.000000, 4.000000, 4.000000, 4.000000, 4.000000, 4.000000, 4.000000, 4.000000, 4.000000, 4.000000, 4.000000, 4.000000, 4.000000, 4.000000, 4.000000
97.000000, 0.000000, 4224.102539, 4250.769043, 4215.897461, 4200.512695, 4213.846191, 4190.256348, 4185.641113, 4189.230469, 4191.281738, 4217.436035, 4191.281738, 4192.307617, 4270.256348, 4192.307617, 3425.000000, 8254.000000, 8013.000000, 0.000000, 0.000000, 0.000000, -21815.000000, 183.589737, 4.000000, 4.000000, 4.000000, 4.000000, 4.000000, 4.000000, 4.000000, 4.000000, 4.000000, 4.000000, 4.000000, 4.000000, 4.000000, 4.000000, 4.000000, 4.000000
98.000000, 0.000000, 4220.512695, 4251.281738, 4212.307617, 4194.871582, 4209.743652, 4185.127930, 4186.153809, 4202.563965, 4192.307617, 4218.461426, 4186.666504, 4188.205078, 4264.615234, 4197.948730, 3544.000000, 8254.000000, 8013.000000, 0.000000, 0.000000, 0.000000, -21815.000000, 191.794861, 4.000000, 4.000000, 4.000000, 4.000000, 4.000000, 4.000000, 4.000000, 4.000000, 4.000000, 4.000000, 4.000000, 4.000000, 4.000000, 4.000000, 4.000000, 4.000000
99.000000, 0.000000, 4219.487305, 4250.256348, 4211.281738, 4200.512695, 4215.897461, 4190.256348, 4190.256348, 4215.384277, 4206.153809, 4241.538574, 4202.051270, 4194.358887, 4270.256348, 4202.563965, 1057.000000, 8257.000000, 8015.000000, 0.000000, 0.000000, 0.000000, -21815.000000, 199.487167, 4.000000, 4.000000, 4.000000, 4.000000, 4.000000, 4.000000, 4.000000, 4.000000, 4.000000, 4.000000, 4.000000, 4.000000, 4.000000, 4.000000, 4.000000, 4.000000
100.000000, 0.000000, 4228.717773, 4253.333008, 4217.436035, 4204.615234, 4214.871582, 4203.589844, 4200.000000, 4220.512695, 4221.025391, 4253.846191, 4217.436035, 4206.153809, 4286.666504, 4198.974121, 3485.000000, 8257.000000, 8015.000000, 0.000000, 0.000000, 0.000000, -21815.000000, 207.179489, 4.000000, 4.000000, 4.000000, 4.000000, 4.000000, 4.000000, 4.000000, 4.000000, 4.000000, 4.000000, 4.000000, 4.000000, 4.000000, 4.000000, 4.000000, 4.000000
101.000000, 0.000000, 4221.538574, 4247.692383, 4218.974121, 4201.538574, 4204.615234, 4201.025391, 4204.102539, 4206.666504, 4209.743652, 4240.512695, 4208.205078, 4205.641113, 4282.563965, 4194.358887, 3425.000000, 8257.000000, 8001.000000, 0.000000, 0.000000, 0.000000, -21815.000000, 215.384613, 4.000000, 4.000000, 4.000000, 4.000000, 4.000000, 4.000000, 4.000000, 4.000000, 4.000000, 4.000000, 4.000000, 4.000000, 4.000000, 4.000000, 4.000000, 4.000000
102.000000, 0.000000, 4214.871582, 4241.025391, 4217.436035, 4199.487305, 4197.436035, 4186.666504, 4195.897461, 4187.692383, 4190.256348, 4226.666504, 4194.871582, 4194.358887, 4270.769043, 4191.794922, 3544.000000, 8257.000000, 8001.000000, 0.000000, 0.000000, 0.000000, -21815.000000, 223.076920, 4.000000, 4.000000, 4.000000, 4.000000, 4.000000, 4.000000, 4.000000, 4.000000, 4.000000, 4.000000, 4.000000, 4.000000, 4.000000, 4.000000, 4.000000, 4.000000
103.000000, 0.000000, 4215.897461, 4244.102539, 4218.974121, 4201.538574, 4186.666504, 4183.589844, 4190.769043, 4203.589844, 4207.692383, 4232.820313, 4199.487305, 4190.256348, 4277.436035, 4198.461426, 1057.000000, 8246.000000, 8009.000000, 0.000000, 0.000000, 0.000000, -21815.000000, 231.282043, 4.000000, 4.000000, 4.000000, 4.000000, 4.000000, 4.000000, 4.000000, 4.000000, 4.000000, 4.000000, 4.000000, 4.000000, 4.000000, 4.000000, 4.000000, 4.000000
104.000000, 0.000000, 4214.871582, 4242.563965, 4214.358887, 4195.897461, 4175.897461, 4186.153809, 4190.769043, 4217.436035, 4223.076660, 4238.461426, 4202.563965, 4188.717773, 4280.512695, 4201.025391, 3485.000000, 8246.000000, 8009.000000, 0.000000, 0.000000, 0.000000, -21815.000000, 238.974350, 4.000000, 4.000000, 4.000000, 4.000000, 4.000000, 4.000000, 4.000000, 4.000000, 4.000000, 4.000000, 4.000000, 4.000000, 4.000000, 4.000000, 4.000000, 4.000000
105.000000, 0.000000, 4209.230469, 4236.922852, 4197.948730, 4180.512695, 4186.153809, 4187.179199, 4192.307617, 4191.794922, 4197.436035, 4223.076660, 4185.641113, 4177.436035, 4265.641113, 4197.436035, 3425.000000, 8234.000000, 8009.000000, 0.000000, 0.000000, 0.000000, -21815.000000, 246.666656, 4.000000, 4.000000, 4.000000, 4.000000, 4.000000, 4.000000, 4.000000, 4.000000, 4.000000, 4.000000, 4.000000, 4.000000, 4.000000, 4.000000, 4.000000, 4.000000
106.000000, 0.000000, 4193.333008, 4233.846191, 4179.487305, 4169.230469, 4210.769043, 4195.384277, 4200.512695, 4174.871582, 4177.436035, 4210.256348, 4168.205078, 4164.102539, 4252.820313, 4194.871582, 3544.000000, 8234.000000, 8009.000000, 0.000000, 0.000000, 0.000000, -21815.000000, 254.358963, 4.000000, 4.000000, 4.000000, 4.000000, 4.000000, 4.000000, 4.000000, 4.000000, 4.000000, 4.000000, 4.000000, 4.000000, 4.000000, 4.000000, 4.000000, 4.000000
107.000000, 0.000000, 4191.794922, 4233.846191, 4170.769043, 4172.820313, 4218.461426, 4203.076660, 4200.512695, 4186.666504, 4182.051270, 4217.436035, 4174.871582, 4161.538574, 4257.436035, 4192.820313, 1057.000000, 8219.000000, 8019.000000, 0.000000, 0.000000, 0.000000, -21815.000000, 262.564087, 4.000000, 4.000000, 4.000000, 4.000000, 4.000000, 4.000000, 4.000000, 4.000000, 4.000000, 4.000000, 4.000000, 4.000000, 4.000000, 4.000000, 4.000000, 4.000000
108.000000, 0.000000, 4195.384277, 4239.487305, 4174.358887, 4184.102539, 4215.384277, 4201.025391, 4191.794922, 4188.205078, 4184.102539, 4220.512695, 4187.179199, 4168.717773, 4264.102539, 4203.076660, 3485.000000, 8219.000000, 8019.000000, 0.000000, 0.000000, 0.000000, -21815.000000, 270.256409, 4.000000, 4.000000, 4.000000, 4.000000, 4.000000, 4.000000, 4.000000, 4.000000, 4.000000, 4.000000, 4.000000, 4.000000, 4.000000, 4.000000, 4.000000, 4.000000
109.000000, 0.000000, 4191.794922, 4243.589844, 4185.641113, 4193.333008, 4217.436035, 4197.436035, 4200.512695, 4187.692383, 4190.256348, 4214.358887, 4185.641113, 4179.487305, 4264.615234, 4205.127930, 3425.000000, 8211.000000, 8026.000000, 0.000000, 0.000000, 0.000000, -21815.000000, 278.461517, 4.000000, 4.000000, 4.000000, 4.000000, 4.000000, 4.000000, 4.000000, 4.000000, 4.000000, 4.000000, 4.000000, 4.000000, 4.000000, 4.000000, 4.000000, 4.000000
110.000000, 0.000000, 4190.769043, 4238.974121, 4196.922852, 4196.410156, 4208.205078, 4194.358887, 4209.743652, 4202.051270, 4202.563965, 4214.871582, 4184.102539, 4184.615234, 4262.051270, 4197.436035, 3544.000000, 8211.000000, 8026.000000, 0.000000, 0.000000, 0.000000, -21815.000000, 286.153839, 4.000000, 4.000000, 4.000000, 4.000000, 4.000000, 4.000000, 4.000000, 4.000000, 4.000000, 4.000000, 4.000000, 4.000000, 4.000000, 4.000000, 4.000000, 4.000000
111.000000, 0.000000, 4186.153809, 4230.256348, 4197.948730, 4188.717773, 4178.461426, 4184.615234, 4193.333008, 4201.025391, 4198.461426, 4213.333008, 4183.589844, 4174.358887, 4258.461426, 4202.563965, 1057.000000, 8208.000000, 8027.000000, 0.000000, 0.000000, 0.000000, -21815.000000, 293.846161, 4.000000, 4.000000, 4.000000, 4.000000, 4.000000, 4.000000, 4.000000, 4.000000, 4.000000, 4.000000, 4.000000, 4.000000, 4.000000, 4.000000, 4.000000, 4.000000
112.000000, 0.000000, 4191.794922, 4234.358887, 4198.974121, 4180.512695, 4168.205078, 4180.512695, 4184.102539, 4194.358887, 4193.333008, 4212.307617, 4181.025391, 4165.641113, 4256.922852, 4205.641113, 3485.000000, 8208.000000, 8027.000000, 0.000000, 0.000000, 0.000000, -21815.000000, 302.051270, 4.000000, 4.000000, 4.000000, 4.000000, 4.000000, 4.000000, 4.000000, 4.000000, 4.000000, 4.000000, 4.000000, 4.000000, 4.000000, 4.000000, 4.000000, 4.000000
113.000000, 0.000000, 4201.538574, 4243.589844, 4205.127930, 4185.127930, 4192.307617, 4190.256348, 4203.589844, 4213.333008, 4211.794922, 4220.000000, 4187.692383, 4175.384277, 4266.153809, 4207.179199, 3425.000000, 8207.000000, 8029.000000, 0.000000, 0.000000, 0.000000, -21815.000000, 309.743591, 4.000000, 4.000000, 4.000000, 4.000000, 4.000000, 4.000000, 4.000000, 4.000000, 4.000000, 4.000000, 4.000000, 4.000000, 4.000000, 4.000000, 4.000000, 4.000000
114.000000, 0.000000, 4198.461426, 4237.948730, 4200.512695, 4184.615234, 4200.512695, 4197.948730, 4212.820313, 4223.589844, 4218.974121, 4216.410156, 4187.179199, 4174.358887, 4266.666504, 4206.666504, 3544.000000, 8207.000000, 8029.000000, 0.000000, 0.000000, 0.000000, -21815.000000, 317.948700, 4.000000, 4.000000, 4.000000, 4.000000, 4.000000, 4.000000, 4.000000, 4.000000, 4.000000, 4.000000, 4.000000, 4.000000, 4.000000, 4.000000, 4.000000, 4.000000
115.000000, 0.000000, 4189.230469, 4228.205078, 4185.127930, 4171.281738, 4186.666504, 4193.846191, 4197.436035, 4196.410156, 4193.846191, 4198.974121, 4166.666504, 4152.820313, 4242.051270, 4197.948730, 1057.000000, 8209.000000, 8038.000000, 0.000000, 0.000000, 0.000000, -21815.000000, 325.641022, 4.000000, 4.000000, 4.000000, 4.000000, 4.000000, 4.000000, 4.000000, 4.000000, 4.000000, 4.000000, 4.000000, 4.000000, 4.000000, 4.000000, 4.000000, 4.000000
116.000000, 0.000000, 4179.487305, 4228.205078, 4176.410156, 4171.794922, 4195.384277, 4186.153809, 4185.641113, 4176.922852, 4177.948730, 4193.846191, 4156.922852, 4152.820313, 4231.794922, 4204.102539, 3485.000000, 8209.000000, 8038.000000, 0.000000, 0.000000, 0.000000, -21815.000000, 333.333313, 4.000000, 4.000000, 4.000000, 4.000000, 4.000000, 4.000000, 4.000000, 4.000000, 4.000000, 4.000000, 4.000000, 4.000000, 4.000000, 4.000000, 4.000000, 4.000000
117.000000, 0.000000, 4189.230469, 4235.384277, 4185.127930, 4187.692383, 4210.256348, 4184.615234, 4184.615234, 4181.025391, 4182.051270, 4208.205078, 4170.769043, 4172.820313, 4253.846191, 4214.871582, 3425.000000, 8213.000000, 8039.000000, 0.000000, 0.000000, 0.000000, -21815.000000, 341.025635, 4.000000, 4.000000, 4.000000, 4.000000, 4.000000, 4.000000, 4.000000, 4.000000, 4.000000, 4.000000, 4.000000, 4.000000, 4.000000, 4.000000, 4.000000, 4.000000
118.000000, 0.000000, 4200.512695, 4241.025391, 4195.897461, 4195.384277, 4205.641113, 4186.666504, 4177.948730, 4171.794922, 4175.897461, 4220.512695, 4182.051270, 4180.000000, 4271.794922, 4215.384277, 3544.000000, 8213.000000, 8039.000000, 0.000000, 0.000000, 0.000000, -21815.000000, 349.230774, 4.000000, 4.000000, 4.000000, 4.000000, 4.000000, 4.000000, 4.000000, 4.000000, 4.000000, 4.000000, 4.000000, 4.000000, 4.000000, 4.000000, 4.000000, 4.000000
119.000000, 0.000000, 4198.461426, 4242.051270, 4201.538574, 4196.410156, 4203.076660, 4180.000000, 4167.692383, 4163.076660, 4171.794922, 4224.615234, 4180.512695, 4175.897461, 4269.743652, 4213.846191, 1057.000000, 8218.000000, 8045.000000, 0.000000, 0.000000, 0.000000, -21815.000000, 356.923065, 4.000000, 4.000000, 4.000000, 4.000000, 4.000000, 4.000000, 4.000000, 4.000000, 4.000000, 4.000000, 4.000000, 4.000000, 4.000000, 4.000000, 4.000000, 4.000000
120.000000, 0.000000, 4205.127930, 4243.589844, 4213.846191, 4204.615234, 4202.051270, 4175.384277, 4171.794922, 4183.589844, 4187.179199, 4235.897461, 4186.153809, 4181.538574, 4276.410156, 4216.922852, 3485.000000, 8218.000000, 8045.000000, 0.000000, 0.000000, 0.000000, -21815.000000, 364.615387, 4.000000, 4.000000, 4.000000, 4.000000, 4.000000, 4.000000, 4.000000, 4.000000, 4.000000, 4.000000, 4.000000, 4.000000, 4.000000, 4.000000, 4.000000, 4.000000
121.000000, 0.000000, 4209.230469, 4243.076660, 4226.153809, 4209.743652, 4201.025391, 4188.717773, 4192.307617, 4211.281738, 4204.615234, 4251.281738, 4204.615234, 4196.922852, 4298.974121, 4222.051270, 3425.000000, 8218.000000, 8036.000000, 0.000000, 0.000000, 0.000000, -21815.000000, 372.820496, 4.000000, 4.000000, 4.000000, 4.000000, 4.000000, 4.000000, 4.000000, 4.000000, 4.000000, 4.000000, 4.000000, 4.000000, 4.000000, 4.000000, 4.000000, 4.000000
122.000000, 0.000000, 4210.256348, 4242.563965, 4226.666504, 4206.153809, 4207.179199, 4204.615234, 4203.589844, 4225.127930, 4216.410156, 4264.102539, 4221.538574, 4204.615234, 4316.410156, 4216.922852, 3544.000000, 8218.000000, 8036.000000, 0.000000, 0.000000, 0.000000, -21815.000000, 380.512817, 4.000000, 4.000000, 4.000000, 4.000000, 4.000000, 4.000000, 4.000000, 4.000000, 4.000000, 4.000000, 4.000000, 4.000000, 4.000000, 4.000000, 4.000000, 4.000000
123.000000, 0.000000, 4208.205078, 4236.922852, 4218.974121, 4196.922852, 4194.358887, 4207.179199, 4207.179199, 4229.743652, 4225.127930, 4275.384277, 4228.717773, 4205.641113, 4325.641113, 4214.871582, 1057.000000, 8210.000000, 8033.000000, 0.000000, 0.000000, 0.000000, -21815.000000, 388.717926, 4.000000, 4.000000, 4.000000, 4.000000, 4.000000, 4.000000, 4.000000, 4.000000, 4.000000, 4.000000, 4.000000, 4.000000, 4.000000, 4.000000, 4.000000, 4.000000
124.000000, 0.000000, 4199.487305, 4226.153809, 4216.410156, 4189.743652, 4175.384277, 4212.307617, 4219.487305, 4235.897461, 4234.358887, 4286.153809, 4233.333008, 4211.281738, 4334.871582, 4216.922852, 3485.000000, 8210.000000, 8033.000000, 0.000000, 0.000000, 0.000000, -21815.000000, 396.410248, 4.000000, 4.000000, 4.000000, 4.000000, 4.000000, 4.000000, 4.000000, 4.000000, 4.000000, 4.000000, 4.000000, 4.000000, 4.000000, 4.000000, 4.000000, 4.000000
125.000000, 0.000000, 4203.076660, 4227.692383, 4219.487305, 4187.179199, 4186.153809, 4221.538574, 4228.205078, 4240.512695, 4246.153809, 4292.307617, 4240.000000, 4220.000000, 4347.692383, 4211.794922, 3425.000000, 8208.000000, 8048.000000, 0.000000, 0.000000, 0.000000, -21815.000000, 404.102539, 4.000000, 4.000000, 4.000000, 4.000000, 4.000000, 4.000000, 4.000000, 4.000000, 4.000000, 4.000000, 4.000000, 4.000000, 4.000000, 4.000000, 4.000000, 4.000000
126.000000, 0.000000, 4201.025391, 4225.641113, 4215.897461, 4184.102539, 4199.487305, 4214.871582, 4221.025391, 4226.153809, 4237.948730, 4285.127930, 4241.538574, 4216.922852, 4352.820313, 4213.846191, 3544.000000, 8208.000000, 8048.000000, 0.000000, 0.000000, 0.000000, -21815.000000, 411.794861, 4.000000, 4.000000, 4.000000, 4.000000, 4.000000, 4.000000, 4.000000, 4.000000, 4.000000, 4.000000, 4.000000, 4.000000, 4.000000, 4.000000, 4.000000, 4.000000
127.000000, 0.000000, 4187.692383, 4210.769043, 4208.717773, 4186.666504, 4193.846191, 4210.769043, 4215.897461, 4213.333008, 4218.461426, 4267.179199, 4229.743652, 4202.051270, 4339.487305, 4209.743652, 54.000000, 8200.000000, 8071.000000, 0.000000, 0.000000, 0.000000, -21815.000000, 420.000000, 4.000000, 4.000000, 4.000000, 4.000000, 4.000000, 4.000000, 4.000000, 4.000000, 4.000000, 4.000000, 4.000000, 4.000000, 4.000000, 4.000000, 4.000000, 4.000000
0.000000, 0.000000, 4180.000000, 4205.641113, 4200.512695, 4186.153809, 4196.922852, 4216.410156, 4217.436035, 4212.307617, 4212.307617, 4250.769043, 4206.666504, 4184.615234, 4316.922852, 4203.076660, 3352.000000, 8200.000000, 8071.000000, 0.000000, 0.000000, 0.000000, -21815.000000, 427.692291, 4.000000, 4.000000, 4.000000, 4.000000, 4.000000, 4.000000, 4.000000, 4.000000, 4.000000, 4.000000, 4.000000, 4.000000, 4.000000, 4.000000, 4.000000, 4.000000
1.000000, 0.000000, 4174.871582, 4210.256348, 4192.820313, 4172.820313, 4205.641113, 4210.256348, 4205.127930, 4201.025391, 4208.205078, 4240.512695, 4197.436035, 4173.333008, 4306.153809, 4203.589844, 3502.000000, 8188.000000, 8073.000000, 0.000000, 0.000000, 0.000000, -21815.000000, 435.384613, 4.000000, 4.000000, 4.000000, 4.000000, 4.000000, 4.000000, 4.000000, 4.000000, 4.000000, 4.000000, 4.000000, 4.000000, 4.000000, 4.000000, 4.000000, 4.000000
2.000000, 0.000000, 4175.897461, 4208.717773, 4186.153809, 4162.051270, 4200.512695, 4200.000000, 4189.230469, 4184.615234, 4193.333008, 4226.153809, 4201.025391, 4166.666504, 4307.692383, 4202.051270, 2706.000000, 8188.000000, 8073.000000, 0.000000, 0.000000, 0.000000, -21815.000000, 443.076904, 4.000000, 4.000000, 4.000000, 4.000000, 4.000000, 4.000000, 4.000000, 4.000000, 4.000000, 4.000000, 4.000000, 4.000000, 4.000000, 4.000000, 4.000000, 4.000000
3.000000, 0.000000, 4172.820313, 4207.179199, 4182.051270, 4172.820313, 4206.153809, 4200.000000, 4185.127930, 4178.974121, 4180.000000, 4213.333008, 4192.820313, 4158.461426, 4302.563965, 4204.102539, 2000.000000, 8178.000000, 8110.000000, 0.000000, 0.000000, 0.000000, -21815.000000, 451.282043, 4.000000, 4.000000, 4.000000, 4.000000, 4.000000, 4.000000, 4.000000, 4.000000, 4.000000, 4.000000, 4.000000, 4.000000, 4.000000, 4.000000, 4.000000, 4.000000
4.000000, 0.000000, 4173.846191, 4212.820313, 4183.076660, 4189.743652, 4217.948730, 4201.025391, 4179.487305, 4175.897461, 4180.512695, 4207.179199, 4181.538574, 4155.384277, 4292.820313, 4204.102539, 3526.000000, 8178.000000, 8110.000000, 0.000000, 0.000000, 0.000000, -21815.000000, 458.974335, 4.000000, 4.000000, 4.000000, 4.000000, 4.000000, 4.000000, 4.000000, 4.000000, 4.000000, 4.000000, 4.000000, 4.000000, 4.000000, 4.000000, 4.000000, 4.000000
5.000000, 0.000000, 4177.948730, 4213.333008, 4188.717773, 4182.051270, 4205.641113, 4196.922852, 4183.589844, 4182.563965, 4192.307617, 4204.615234, 4184.102539, 4161.538574, 4293.333008, 4204.615234, 3538.000000, 8148.000000, 8125.000000, 0.000000, 0.000000, 0.000000, -21815.000000, 467.179474, 4.000000, 4.000000, 4.000000, 4.000000, 4.000000, 4.000000, 4.000000, 4.000000, 4.000000, 4.000000, 4.000000, 4.000000, 4.000000, 4.000000, 4.000000, 4.000000
6.000000, 0.000000, 4172.307617, 4207.179199, 4192.820313, 4167.692383, 4193.333008, 4199.487305, 4202.051270, 4198.974121, 4200.000000, 4206.153809, 4192.307617, 4175.384277, 4301.025391, 4209.230469, 3051.000000, 8148.000000, 8125.000000, 0.000000, 0.000000, 0.000000, -21815.000000, 474.871796, 4.000000, 4.000000, 4.000000, 4.000000, 4.000000, 4.000000, 4.000000, 4.000000, 4.000000, 4.000000, 4.000000, 4.000000, 4.000000, 4.000000, 4.000000, 4.000000
7.000000, 0.000000, 4180.000000, 4207.692383, 4203.589844, 4174.358887, 4203.589844, 4201.538574, 4207.692383, 4210.769043, 4202.051270, 4213.846191, 4203.589844, 4191.794922, 4310.256348, 4208.717773, 3510.000000, 8136.000000, 8122.000000, 0.000000, 0.000000, 0.000000, -21815.000000, 483.076904, 4.000000, 4.000000, 4.000000, 4.000000, 4.000000, 4.000000, 4.000000, 4.000000, 4.000000, 4.000000, 4.000000, 4.000000, 4.000000, 4.000000, 4.000000, 4.000000
8.000000, 0.000000, 4186.666504, 4210.769043, 4226.153809, 4187.692383, 4208.717773, 4200.000000, 4206.666504, 4233.333008, 4218.974121, 4227.179199, 4218.461426, 4208.205078, 4323.076660, 4210.769043, 3518.000000, 8136.000000, 8122.000000, 0.000000, 0.000000, 0.000000, -21815.000000, 490.769226, 4.000000, 4.000000, 4.000000, 4.000000, 4.000000, 4.000000, 4.000000, 4.000000, 4.000000, 4.000000, 4.000000, 4.000000, 4.000000, 4.000000, 4.000000, 4.000000
9.000000, 0.000000, 4182.563965, 4210.769043, 4233.846191, 4187.179199, 4197.948730, 4209.743652, 4216.922852, 4253.333008, 4236.410156, 4237.948730, 4224.102539, 4214.358887, 4328.205078, 4203.076660, 3531.000000, 8113.000000, 8121.000000, 0.000000, 0.000000, 0.000000, -21815.000000, 498.461517, 4.000000, 4.000000, 4.000000, 4.000000, 4.000000, 4.000000, 4.000000, 4.000000, 4.000000, 4.000000, 4.000000, 4.000000, 4.000000, 4.000000, 4.000000, 4.000000
10.000000, 0.000000, 4185.127930, 4213.846191, 4224.615234, 4178.974121, 4193.333008, 4217.948730, 4223.076660, 4242.563965, 4230.769043, 4234.358887, 4215.384277, 4206.153809, 4320.512695, 4202.051270, 3534.000000, 8113.000000, 8121.000000, 0.000000, 0.000000, 0.000000, -21815.000000, 506.153839, 4.000000, 4.000000, 4.000000, 4.000000, 4.000000, 4.000000, 4.000000, 4.000000, 4.000000, 4.000000, 4.000000, 4.000000, 4.000000, 4.000000, 4.000000, 4.000000
11.000000, 0.000000, 4163.589844, 4203.589844, 4210.769043, 4173.846191, 4200.000000, 4215.384277, 4216.410156, 4229.743652, 4220.000000, 4218.974121, 4202.563965, 4189.743652, 4310.769043, 4192.307617, 1049.000000, 8099.000000, 8131.000000, 0.000000, 0.000000, 0.000000, -21815.000000, 514.358948, 4.000000, 4.000000, 4.000000, 4.000000, 4.000000, 4.000000, 4.000000, 4.000000, 4.000000, 4.000000, 4.000000, 4.000000, 4.000000, 4.000000, 4.000000, 4.000000
12.000000, 0.000000, 4153.333008, 4197.948730, 4202.051270, 4168.205078, 4203.076660, 4214.358887, 4215.384277, 4233.846191, 4219.487305, 4221.025391, 4203.589844, 4181.025391, 4314.871582, 4178.974121, 3480.000000, 8099.000000, 8131.000000, 0.000000, 0.000000, 0.000000, -21815.000000, 522.051270, 4.000000, 4.000000, 4.000000, 4.000000, 4.000000, 4.000000, 4.000000, 4.000000, 4.000000, 4.000000, 4.000000, 4.000000, 4.000000, 4.000000, 4.000000, 4.000000
13.000000, 0.000000, 4168.205078, 4210.256348, 4205.641113, 4172.820313, 4200.000000, 4220.512695, 4223.076660, 4236.922852, 4222.563965, 4243.589844, 4220.512695, 4190.256348, 4332.820313, 4191.794922, 3421.000000, 8081.000000, 8124.000000, 0.000000, 0.000000, 0.000000, -21815.000000, 530.256409, 4.000000, 4.000000, 4.000000, 4.000000, 4.000000, 4.000000, 4.000000, 4.000000, 4.000000, 4.000000, 4.000000, 4.000000, 4.000000, 4.000000, 4.000000, 4.000000
14.000000, 0.000000, 4155.384277, 4204.102539, 4199.487305, 4186.153809, 4200.512695, 4219.487305, 4218.461426, 4230.769043, 4222.563965, 4245.641113, 4219.487305, 4188.717773, 4336.922852, 4169.230469, 3534.000000, 8081.000000, 8124.000000, 0.000000, 0.000000, 0.000000, -21815.000000, 537.948730, 4.000000, 4.000000, 4.000000, 4.000000, 4.000000, 4.000000, 4.000000, 4.000000, 4.000000, 4.000000, 4.000000, 4.000000, 4.000000, 4.000000, 4.000000, 4.000000
15.000000, 0.000000, 4157.436035, 4206.666504, 4192.820313, 4188.205078, 4204.102539, 4208.717773, 4210.769043, 4215.897461, 4215.384277, 4227.179199, 4202.051270, 4178.461426, 4323.076660, 4175.897461, 1049.000000, 8082.000000, 8113.000000, 0.000000, 0.000000, 0.000000, -21815.000000, 545.640991, 4.000000, 4.000000, 4.000000, 4.000000, 4.000000, 4.000000, 4.000000, 4.000000, 4.000000, 4.000000, 4.000000, 4.000000, 4.000000, 4.000000, 4.000000, 4.000000
16.000000, 0.000000, 4158.461426, 4211.281738, 4202.563965, 4180.512695, 4206.666504, 4209.230469, 4214.871582, 4212.307617, 4212.307617, 4229.743652, 4208.717773, 4188.717773, 4329.743652, 4195.897461, 0.000000, 8082.000000, 8113.000000, 0.000000, 0.000000, 0.000000, -21815.000000, 553.333313, 4.000000, 4.000000, 4.000000, 4.000000, 4.000000, 4.000000, 4.000000, 4.000000, 4.000000, 4.000000, 4.000000, 4.000000, 4.000000, 4.000000, 4.000000, 4.000000
17.000000, 0.000000, 4160.000000, 4212.820313, 4220.000000, 4184.615234, 4206.666504, 4216.922852, 4216.922852, 4218.974121, 4218.461426, 4243.589844, 4227.179199, 4204.102539, 4354.871582, 4175.384277, 0.000000, 8087.000000, 8106.000000, 0.000000, 0.000000, 0.000000, -21815.000000, 561.538452, 4.000000, 4.000000, 4.000000, 4.000000, 4.000000, 4.000000, 4.000000, 4.000000, 4.000000, 4.000000, 4.000000, 4.000000, 4.000000, 4.000000, 4.000000, 4.000000
18.000000, 0.000000, 4178.974121, 4229.743652, 4231.281738, 4202.051270, 4204.102539, 4213.846191, 4213.846191, 4209.743652, 4215.897461, 4236.922852, 4221.538574, 4205.127930, 4356.922852, 4196.922852, 0.000000, 8087.000000, 8106.000000, 0.000000, 0.000000, 0.000000, -21815.000000, 569.230774, 4.000000, 4.000000, 4.000000, 4.000000, 4.000000, 4.000000, 4.000000, 4.000000, 4.000000, 4.000000, 4.000000, 4.000000, 4.000000, 4.000000, 4.000000, 4.000000
19.000000, 0.000000, 4164.615234, 4218.974121, 4227.179199, 4201.025391, 4201.538574, 4215.384277, 4223.076660, 4204.615234, 4213.333008, 4227.692383, 4212.820313, 4202.051270, 4349.743652, 4198.974121, 0.000000, 8107.000000, 8102.000000, 0.000000, 0.000000, 0.000000, -21815.000000, 577.435913, 4.000000, 4.000000, 4.000000, 4.000000, 4.000000, 4.000000, 4.000000, 4.000000, 4.000000, 4.000000, 4.000000, 4.000000, 4.000000, 4.000000, 4.000000, 4.000000
20.000000, 0.000000, 4164.102539, 4216.410156, 4226.666504, 4183.076660, 4196.410156, 4226.666504, 4233.333008, 4217.948730, 4223.076660, 4231.281738, 4219.487305, 4206.666504, 4364.102539, 4194.358887, 0.000000, 8107.000000, 8102.000000, 0.000000, 0.000000, 0.000000, -21815.000000, 585.128174, 4.000000, 4.000000, 4.000000, 4.000000, 4.000000, 4.000000, 4.000000, 4.000000, 4.000000, 4.000000, 4.000000, 4.000000, 4.000000, 4.000000, 4.000000, 4.000000
21.000000, 0.000000, 4166.153809, 4228.205078, 4222.051270, 4183.076660, 4191.794922, 4227.179199, 4222.051270, 4224.102539, 4228.717773, 4244.102539, 4226.153809, 4206.666504, 4375.897461, 4201.538574, 0.000000, 8116.000000, 8099.000000, 0.000000, 0.000000, 0.000000, -21815.000000, 593.333313, 4.000000, 4.000000, 4.000000, 4.000000, 4.000000, 4.000000, 4.000000, 4.000000, 4.000000, 4.000000, 4.000000, 4.000000, 4.000000, 4.000000, 4.000000, 4.000000
22.000000, 0.000000, 4157.948730, 4229.230469, 4208.205078, 4193.846191, 4187.179199, 4216.922852, 4214.358887, 4217.948730, 4217.948730, 4244.102539, 4218.974121, 4196.922852, 4364.102539, 4190.769043, 0.000000, 8116.000000, 8099.000000, 0.000000, 0.000000, 0.000000, -21815.000000, 601.025635, 4.000000, 4.000000, 4.000000, 4.000000, 4.000000, 4.000000, 4.000000, 4.000000, 4.000000, 4.000000, 4.000000, 4.000000, 4.000000, 4.000000, 4.000000, 4.000000
23.000000, 0.000000, 4157.948730, 4230.769043, 4203.589844, 4185.127930, 4171.794922, 4207.179199, 4218.461426, 4206.666504, 4202.563965, 4214.871582, 4201.025391, 4186.666504, 4348.205078, 4203.076660, 0.000000, 8150.000000, 8110.000000, 0.000000, 0.000000, 0.000000, -21815.000000, 609.230774, 4.000000, 4.000000, 4.000000, 4.000000, 4.000000, 4.000000, 4.000000, 4.000000, 4.000000, 4.000000, 4.000000, 4.000000, 4.000000, 4.000000, 4.000000, 4.000000
24.000000, 0.000000, 4143.076660, 4223.076660, 4199.487305, 4166.666504, 4171.794922, 4200.000000, 4205.127930, 4192.820313, 4197.436035, 4206.153809, 4195.384277, 4182.051270, 4351.281738, 4192.307617, 0.000000, 8150.000000, 8110.000000, 0.000000, 0.000000, 0.000000, -21815.000000, 616.923035, 4.000000, 4.000000, 4.000000, 4.000000, 4.000000, 4.000000, 4.000000, 4.000000, 4.000000, 4.000000, 4.000000, 4.000000, 4.000000, 4.000000, 4.000000, 4.000000
25.000000, 0.000000, 4144.615234, 4227.179199, 4199.487305, 4178.461426, 4192.307617, 4198.974121, 4190.769043, 4183.076660, 4194.358887, 4216.922852, 4200.512695, 4180.512695, 4351.281738, 4187.692383, 0.000000, 8161.000000, 8125.000000, 0.000000, 0.000000, 0.000000, -21815.000000, 624.615356, 4.000000, 4.000000, 4.000000, 4.000000, 4.000000, 4.000000, 4.000000, 4.000000, 4.000000, 4.000000, 4.000000, 4.000000, 4.000000, 4.000000, 4.000000, 4.000000
26.000000, 0.000000, 4142.563965, 4231.794922, 4203.076660, 4198.461426, 4193.333008, 4199.487305, 4202.563965, 4185.641113, 4187.692383, 4193.846191, 4181.538574, 4177.948730, 4342.051270, 4200.000000, 0.000000, 8161.000000, 8125.000000, 0.000000, 0.000000, 0.000000, -21815.000000, 632.820496, 4.000000, 4.000000, 4.000000, 4.000000, 4.000000, 4.000000, 4.000000, 4.000000, 4.000000, 4.000000, 4.000000, 4.000000, 4.000000, 4.000000, 4.000000, 4.000000
27.000000, 0.000000, 4135.384277, 4231.281738, 4198.974121, 4190.769043, 4187.692383, 4199.487305, 4214.871582, 4191.794922, 4186.153809, 4169.743652, 4154.358887, 4173.846191, 4327.692383, 4191.281738, 0.000000, 8173.000000, 8144.000000, 0.000000, 0.000000, 0.000000, -21815.000000, 640.512817, 4.000000, 4.000000, 4.000000, 4.000000, 4.000000, 4.000000, 4.000000, 4.000000, 4.000000, 4.000000, 4.000000, 4.000000, 4.000000, 4.000000, 4.000000, 4.000000
28.000000, 0.000000, 4145.641113, 4240.000000, 4197.948730, 4174.358887, 4206.153809, 4204.102539, 4202.563965, 4192.307617, 4192.820313, 4199.487305, 4175.384277, 4183.589844, 4315.384277, 4205.127930, 0.000000, 8173.000000, 8144.000000, 0.000000, 0.000000, 0.000000, -21815.000000, 648.205139, 4.000000, 4.000000, 4.000000, 4.000000, 4.000000, 4.000000, 4.000000, 4.000000, 4.000000, 4.000000, 4.000000, 4.000000, 4.000000, 4.000000, 4.000000, 4.000000
29.000000, 0.000000, 4146.666504, 4240.000000, 4201.025391, 4177.948730, 4205.127930, 4198.974121, 4185.127930, 4185.641113, 4193.846191, 4221.025391, 4202.051270, 4190.769043, 4417.948730, 4231.281738, 0.000000, 8196.000000, 8137.000000, 0.000000, 0.000000, 0.000000, -21815.000000, 656.410217, 4.000000, 4.000000, 4.000000, 4.000000, 4.000000, 4.000000, 4.000000, 4.000000, 4.000000, 4.000000, 4.000000, 4.000000, 4.000000, 4.000000, 4.000000, 4.000000
30.000000, 0.000000, 4136.922852, 4244.102539, 4202.051270, 4196.922852, 4180.000000, 4185.127930, 4188.717773, 4176.410156, 4182.563965, 4200.000000, 4175.384277, 4173.846191, 4650.256348, 4219.487305, 0.000000, 8196.000000, 8137.000000, 0.000000, 0.000000, 0.000000, -21815.000000, 664.102539, 4.000000, 4.000000, 4.000000, 4.000000, 4.000000, 4.000000, 4.000000, 4.000000, 4.000000, 4.000000, 4.000000, 4.000000, 4.000000, 4.000000, 4.000000, 4.000000
31.000000, 0.000000, 4135.384277, 4263.589844, 4205.641113, 4194.871582, 4185.641113, 4190.256348, 4201.025391, 4185.641113, 4189.743652, 4200.000000, 4160.000000, 4171.794922, 4810.769043, 4215.384277, 0.000000, 8202.000000, 8134.000000, 0.000000, 0.000000, 0.000000, -21815.000000, 672.307678, 4.000000, 4.000000, 4.000000, 4.000000, 4.000000, 4.000000, 4.000000, 4.000000, 4.000000, 4.000000, 4.000000, 4.000000, 4.000000, 4.000000, 4.000000, 4.000000
32.000000, 0.000000, 4147.692383, 4272.820313, 4212.307617, 4165.641113, 4207.692383, 4206.666504, 4202.563965, 4212.307617, 4217.948730, 4228.717773, 4194.358887, 4195.897461, 4823.076660, 4229.743652, 0.000000, 8202.000000, 8134.000000, 0.000000, 0.000000, 0.000000, -21815.000000, 680.000000, 4.000000, 4.000000, 4.000000, 4.000000, 4.000000, 4.000000, 4.000000, 4.000000, 4.000000, 4.000000, 4.000000, 4.000000, 4.000000, 4.000000, 4.000000, 4.000000
33.000000, 0.000000, 4135.897461, 4266.153809, 4204.102539, 4160.000000, 4206.666504, 4212.307617, 4206.666504, 4217.948730, 4224.102539, 4242.563965, 4210.256348, 4200.512695, 4823.589844, 4196.922852, 0.000000, 8229.000000, 8148.000000, 0.000000, 0.000000, 0.000000, -21815.000000, 687.692261, 4.000000, 4.000000, 4.000000, 4.000000, 4.000000, 4.000000, 4.000000, 4.000000, 4.000000, 4.000000, 4.000000, 4.000000, 4.000000, 4.000000, 4.000000, 4.000000
34.000000, 0.000000, 4133.846191, 4301.025391, 4195.384277, 4181.025391, 4196.922852, 4214.358887, 4220.000000, 4201.025391, 4208.717773, 4230.256348, 4188.205078, 4180.000000, 4833.333008, 4207.179199, 0.000000, 8229.000000, 8148.000000, 0.000000, 0.000000, 0.000000, -21815.000000, 695.384583, 4.000000, 4.000000, 4.000000, 4.000000, 4.000000, 4.000000, 4.000000, 4.000000, 4.000000, 4.000000, 4.000000, 4.000000, 4.000000, 4.000000, 4.000000, 4.000000
35.000000, 0.000000, 4134.358887, 4334.871582, 4192.307617, 4181.538574, 4206.153809, 4215.897461, 4215.897461, 4206.153809, 4210.256348, 4217.948730, 4174.358887, 4167.692383, 4808.205078, 4232.307617, 0.000000, 8232.000000, 8150.000000, 0.000000, 0.000000, 0.000000, -21815.000000, 703.589722, 4.000000, 4.000000, 4.000000, 4.000000, 4.000000, 4.000000, 4.000000, 4.000000, 4.000000, 4.000000, 4.000000, 4.000000, 4.000000, 4.000000, 4.000000, 4.000000
36.000000, 0.000000, 4111.281738, 4342.563965, 4181.538574, 4165.127930, 4210.769043, 4209.743652, 4206.666504, 4220.512695, 4218.974121, 4218.974121, 4180.512695, 4173.846191, 4803.589844, 4205.127930, 0.000000, 8232.000000, 8150.000000, 0.000000, 0.000000, 0.000000, -21815.000000, 711.282043, 4.000000, 4.000000, 4.000000, 4.000000, 4.000000, 4.000000, 4.000000, 4.000000, 4.000000, 4.000000, 4.000000, 4.000000, 4.000000, 4.000000, 4.000000, 4.000000
37.000000, 0.000000, 4128.717773, 4379.487305, 4188.205078, 4171.281738, 4191.281738, 4209.230469, 4216.410156, 4209.743652, 4211.281738, 4217.436035, 4181.538574, 4177.436035, 4812.820313, 4227.692383, 0.000000, 8246.000000, 8161.000000, 0.000000, 0.000000, 0.000000, -21815.000000, 718.974365, 4.000000, 4.000000, 4.000000, 4.000000, 4.000000, 4.000000, 4.000000, 4.000000, 4.000000, 4.000000, 4.000000, 4.000000, 4.000000, 4.000000, 4.000000, 4.000000
38.000000, 0.000000, 4127.179199, 4388.717773, 4193.333008, 4176.410156, 4185.641113, 4213.333008, 4220.000000, 4201.025391, 4207.179199, 4214.871582, 4176.922852, 4170.769043, 4803.589844, 4229.230469, 0.000000, 8246.000000, 8161.000000, 0.000000, 0.000000, 0.000000, -21815.000000, 727.179443, 4.000000, 4.000000, 4.000000, 4.000000, 4.000000, 4.000000, 4.000000, 4.000000, 4.000000, 4.000000, 4.000000, 4.000000, 4.000000, 4.000000, 4.000000, 4.000000
39.000000, 0.000000, 4101.025391, 4391.281738, 4179.487305, 4163.589844, 4202.051270, 4200.512695, 4204.615234, 4196.410156, 4198.974121, 4209.743652, 4170.256348, 4163.589844, 4793.846191, 4208.717773, 0.000000, 8248.000000, 8166.000000, 0.000000, 0.000000, 0.000000, -21815.000000, 734.871765, 4.000000, 4.000000, 4.000000, 4.000000, 4.000000, 4.000000, 4.000000, 4.000000, 4.000000, 4.000000, 4.000000, 4.000000, 4.000000, 4.000000, 4.000000, 4.000000
40.000000, 0.000000, 4113.333008, 4427.692383, 4173.333008, 4157.436035, 4203.589844, 4187.692383, 4195.897461, 4184.102539, 4183.589844, 4201.538574, 4165.641113, 4162.563965, 4788.205078, 4227.692383, 0.000000, 8248.000000, 8166.000000, 0.000000, 0.000000, 0.000000, -21815.000000, 742.564087, 4.000000, 4.000000, 4.000000, 4.000000, 4.000000, 4.000000, 4.000000, 4.000000, 4.000000, 4.000000, 4.000000, 4.000000, 4.000000, 4.000000, 4.000000, 4.000000
41.000000, 0.000000, 4100.512695, 4429.743652, 4173.846191, 4150.769043, 4185.127930, 4197.436035, 4206.666504, 4188.717773, 4190.256348, 4201.025391, 4169.230469, 4163.076660, 4782.051270, 4222.051270, 0.000000, 8250.000000, 8163.000000, 0.000000, 0.000000, 0.000000, -21815.000000, 750.769226, 4.000000, 4.000000, 4.000000, 4.000000, 4.000000, 4.000000, 4.000000, 4.000000, 4.000000, 4.000000, 4.000000, 4.000000, 4.000000, 4.000000, 4.000000, 4.000000
42.000000, 0.000000, 4088.205078, 4429.230469, 4176.410156, 4147.692383, 4178.461426, 4202.563965, 4211.281738, 4202.051270, 4203.589844, 4201.538574, 4168.717773, 4164.102539, 4769.743652, 4219.487305, 0.000000, 8250.000000, 8163.000000, 0.000000, 0.000000, 0.000000, -21815.000000, 758.461548, 4.000000, 4.000000, 4.000000, 4.000000, 4.000000, 4.000000, 4.000000, 4.000000, 4.000000, 4.000000, 4.000000, 4.000000, 4.000000, 4.000000, 4.000000, 4.000000
43.000000, 0.000000, 4108.717773, 4471.281738, 4184.102539, 4168.205078, 4193.333008, 4199.487305, 4203.076660, 4201.538574, 4206.153809, 4200.512695, 4161.538574, 4165.641113, 4759.487305, 4227.179199, 0.000000, 8240.000000, 8175.000000, 0.000000, 0.000000, 0.000000, -21815.000000, 766.666626, 4.000000, 4.000000, 4.000000, 4.000000, 4.000000, 4.000000, 4.000000, 4.000000, 4.000000, 4.000000, 4.000000, 4.000000, 4.000000, 4.000000, 4.000000, 4.000000
44.000000, 0.000000, 4118.974121, 4499.487305, 4191.281738, 4184.102539, 4200.000000, 4198.461426, 4198.461426, 4192.820313, 4203.589844, 4202.563965, 4162.051270, 4166.666504, 4753.846191, 4222.051270, 0.000000, 8240.000000, 8175.000000, 0.000000, 0.000000, 0.000000, -21815.000000, 774.358948, 4.000000, 4.000000, 4.000000, 4.000000, 4.000000, 4.000000, 4.000000, 4.000000, 4.000000, 4.000000, 4.000000, 4.000000, 4.000000, 4.000000, 4.000000, 4.000000
45.000000, 0.000000, 4122.051270, 4495.384277, 4190.769043, 4173.333008, 4185.127930, 4190.256348, 4197.436035, 4182.563965, 4193.333008, 4198.461426, 4165.127930, 4163.589844, 4738.974121, 4209.230469, 0.000000, 8239.000000, 8185.000000, 0.000000, 0.000000, 0.000000, -21815.000000, 782.051270, 4.000000, 4.000000, 4.000000, 4.000000, 4.000000, 4.000000, 4.000000, 4.000000, 4.000000, 4.000000, 4.000000, 4.000000, 4.000000, 4.000000, 4.000000, 4.000000
46.000000, 0.000000, 4122.563965, 4502.563965, 4181.538574, 4162.563965, 4187.692383, 4192.820313, 4202.563965, 4187.692383, 4192.820313, 4189.743652, 4158.461426, 4162.051270, 4715.384277, 4196.410156, 0.000000, 8239.000000, 8185.000000, 0.000000, 0.000000, 0.000000, -21815.000000, 789.743591, 4.000000, 4.000000, 4.000000, 4.000000, 4.000000, 4.000000, 4.000000, 4.000000, 4.000000, 4.000000, 4.000000, 4.000000, 4.000000, 4.000000, 4.000000, 4.000000
47.000000, 0.000000, 4135.384277, 4535.897461, 4181.025391, 4173.846191, 4209.743652, 4206.666504, 4202.051270, 4194.358887, 4200.000000, 4188.717773, 4152.820313, 4164.102539, 4697.948730, 4201.025391, 0.000000, 8228.000000, 8201.000000, 0.000000, 0.000000, 0.000000, -21815.000000, 797.948669, 4.000000, 4.000000, 4.000000, 4.000000, 4.000000, 4.000000, 4.000000, 4.000000, 4.000000, 4.000000, 4.000000, 4.000000, 4.000000, 4.000000, 4.000000, 4.000000
48.000000, 0.000000, 4151.794922, 4560.000000, 4193.846191, 4188.717773, 4209.743652, 4202.051270, 4188.717773, 4183.589844, 4190.769043, 4190.256348, 4153.846191, 4162.051270, 4684.615234, 4211.281738, 0.000000, 8228.000000, 8201.000000, 0.000000, 0.000000, 0.000000, -21815.000000, 805.640991, 4.000000, 4.000000, 4.000000, 4.000000, 4.000000, 4.000000, 4.000000, 4.000000, 4.000000, 4.000000, 4.000000, 4.000000, 4.000000, 4.000000, 4.000000, 4.000000
49.000000, 0.000000, 4147.179199, 4560.000000, 4194.871582, 4185.641113, 4195.897461, 4188.717773, 4184.102539, 4173.846191, 4180.000000, 4183.589844, 4142.563965, 4151.794922, 4654.871582, 4215.384277, 0.000000, 8221.000000, 8212.000000, 0.000000, 0.000000, 0.000000, -21815.000000, 813.333313, 4.000000, 4.000000, 4.000000, 4.000000, 4.000000, 4.000000, 4.000000, 4.000000, 4.000000, 4.000000, 4.000000, 4.000000, 4.000000, 4.000000, 4.000000, 4.000000
50.000000, 0.000000, 4147.692383, 4563.076660, 4190.256348, 4181.538574, 4197.948730, 4184.615234, 4180.000000, 4177.436035, 4184.102539, 4178.974121, 4131.794922, 4148.205078, 4629.230469, 4214.871582, 0.000000, 8221.000000, 8212.000000, 0.000000, 0.000000, 0.000000, -21815.000000, 821.538452, 4.000000, 4.000000, 4.000000, 4.000000, 4.000000, 4.000000, 4.000000, 4.000000, 4.000000, 4.000000, 4.000000, 4.000000, 4.000000, 4.000000, 4.000000, 4.000000
51.000000, 0.000000, 4154.358887, 4575.897461, 4196.410156, 4198.461426, 4204.102539, 4184.615234, 4176.922852, 4184.102539, 4178.461426, 4185.641113, 4148.205078, 4152.820313, 4633.846191, 4220.000000, 0.000000, 8213.000000, 8225.000000, 0.000000, 0.000000, 0.000000, -21815.000000, 829.230774, 4.000000, 4.000000, 4.000000, 4.000000, 4.000000, 4.000000, 4.000000, 4.000000, 4.000000, 4.000000, 4.000000, 4.000000, 4.000000, 4.000000, 4.000000, 4.000000
52.000000, 0.000000, 4153.846191, 4580.512695, 4200.000000, 4205.127930, 4201.025391, 4193.333008, 4190.769043, 4182.563965, 4166.666504, 4187.692383, 4153.333008, 4151.794922, 4628.717773, 4224.615234, 0.000000, 8213.000000, 8225.000000, 0.000000, 0.000000, 0.000000, -21815.000000, 836.923035, 4.000000, 4.000000, 4.000000, 4.000000, 4.000000, 4.000000, 4.000000, 4.000000, 4.000000, 4.000000, 4.000000, 4.000000, 4.000000, 4.000000, 4.000000, 4.000000
53.000000, 0.000000, 4156.922852, 4574.871582, 4195.897461, 4184.615234, 4195.897461, 4202.563965, 4198.974121, 4185.641113, 4173.846191, 4184.102539, 4138.974121, 4148.717773, 4604.102539, 4218.461426, 0.000000, 8195.000000, 8236.000000, 0.000000, 0.000000, 0.000000, -21815.000000, 845.128174, 4.000000, 4.000000, 4.000000, 4.000000, 4.000000, 4.000000, 4.000000, 4.000000, 4.000000, 4.000000, 4.000000, 4.000000, 4.000000, 4.000000, 4.000000, 4.000000
54.000000, 0.000000, 4161.538574, 4575.897461, 4196.922852, 4189.743652, 4200.000000, 4200.000000, 4194.871582, 4193.333008, 4188.205078, 4190.256348, 4146.153809, 4154.871582, 4605.127930, 4221.538574, 0.000000, 8195.000000, 8236.000000, 0.000000, 0.000000, 0.000000, -21815.000000, 852.820496, 4.000000, 4.000000, 4.000000, 4.000000, 4.000000, 4.000000, 4.000000, 4.000000, 4.000000, 4.000000, 4.000000, 4.000000, 4.000000, 4.000000, 4.000000, 4.000000
55.000000, 0.000000, 4164.615234, 4584.615234, 4200.000000, 4204.102539, 4209.230469, 4205.127930, 4197.436035, 4185.641113, 4185.127930, 4203.076660, 4161.025391, 4161.025391, 4612.820313, 4224.102539, 0.000000, 8189.000000, 8229.000000, 0.000000, 0.000000, 0.000000, -21815.000000, 860.512817, 4.000000, 4.000000, 4.000000, 4.000000, 4.000000, 4.000000, 4.000000, 4.000000, 4.000000, 4.000000, 4.000000, 4.000000, 4.000000, 4.000000, 4.000000, 4.000000
56.000000, 0.000000, 4152.820313, 4572.820313, 4192.820313, 4186.666504, 4195.384277, 4201.538574, 4187.179199, 4158.974121, 4165.641113, 4201.538574, 4149.743652, 4155.897461, 4591.794922, 4222.051270, 0.000000, 8189.000000, 8229.000000, 0.000000, 0.000000, 0.000000, -21815.000000, 868.717957, 4.000000, 4.000000, 4.000000, 4.000000, 4.000000, 4.000000, 4.000000, 4.000000, 4.000000, 4.000000, 4.000000, 4.000000, 4.000000, 4.000000, 4.000000, 4.000000
57.000000, 0.000000, 4144.615234, 4558.974121, 4187.179199, 4186.666504, 4185.641113, 4183.589844, 4168.717773, 4141.538574, 4151.281738, 4194.358887, 4140.000000, 4148.205078, 4573.846191, 4220.000000, 0.000000, 8176.000000, 8207.000000, 0.000000, 0.000000, 0.000000, -21815.000000, 876.410217, 4.000000, 4.000000, 4.000000, 4.000000, 4.000000, 4.000000, 4.000000, 4.000000, 4.000000, 4.000000, 4.000000, 4.000000, 4.000000, 4.000000, 4.000000, 4.000000
58.000000, 0.000000, 4161.538574, 4566.153809, 4197.948730, 4206.153809, 4210.256348, 4189.230469, 4176.410156, 4156.922852, 4164.102539, 4205.641113, 4154.358887, 4154.358887, 4586.153809, 4217.436035, 0.000000, 8176.000000, 8207.000000, 0.000000, 0.000000, 0.000000, -21815.000000, 884.102539, 4.000000, 4.000000, 4.000000, 4.000000, 4.000000, 4.000000, 4.000000, 4.000000, 4.000000, 4.000000, 4.000000, 4.000000, 4.000000, 4.000000, 4.000000, 4.000000
59.000000, 0.000000, 4164.102539, 4564.615234, 4201.538574, 4203.076660, 4217.948730, 4202.563965, 4190.256348, 4182.051270, 4184.102539, 4219.487305, 4161.025391, 4160.000000, 4587.179199, 4217.436035, 0.000000, 8164.000000, 8199.000000, 0.000000, 0.000000, 0.000000, -21815.000000, 892.307678, 4.000000, 4.000000, 4.000000, 4.000000, 4.000000, 4.000000, 4.000000, 4.000000, 4.000000, 4.000000, 4.000000, 4.000000, 4.000000, 4.000000, 4.000000, 4.000000
60.000000, 0.000000, 4156.410156, 4557.435547, 4184.615234, 4198.461426, 4193.333008, 4188.205078, 4185.127930, 4186.666504, 4184.102539, 4214.871582, 4151.281738, 4149.743652, 4569.743652, 4210.769043, 0.000000, 8164.000000, 8199.000000, 0.000000, 0.000000, 0.000000, -21815.000000, 900.000000, 4.000000, 4.000000, 4.000000, 4.000000, 4.000000, 4.000000, 4.000000, 4.000000, 4.000000, 4.000000, 4.000000, 4.000000, 4.000000, 4.000000, 4.000000, 4.000000
61.000000, 0.000000, 4157.436035, 4558.974121, 4175.897461, 4201.538574, 4189.743652, 4180.512695, 4183.589844, 4186.153809, 4187.692383, 4214.871582, 4151.794922, 4146.666504, 4567.179199, 4212.820313, 0.000000, 8163.000000, 8172.000000, 0.000000, 0.000000, 0.000000, -21815.000000, 908.205078, 4.000000, 4.000000, 4.000000, 4.000000, 4.000000, 4.000000, 4.000000, 4.000000, 4.000000, 4.000000, 4.000000, 4.000000, 4.000000, 4.000000, 4.000000, 4.000000
62.000000, 0.000000, 4162.051270, 4558.974121, 4188.205078, 4194.358887, 4204.102539, 4194.871582, 4193.846191, 4202.563965, 4207.179199, 4233.846191, 4167.179199, 4163.589844, 4575.384277, 4217.948730, 0.000000, 8163.000000, 8172.000000, 0.000000, 0.000000, 0.000000, -21815.000000, 915.897400, 4.000000, 4.000000, 4.000000, 4.000000, 4.000000, 4.000000, 4.000000, 4.000000, 4.000000, 4.000000, 4.000000, 4.000000, 4.000000, 4.000000, 4.000000, 4.000000
63.000000, 0.000000, 4167.179199, 4557.435547, 4192.820313, 4191.794922, 4193.846191, 4191.281738, 4196.410156, 4204.102539, 4203.076660, 4238.974121, 4167.179199, 4167.692383, 4570.769043, 4209.743652, 0.000000, 8163.000000, 8158.000000, 0.000000, 0.000000, 0.000000, -21815.000000, 923.589722, 4.000000, 4.000000, 4.000000, 4.000000, 4.000000, 4.000000, 4.000000, 4.000000, 4.000000, 4.000000, 4.000000, 4.000000, 4.000000, 4.000000, 4.000000, 4.000000
64.000000, 0.000000, 4160.512695, 4555.897461, 4187.179199, 4200.512695, 4180.512695, 4184.102539, 4196.922852, 4187.692383, 4184.102539, 4219.487305, 4151.794922, 4155.384277, 4551.794922, 4209.743652, 3353.000000, 8163.000000, 8158.000000, 0.000000, 0.000000, 0.000000, -21815.000000, 931.794861, 4.000000, 4.000000, 4.000000, 4.000000, 4.000000, 4.000000, 4.000000, 4.000000, 4.000000, 4.000000, 4.000000, 4.000000, 4.000000, 4.000000, 4.000000, 4.000000
65.000000, 0.000000, 4167.179199, 4552.820313, 4200.000000, 4205.127930, 4189.743652, 4203.076660, 4203.076660, 4194.871582, 4189.743652, 4212.307617, 4156.922852, 4159.487305, 4548.717773, 4209.230469, 3517.000000, 8156.000000, 8151.000000, 0.000000, 0.000000, 0.000000, -21815.000000, 939.487183, 4.000000, 4.000000, 4.000000, 4.000000, 4.000000, 4.000000, 4.000000, 4.000000, 4.000000, 4.000000, 4.000000, 4.000000, 4.000000, 4.000000, 4.000000, 4.000000
66.000000, 0.000000, 4182.563965, 4550.769043, 4210.256348, 4200.000000, 4201.538574, 4215.384277, 4201.538574, 4193.846191, 4196.410156, 4222.051270, 4169.743652, 4169.230469, 4552.307617, 4200.000000, 2710.000000, 8156.000000, 8151.000000, 0.000000, 0.000000, 0.000000, -21815.000000, 947.179443, 4.000000, 4.000000, 4.000000, 4.000000, 4.000000, 4.000000, 4.000000, 4.000000, 4.000000, 4.000000, 4.000000, 4.000000, 4.000000, 4.000000, 4.000000, 4.000000
67.000000, 0.000000, 4177.436035, 4545.127930, 4192.307617, 4187.692383, 4202.051270, 4201.538574, 4191.281738, 4169.743652, 4180.000000, 4215.384277, 4160.000000, 4164.102539, 4538.974121, 4193.846191, 1979.000000, 8157.000000, 8143.000000, 0.000000, 0.000000, 0.000000, -21815.000000, 955.384583, 4.000000, 4.000000, 4.000000, 4.000000, 4.000000, 4.000000, 4.000000, 4.000000, 4.000000, 4.000000, 4.000000, 4.000000, 4.000000, 4.000000, 4.000000, 4.000000
68.000000, 0.000000, 4179.487305, 4542.563965, 4186.153809, 4189.230469, 4196.922852, 4187.692383, 4192.820313, 4172.820313, 4176.410156, 4204.102539, 4146.666504, 4159.487305, 4527.179199, 4192.820313, 3611.000000, 8157.000000, 8143.000000, 0.000000, 0.000000, 0.000000, -21815.000000, 963.076904, 4.000000, 4.000000, 4.000000, 4.000000, 4.000000, 4.000000, 4.000000, 4.000000, 4.000000, 4.000000, 4.000000, 4.000000, 4.000000, 4.000000, 4.000000, 4.000000
69.000000, 0.000000, 4190.769043, 4547.179199, 4202.563965, 4208.205078, 4190.256348, 4188.717773, 4204.102539, 4191.794922, 4194.871582, 4220.000000, 4161.025391, 4173.333008, 4537.435547, 4198.974121, 3539.000000, 8156.000000, 8137.000000, 0.000000, 0.000000, 0.000000, -21815.000000, 970.769226, 4.000000, 4.000000, 4.000000, 4.000000, 4.000000, 4.000000, 4.000000, 4.000000, 4.000000, 4.000000, 4.000000, 4.000000, 4.000000, 4.000000, 4.000000, 4.000000
70.000000, 0.000000, 4200.000000, 4550.769043, 4211.794922, 4211.281738, 4189.230469, 4191.281738, 4201.025391, 4190.256348, 4199.487305, 4238.974121, 4182.051270, 4184.615234, 4546.153809, 4198.461426, 3049.000000, 8156.000000, 8137.000000, 0.000000, 0.000000, 0.000000, -21815.000000, 978.974365, 4.000000, 4.000000, 4.000000, 4.000000, 4.000000, 4.000000, 4.000000, 4.000000, 4.000000, 4.000000, 4.000000, 4.000000, 4.000000, 4.000000, 4.000000, 4.000000
71.000000, 0.000000, 4204.615234, 4544.102539, 4210.256348, 4198.461426, 4190.769043, 4186.666504, 4188.205078, 4180.000000, 4185.641113, 4231.794922, 4178.974121, 4181.025391, 4530.769043, 4196.410156, 3514.000000, 8159.000000, 8142.000000, 0.000000, 0.000000, 0.000000, -21815.000000, 986.666626, 4.000000, 4.000000, 4.000000, 4.000000, 4.000000, 4.000000, 4.000000, 4.000000, 4.000000, 4.000000, 4.000000, 4.000000, 4.000000, 4.000000, 4.000000, 4.000000
72.000000, 0.000000, 4200.000000, 4531.794922, 4213.333008, 4195.897461, 4188.205078, 4184.615234, 4184.102539, 4182.563965, 4182.051270, 4220.000000, 4165.641113, 4181.025391, 4527.179199, 4198.461426, 3519.000000, 8159.000000, 8142.000000, 0.000000, 0.000000, 0.000000, -21815.000000, 994.358948, 4.000000, 4.000000, 4.000000, 4.000000, 4.000000, 4.000000, 4.000000, 4.000000, 4.000000, 4.000000, 4.000000, 4.000000, 4.000000, 4.000000, 4.000000, 4.000000
73.000000, 0.000000, 4208.205078, 4531.794922, 4221.538574, 4199.487305, 4186.666504, 4184.102539, 4183.589844, 4189.743652, 4191.281738, 4219.487305, 4171.794922, 4188.205078, 4536.922852, 4197.948730, 3540.000000, 8158.000000, 8141.000000, 0.000000, 0.000000, 0.000000, -21814.000000, 2.564102, 4.000000, 4.000000, 4.000000, 4.000000, 4.000000, 4.000000, 4.000000, 4.000000, 4.000000, 4.000000, 4.000000, 4.000000, 4.000000, 4.000000, 4.000000, 4.000000
74.000000, 0.000000, 4209.743652, 4534.358887, 4213.846191, 4201.025391, 4183.589844, 4173.333008, 4173.846191, 4177.436035, 4179.487305, 4214.871582, 4172.307617, 4182.051270, 4521.538574, 4196.922852, 3506.000000, 8158.000000, 8141.000000, 0.000000, 0.000000, 0.000000, -21814.000000, 10.256410, 4.000000, 4.000000, 4.000000, 4.000000, 4.000000, 4.000000, 4.000000, 4.000000, 4.000000, 4.000000, 4.000000, 4.000000, 4.000000, 4.000000, 4.000000, 4.000000
