title:neutral19, recorded:17.05.18 21.55.24, timestamp started:2018-05-12T20:28:52.032863+02:00            , sampling:128, subject:Noé, labels:COUNTER INTERPOLATED AF3 F7 F3 FC5 T7 P7 O1 O2 P8 T8 FC6 F4 F8 AF4 RAW_CQ GYROX GYROY MARKER MARKER_HARDWARE SYNC TIME_STAMP_s TIME_STAMP_ms CQ_AF3 CQ_F7 CQ_F3 CQ_FC5 CQ_T7 CQ_P7 CQ_O1 CQ_O2 CQ_P8 CQ_T8 CQ_FC6 CQ_F4 CQ_F8 CQ_AF4 CQ_CMS CQ_DRL, chan:40, samples:2622, units:emotiv
108.000000, 0.000000, 4301.025391, 4246.666504, 4207.179199, 4213.333008, 4218.461426, 4193.333008, 4194.358887, 4179.487305, 4197.436035, 4183.589844, 4190.769043, 4193.846191, 4217.948730, 4201.538574, 3570.000000, 8241.000000, 8174.000000, 0.000000, 0.000000, 0.000000, -21559.000000, 458.461517, 4.000000, 4.000000, 4.000000, 4.000000, 4.000000, 4.000000, 4.000000, 4.000000, 4.000000, 4.000000, 4.000000, 4.000000, 4.000000, 4.000000, 4.000000, 4.000000
109.000000, 0.000000, 4295.897461, 4249.230469, 4201.538574, 4208.205078, 4204.102539, 4201.025391, 4197.436035, 4184.102539, 4202.051270, 4183.076660, 4184.102539, 4182.051270, 4211.281738, 4200.000000, 3417.000000, 8238.000000, 8182.000000, 0.000000, 0.000000, 0.000000, -21559.000000, 466.153839, 4.000000, 4.000000, 4.000000, 4.000000, 4.000000, 4.000000, 4.000000, 4.000000, 4.000000, 4.000000, 4.000000, 4.000000, 4.000000, 4.000000, 4.000000, 4.000000
110.000000, 0.000000, 4298.461426, 4250.769043, 4198.461426, 4204.102539, 4204.102539, 4201.025391, 4200.000000, 4189.230469, 4202.051270, 4187.179199, 4182.051270, 4177.948730, 4203.589844, 4196.922852, 3548.000000, 8238.000000, 8182.000000, 0.000000, 0.000000, 0.000000, -21559.000000, 474.358948, 4.000000, 4.000000, 4.000000, 4.000000, 4.000000, 4.000000, 4.000000, 4.000000, 4.000000, 4.000000, 4.000000, 4.000000, 4.000000, 4.000000, 4.000000, 4.000000
111.000000, 0.000000, 4296.922852, 4244.102539, 4200.000000, 4202.563965, 4209.743652, 4201.538574, 4203.076660, 4194.871582, 4199.487305, 4180.512695, 4184.102539, 4180.512695, 4207.179199, 4199.487305, 836.000000, 8233.000000, 8181.000000, 0.000000, 0.000000, 0.000000, -21559.000000, 482.051270, 4.000000, 4.000000, 4.000000, 4.000000, 4.000000, 4.000000, 4.000000, 4.000000, 4.000000, 4.000000, 4.000000, 4.000000, 4.000000, 4.000000, 4.000000, 4.000000
112.000000, 0.000000, 4299.487305, 4242.563965, 4204.102539, 4202.563965, 4202.051270, 4203.589844, 4198.461426, 4194.358887, 4204.102539, 4172.307617, 4184.102539, 4182.051270, 4211.281738, 4198.974121, 3570.000000, 8233.000000, 8181.000000, 0.000000, 0.000000, 0.000000, -21559.000000, 489.743591, 4.000000, 4.000000, 4.000000, 4.000000, 4.000000, 4.000000, 4.000000, 4.000000, 4.000000, 4.000000, 4.000000, 4.000000, 4.000000, 4.000000, 4.000000, 4.000000
113.000000, 0.000000, 4298.974121, 4247.692383, 4209.743652, 4209.743652, 4209.743652, 4200.512695, 4194.871582, 4182.563965, 4202.051270, 4181.025391, 4186.666504, 4186.153809, 4213.333008, 4200.512695, 3417.000000, 8226.000000, 8181.000000, 0.000000, 0.000000, 0.000000, -21559.000000, 497.948700, 4.000000, 4.000000, 4.000000, 4.000000, 4.000000, 4.000000, 4.000000, 4.000000, 4.000000, 4.000000, 4.000000, 4.000000, 4.000000, 4.000000, 4.000000, 4.000000
114.000000, 0.000000, 4303.589844, 4248.717773, 4210.256348, 4217.948730, 4220.512695, 4198.461426, 4204.615234, 4189.743652, 4200.000000, 4188.717773, 4189.230469, 4187.692383, 4213.846191, 4198.461426, 3548.000000, 8226.000000, 8181.000000, 0.000000, 0.000000, 0.000000, -21559.000000, 505.641022, 4.000000, 4.000000, 4.000000, 4.000000, 4.000000, 4.000000, 4.000000, 4.000000, 4.000000, 4.000000, 4.000000, 4.000000, 4.000000, 4.000000, 4.000000, 4.000000
115.000000, 0.000000, 4308.205078, 4245.641113, 4206.666504, 4215.897461, 4211.794922, 4203.076660, 4211.794922, 4204.102539, 4206.666504, 4181.025391, 4190.256348, 4184.615234, 4215.897461, 4194.871582, 836.000000, 8220.000000, 8177.000000, 0.000000, 0.000000, 0.000000, -21559.000000, 513.333313, 4.000000, 4.000000, 4.000000, 4.000000, 4.000000, 4.000000, 4.000000, 4.000000, 4.000000, 4.000000, 4.000000, 4.000000, 4.000000, 4.000000, 4.000000, 4.000000
116.000000, 0.000000, 4298.974121, 4245.127930, 4205.641113, 4216.922852, 4218.974121, 4207.179199, 4211.794922, 4191.794922, 4206.666504, 4182.051270, 4192.820313, 4186.153809, 4223.076660, 4199.487305, 3570.000000, 8220.000000, 8177.000000, 0.000000, 0.000000, 0.000000, -21559.000000, 521.538452, 4.000000, 4.000000, 4.000000, 4.000000, 4.000000, 4.000000, 4.000000, 4.000000, 4.000000, 4.000000, 4.000000, 4.000000, 4.000000, 4.000000, 4.000000, 4.000000
117.000000, 0.000000, 4298.974121, 4248.205078, 4204.615234, 4217.436035, 4220.512695, 4203.076660, 4208.205078, 4178.974121, 4196.922852, 4186.153809, 4193.333008, 4180.512695, 4223.076660, 4196.922852, 3417.000000, 8211.000000, 8178.000000, 0.000000, 0.000000, 0.000000, -21559.000000, 529.230774, 4.000000, 4.000000, 4.000000, 4.000000, 4.000000, 4.000000, 4.000000, 4.000000, 4.000000, 4.000000, 4.000000, 4.000000, 4.000000, 4.000000, 4.000000, 4.000000
118.000000, 0.000000, 4291.794922, 4243.076660, 4195.384277, 4206.153809, 4189.743652, 4200.000000, 4204.102539, 4184.615234, 4196.410156, 4174.358887, 4186.153809, 4168.205078, 4211.794922, 4194.871582, 3548.000000, 8211.000000, 8178.000000, 0.000000, 0.000000, 0.000000, -21559.000000, 536.923035, 4.000000, 4.000000, 4.000000, 4.000000, 4.000000, 4.000000, 4.000000, 4.000000, 4.000000, 4.000000, 4.000000, 4.000000, 4.000000, 4.000000, 4.000000, 4.000000
119.000000, 0.000000, 4288.205078, 4238.461426, 4193.333008, 4204.102539, 4188.717773, 4201.538574, 4204.615234, 4188.717773, 4198.974121, 4171.281738, 4180.000000, 4168.205078, 4209.230469, 4196.922852, 836.000000, 8206.000000, 8176.000000, 0.000000, 0.000000, 0.000000, -21559.000000, 545.128174, 4.000000, 4.000000, 4.000000, 4.000000, 4.000000, 4.000000, 4.000000, 4.000000, 4.000000, 4.000000, 4.000000, 4.000000, 4.000000, 4.000000, 4.000000, 4.000000
120.000000, 0.000000, 4299.487305, 4244.102539, 4201.025391, 4214.358887, 4218.974121, 4201.538574, 4202.563965, 4192.307617, 4199.487305, 4186.666504, 4184.615234, 4175.897461, 4217.948730, 4196.922852, 3570.000000, 8206.000000, 8176.000000, 0.000000, 0.000000, 0.000000, -21559.000000, 552.820496, 4.000000, 4.000000, 4.000000, 4.000000, 4.000000, 4.000000, 4.000000, 4.000000, 4.000000, 4.000000, 4.000000, 4.000000, 4.000000, 4.000000, 4.000000, 4.000000
121.000000, 0.000000, 4292.820313, 4248.205078, 4198.974121, 4213.333008, 4223.076660, 4199.487305, 4201.538574, 4199.487305, 4208.205078, 4196.410156, 4193.333008, 4181.025391, 4222.051270, 4200.000000, 3417.000000, 8203.000000, 8172.000000, 0.000000, 0.000000, 0.000000, -21559.000000, 560.512817, 4.000000, 4.000000, 4.000000, 4.000000, 4.000000, 4.000000, 4.000000, 4.000000, 4.000000, 4.000000, 4.000000, 4.000000, 4.000000, 4.000000, 4.000000, 4.000000
122.000000, 0.000000, 4292.307617, 4250.256348, 4201.538574, 4210.769043, 4210.769043, 4193.333008, 4207.692383, 4204.615234, 4207.692383, 4198.974121, 4199.487305, 4189.743652, 4227.179199, 4202.051270, 3548.000000, 8203.000000, 8172.000000, 0.000000, 0.000000, 0.000000, -21559.000000, 568.717957, 4.000000, 4.000000, 4.000000, 4.000000, 4.000000, 4.000000, 4.000000, 4.000000, 4.000000, 4.000000, 4.000000, 4.000000, 4.000000, 4.000000, 4.000000, 4.000000
123.000000, 0.000000, 4297.436035, 4249.230469, 4214.871582, 4217.948730, 4215.384277, 4185.127930, 4204.615234, 4205.641113, 4203.589844, 4197.948730, 4205.641113, 4195.897461, 4233.846191, 4203.076660, 836.000000, 8195.000000, 8167.000000, 0.000000, 0.000000, 0.000000, -21559.000000, 576.410217, 4.000000, 4.000000, 4.000000, 4.000000, 4.000000, 4.000000, 4.000000, 4.000000, 4.000000, 4.000000, 4.000000, 4.000000, 4.000000, 4.000000, 4.000000, 4.000000
124.000000, 0.000000, 4289.743652, 4245.127930, 4213.846191, 4218.974121, 4206.666504, 4184.615234, 4190.769043, 4200.512695, 4207.179199, 4185.641113, 4203.076660, 4186.153809, 4229.230469, 4200.512695, 3570.000000, 8195.000000, 8167.000000, 0.000000, 0.000000, 0.000000, -21559.000000, 584.102539, 4.000000, 4.000000, 4.000000, 4.000000, 4.000000, 4.000000, 4.000000, 4.000000, 4.000000, 4.000000, 4.000000, 4.000000, 4.000000, 4.000000, 4.000000, 4.000000
125.000000, 0.000000, 4290.769043, 4245.641113, 4207.692383, 4213.846191, 4189.743652, 4188.205078, 4193.846191, 4195.384277, 4204.615234, 4180.000000, 4201.025391, 4180.512695, 4227.692383, 4196.410156, 3417.000000, 8187.000000, 8169.000000, 0.000000, 0.000000, 0.000000, -21559.000000, 592.307678, 4.000000, 4.000000, 4.000000, 4.000000, 4.000000, 4.000000, 4.000000, 4.000000, 4.000000, 4.000000, 4.000000, 4.000000, 4.000000, 4.000000, 4.000000, 4.000000
126.000000, 0.000000, 4292.820313, 4246.153809, 4210.769043, 4216.410156, 4197.948730, 4187.692383, 4203.589844, 4206.666504, 4207.179199, 4196.922852, 4206.666504, 4195.897461, 4232.820313, 4200.512695, 3548.000000, 8187.000000, 8169.000000, 0.000000, 0.000000, 0.000000, -21559.000000, 600.000000, 4.000000, 4.000000, 4.000000, 4.000000, 4.000000, 4.000000, 4.000000, 4.000000, 4.000000, 4.000000, 4.000000, 4.000000, 4.000000, 4.000000, 4.000000, 4.000000
127.000000, 0.000000, 4292.307617, 4245.641113, 4213.333008, 4220.000000, 4208.717773, 4190.256348, 4201.538574, 4209.743652, 4217.436035, 4212.307617, 4208.205078, 4202.563965, 4235.384277, 4201.538574, 54.000000, 8184.000000, 8169.000000, 0.000000, 0.000000, 0.000000, -21559.000000, 607.692322, 4.000000, 4.000000, 4.000000, 4.000000, 4.000000, 4.000000, 4.000000, 4.000000, 4.000000, 4.000000, 4.000000, 4.000000, 4.000000, 4.000000, 4.000000, 4.000000
0.000000, 0.000000, 4282.051270, 4241.025391, 4207.692383, 4213.846191, 4207.692383, 4197.948730, 4200.000000, 4189.743652, 4206.666504, 4203.589844, 4203.589844, 4191.794922, 4228.205078, 4198.974121, 3352.000000, 8184.000000, 8169.000000, 0.000000, 0.000000, 0.000000, -21559.000000, 615.897400, 4.000000, 4.000000, 4.000000, 4.000000, 4.000000, 4.000000, 4.000000, 4.000000, 4.000000, 4.000000, 4.000000, 4.000000, 4.000000, 4.000000, 4.000000, 4.000000
1.000000, 0.000000, 4268.717773, 4232.820313, 4203.076660, 4201.025391, 4202.563965, 4199.487305, 4202.563965, 4183.076660, 4188.717773, 4184.102539, 4197.948730, 4183.076660, 4210.769043, 4195.897461, 3511.000000, 8185.000000, 8168.000000, 0.000000, 0.000000, 0.000000, -21559.000000, 623.589722, 4.000000, 4.000000, 4.000000, 4.000000, 4.000000, 4.000000, 4.000000, 4.000000, 4.000000, 4.000000, 4.000000, 4.000000, 4.000000, 4.000000, 4.000000, 4.000000
2.000000, 0.000000, 4269.230469, 4232.307617, 4206.666504, 4199.487305, 4205.641113, 4195.384277, 4200.512695, 4198.461426, 4205.127930, 4185.127930, 4198.461426, 4185.127930, 4209.743652, 4195.384277, 2628.000000, 8185.000000, 8168.000000, 0.000000, 0.000000, 0.000000, -21559.000000, 631.282043, 4.000000, 4.000000, 4.000000, 4.000000, 4.000000, 4.000000, 4.000000, 4.000000, 4.000000, 4.000000, 4.000000, 4.000000, 4.000000, 4.000000, 4.000000, 4.000000
3.000000, 0.000000, 4269.743652, 4237.948730, 4209.230469, 4208.205078, 4201.025391, 4192.820313, 4193.846191, 4208.717773, 4226.153809, 4196.410156, 4204.102539, 4190.256348, 4228.205078, 4203.076660, 2067.000000, 8186.000000, 8167.000000, 0.000000, 0.000000, 0.000000, -21559.000000, 639.487183, 4.000000, 4.000000, 4.000000, 4.000000, 4.000000, 4.000000, 4.000000, 4.000000, 4.000000, 4.000000, 4.000000, 4.000000, 4.000000, 4.000000, 4.000000, 4.000000
4.000000, 0.000000, 4273.846191, 4240.512695, 4204.102539, 4206.666504, 4184.102539, 4197.948730, 4191.281738, 4201.538574, 4213.333008, 4193.846191, 4203.076660, 4189.743652, 4233.846191, 4198.974121, 3540.000000, 8186.000000, 8167.000000, 0.000000, 0.000000, 0.000000, -21559.000000, 647.179443, 4.000000, 4.000000, 4.000000, 4.000000, 4.000000, 4.000000, 4.000000, 4.000000, 4.000000, 4.000000, 4.000000, 4.000000, 4.000000, 4.000000, 4.000000, 4.000000
5.000000, 0.000000, 4265.127930, 4237.436035, 4197.436035, 4198.974121, 4193.333008, 4204.615234, 4198.974121, 4190.769043, 4197.436035, 4184.615234, 4198.974121, 4187.179199, 4222.051270, 4193.846191, 3539.000000, 8189.000000, 8171.000000, 0.000000, 0.000000, 0.000000, -21559.000000, 654.871765, 4.000000, 4.000000, 4.000000, 4.000000, 4.000000, 4.000000, 4.000000, 4.000000, 4.000000, 4.000000, 4.000000, 4.000000, 4.000000, 4.000000, 4.000000, 4.000000
6.000000, 0.000000, 4252.307617, 4232.820313, 4196.922852, 4202.563965, 4210.769043, 4204.102539, 4203.589844, 4189.743652, 4205.641113, 4184.102539, 4200.512695, 4185.641113, 4218.974121, 4197.948730, 3064.000000, 8189.000000, 8171.000000, 0.000000, 0.000000, 0.000000, -21559.000000, 663.076904, 4.000000, 4.000000, 4.000000, 4.000000, 4.000000, 4.000000, 4.000000, 4.000000, 4.000000, 4.000000, 4.000000, 4.000000, 4.000000, 4.000000, 4.000000, 4.000000
7.000000, 0.000000, 4253.846191, 4228.717773, 4193.333008, 4201.538574, 4204.102539, 4201.025391, 4195.384277, 4199.487305, 4215.384277, 4192.820313, 4196.922852, 4180.512695, 4218.461426, 4191.794922, 3619.000000, 8184.000000, 8172.000000, 0.000000, 0.000000, 0.000000, -21559.000000, 671.282043, 4.000000, 4.000000, 4.000000, 4.000000, 4.000000, 4.000000, 4.000000, 4.000000, 4.000000, 4.000000, 4.000000, 4.000000, 4.000000, 4.000000, 4.000000, 4.000000
8.000000, 0.000000, 4241.025391, 4223.589844, 4183.589844, 4188.717773, 4205.127930, 4202.563965, 4191.794922, 4199.487305, 4205.127930, 4200.512695, 4184.615234, 4170.769043, 4205.641113, 4189.743652, 3614.000000, 8184.000000, 8172.000000, 0.000000, 0.000000, 0.000000, -21559.000000, 678.974365, 4.000000, 4.000000, 4.000000, 4.000000, 4.000000, 4.000000, 4.000000, 4.000000, 4.000000, 4.000000, 4.000000, 4.000000, 4.000000, 4.000000, 4.000000, 4.000000
9.000000, 0.000000, 4232.820313, 4224.102539, 4185.127930, 4190.256348, 4217.948730, 4204.102539, 4192.307617, 4189.743652, 4196.410156, 4204.102539, 4183.076660, 4169.230469, 4198.461426, 4194.358887, 3542.000000, 8198.000000, 8166.000000, 0.000000, 0.000000, 0.000000, -21559.000000, 686.666626, 4.000000, 4.000000, 4.000000, 4.000000, 4.000000, 4.000000, 4.000000, 4.000000, 4.000000, 4.000000, 4.000000, 4.000000, 4.000000, 4.000000, 4.000000, 4.000000
10.000000, 0.000000, 4234.871582, 4224.615234, 4187.179199, 4202.051270, 4202.563965, 4199.487305, 4186.666504, 4186.666504, 4199.487305, 4198.974121, 4186.153809, 4173.333008, 4201.538574, 4193.846191, 3547.000000, 8198.000000, 8166.000000, 0.000000, 0.000000, 0.000000, -21559.000000, 694.871765, 4.000000, 4.000000, 4.000000, 4.000000, 4.000000, 4.000000, 4.000000, 4.000000, 4.000000, 4.000000, 4.000000, 4.000000, 4.000000, 4.000000, 4.000000, 4.000000
11.000000, 0.000000, 4231.281738, 4224.102539, 4184.102539, 4201.025391, 4191.794922, 4196.410156, 4187.179199, 4186.666504, 4202.563965, 4196.410156, 4181.538574, 4173.846191, 4200.000000, 4194.358887, 833.000000, 8197.000000, 8171.000000, 0.000000, 0.000000, 0.000000, -21559.000000, 702.564087, 4.000000, 4.000000, 4.000000, 4.000000, 4.000000, 4.000000, 4.000000, 4.000000, 4.000000, 4.000000, 4.000000, 4.000000, 4.000000, 4.000000, 4.000000, 4.000000
12.000000, 0.000000, 4234.871582, 4227.692383, 4191.281738, 4197.436035, 4211.281738, 4198.461426, 4193.846191, 4187.179199, 4208.205078, 4202.051270, 4183.589844, 4180.000000, 4200.512695, 4196.410156, 3561.000000, 8197.000000, 8171.000000, 0.000000, 0.000000, 0.000000, -21559.000000, 710.769226, 4.000000, 4.000000, 4.000000, 4.000000, 4.000000, 4.000000, 4.000000, 4.000000, 4.000000, 4.000000, 4.000000, 4.000000, 4.000000, 4.000000, 4.000000, 4.000000
13.000000, 0.000000, 4233.846191, 4228.717773, 4201.025391, 4203.076660, 4220.512695, 4201.538574, 4196.922852, 4187.692383, 4206.666504, 4206.666504, 4193.333008, 4188.717773, 4208.205078, 4198.974121, 3417.000000, 8212.000000, 8165.000000, 0.000000, 0.000000, 0.000000, -21559.000000, 718.461548, 4.000000, 4.000000, 4.000000, 4.000000, 4.000000, 4.000000, 4.000000, 4.000000, 4.000000, 4.000000, 4.000000, 4.000000, 4.000000, 4.000000, 4.000000, 4.000000
14.000000, 0.000000, 4230.769043, 4227.179199, 4201.538574, 4204.615234, 4209.743652, 4197.948730, 4194.871582, 4180.512695, 4187.692383, 4204.615234, 4190.769043, 4185.641113, 4207.179199, 4194.871582, 3547.000000, 8212.000000, 8165.000000, 0.000000, 0.000000, 0.000000, -21559.000000, 726.153809, 4.000000, 4.000000, 4.000000, 4.000000, 4.000000, 4.000000, 4.000000, 4.000000, 4.000000, 4.000000, 4.000000, 4.000000, 4.000000, 4.000000, 4.000000, 4.000000
15.000000, 0.000000, 4229.743652, 4228.205078, 4199.487305, 4200.000000, 4198.974121, 4196.410156, 4194.871582, 4183.076660, 4184.102539, 4201.538574, 4184.102539, 4182.563965, 4200.512695, 4192.820313, 833.000000, 8209.000000, 8166.000000, 0.000000, 0.000000, 0.000000, -21559.000000, 734.358948, 4.000000, 4.000000, 4.000000, 4.000000, 4.000000, 4.000000, 4.000000, 4.000000, 4.000000, 4.000000, 4.000000, 4.000000, 4.000000, 4.000000, 4.000000, 4.000000
16.000000, 0.000000, 4226.666504, 4227.179199, 4201.025391, 4201.025391, 4200.000000, 4201.025391, 4191.281738, 4192.820313, 4202.563965, 4207.692383, 4187.692383, 4187.692383, 4202.051270, 4197.436035, 0.000000, 8209.000000, 8166.000000, 0.000000, 0.000000, 0.000000, -21559.000000, 742.051270, 4.000000, 4.000000, 4.000000, 4.000000, 4.000000, 4.000000, 4.000000, 4.000000, 4.000000, 4.000000, 4.000000, 4.000000, 4.000000, 4.000000, 4.000000, 4.000000
17.000000, 0.000000, 4226.666504, 4224.102539, 4200.000000, 4200.000000, 4202.563965, 4193.333008, 4183.076660, 4184.102539, 4200.000000, 4212.307617, 4185.641113, 4183.076660, 4201.538574, 4196.922852, 0.000000, 8212.000000, 8163.000000, 0.000000, 0.000000, 0.000000, -21559.000000, 750.256409, 4.000000, 4.000000, 4.000000, 4.000000, 4.000000, 4.000000, 4.000000, 4.000000, 4.000000, 4.000000, 4.000000, 4.000000, 4.000000, 4.000000, 4.000000, 4.000000
18.000000, 0.000000, 4221.025391, 4221.538574, 4198.461426, 4197.948730, 4200.000000, 4183.076660, 4192.820313, 4173.846191, 4182.563965, 4205.127930, 4180.000000, 4178.461426, 4200.000000, 4197.948730, 0.000000, 8212.000000, 8163.000000, 0.000000, 0.000000, 0.000000, -21559.000000, 757.948669, 4.000000, 4.000000, 4.000000, 4.000000, 4.000000, 4.000000, 4.000000, 4.000000, 4.000000, 4.000000, 4.000000, 4.000000, 4.000000, 4.000000, 4.000000, 4.000000
19.000000, 0.000000, 4223.589844, 4225.127930, 4202.563965, 4202.051270, 4210.769043, 4190.256348, 4200.512695, 4179.487305, 4181.025391, 4187.179199, 4184.102539, 4184.102539, 4206.153809, 4200.000000, 0.000000, 8214.000000, 8163.000000, 0.000000, 0.000000, 0.000000, -21559.000000, 766.153809, 4.000000, 4.000000, 4.000000, 4.000000, 4.000000, 4.000000, 4.000000, 4.000000, 4.000000, 4.000000, 4.000000, 4.000000, 4.000000, 4.000000, 4.000000, 4.000000
20.000000, 0.000000, 4227.692383, 4228.205078, 4203.076660, 4202.563965, 4215.384277, 4197.436035, 4191.794922, 4177.948730, 4184.102539, 4182.563965, 4186.153809, 4184.102539, 4208.205078, 4198.974121, 0.000000, 8214.000000, 8163.000000, 0.000000, 0.000000, 0.000000, -21559.000000, 773.846130, 4.000000, 4.000000, 4.000000, 4.000000, 4.000000, 4.000000, 4.000000, 4.000000, 4.000000, 4.000000, 4.000000, 4.000000, 4.000000, 4.000000, 4.000000, 4.000000
21.000000, 0.000000, 4217.948730, 4225.127930, 4197.948730, 4196.922852, 4200.000000, 4193.333008, 4191.281738, 4164.102539, 4176.922852, 4190.256348, 4178.974121, 4176.410156, 4204.615234, 4198.974121, 0.000000, 8217.000000, 8158.000000, 0.000000, 0.000000, 0.000000, -21559.000000, 782.051270, 4.000000, 4.000000, 4.000000, 4.000000, 4.000000, 4.000000, 4.000000, 4.000000, 4.000000, 4.000000, 4.000000, 4.000000, 4.000000, 4.000000, 4.000000, 4.000000
22.000000, 0.000000, 4224.102539, 4228.205078, 4202.051270, 4199.487305, 4203.589844, 4195.897461, 4196.410156, 4169.743652, 4180.000000, 4191.794922, 4182.563965, 4180.512695, 4211.281738, 4197.948730, 0.000000, 8217.000000, 8158.000000, 0.000000, 0.000000, 0.000000, -21559.000000, 789.743591, 4.000000, 4.000000, 4.000000, 4.000000, 4.000000, 4.000000, 4.000000, 4.000000, 4.000000, 4.000000, 4.000000, 4.000000, 4.000000, 4.000000, 4.000000, 4.000000
23.000000, 0.000000, 4227.179199, 4228.717773, 4208.717773, 4205.641113, 4212.307617, 4203.589844, 4193.846191, 4190.256348, 4199.487305, 4193.333008, 4195.384277, 4189.743652, 4221.025391, 4200.000000, 0.000000, 8207.000000, 8155.000000, 0.000000, 0.000000, 0.000000, -21559.000000, 797.948669, 4.000000, 4.000000, 4.000000, 4.000000, 4.000000, 4.000000, 4.000000, 4.000000, 4.000000, 4.000000, 4.000000, 4.000000, 4.000000, 4.000000, 4.000000, 4.000000
24.000000, 0.000000, 4218.974121, 4223.076660, 4203.076660, 4201.538574, 4197.948730, 4196.922852, 4191.281738, 4191.794922, 4201.025391, 4195.897461, 4190.769043, 4185.127930, 4216.410156, 4195.897461, 0.000000, 8207.000000, 8155.000000, 0.000000, 0.000000, 0.000000, -21559.000000, 805.640991, 4.000000, 4.000000, 4.000000, 4.000000, 4.000000, 4.000000, 4.000000, 4.000000, 4.000000, 4.000000, 4.000000, 4.000000, 4.000000, 4.000000, 4.000000, 4.000000
25.000000, 0.000000, 4217.436035, 4223.076660, 4200.000000, 4198.461426, 4202.563965, 4186.666504, 4190.769043, 4178.974121, 4186.666504, 4185.641113, 4182.563965, 4176.922852, 4211.794922, 4192.820313, 0.000000, 8206.000000, 8155.000000, 0.000000, 0.000000, 0.000000, -21559.000000, 813.333313, 4.000000, 4.000000, 4.000000, 4.000000, 4.000000, 4.000000, 4.000000, 4.000000, 4.000000, 4.000000, 4.000000, 4.000000, 4.000000, 4.000000, 4.000000, 4.000000
26.000000, 0.000000, 4212.820313, 4225.127930, 4204.102539, 4200.000000, 4217.436035, 4184.102539, 4184.102539, 4175.897461, 4186.153809, 4167.692383, 4191.281738, 4182.051270, 4216.922852, 4197.948730, 0.000000, 8206.000000, 8155.000000, 0.000000, 0.000000, 0.000000, -21559.000000, 821.025635, 4.000000, 4.000000, 4.000000, 4.000000, 4.000000, 4.000000, 4.000000, 4.000000, 4.000000, 4.000000, 4.000000, 4.000000, 4.000000, 4.000000, 4.000000, 4.000000
27.000000, 0.000000, 4215.384277, 4224.615234, 4205.127930, 4199.487305, 4201.025391, 4187.692383, 4188.205078, 4186.666504, 4196.410156, 4169.743652, 4200.512695, 4187.692383, 4215.897461, 4195.897461, 0.000000, 8204.000000, 8157.000000, 0.000000, 0.000000, 0.000000, -21559.000000, 829.230774, 4.000000, 4.000000, 4.000000, 4.000000, 4.000000, 4.000000, 4.000000, 4.000000, 4.000000, 4.000000, 4.000000, 4.000000, 4.000000, 4.000000, 4.000000, 4.000000
28.000000, 0.000000, 4213.333008, 4222.051270, 4204.102539, 4200.000000, 4194.358887, 4189.743652, 4201.025391, 4196.922852, 4197.436035, 4194.358887, 4200.512695, 4189.743652, 4215.384277, 4194.871582, 0.000000, 8204.000000, 8157.000000, 0.000000, 0.000000, 0.000000, -21559.000000, 836.923035, 4.000000, 4.000000, 4.000000, 4.000000, 4.000000, 4.000000, 4.000000, 4.000000, 4.000000, 4.000000, 4.000000, 4.000000, 4.000000, 4.000000, 4.000000, 4.000000
29.000000, 0.000000, 4212.820313, 4224.615234, 4206.153809, 4203.589844, 4211.794922, 4187.179199, 4201.025391, 4198.974121, 4197.436035, 4210.769043, 4201.025391, 4192.820313, 4222.563965, 4198.974121, 0.000000, 8199.000000, 8156.000000, 0.000000, 0.000000, 0.000000, -21559.000000, 844.615356, 4.000000, 4.000000, 4.000000, 4.000000, 4.000000, 4.000000, 4.000000, 4.000000, 4.000000, 4.000000, 4.000000, 4.000000, 4.000000, 4.000000, 4.000000, 4.000000
30.000000, 0.000000, 4221.538574, 4228.205078, 4213.333008, 4209.230469, 4208.717773, 4192.307617, 4198.461426, 4201.538574, 4212.307617, 4204.102539, 4205.127930, 4194.358887, 4229.743652, 4198.974121, 0.000000, 8199.000000, 8156.000000, 0.000000, 0.000000, 0.000000, -21559.000000, 852.307678, 4.000000, 4.000000, 4.000000, 4.000000, 4.000000, 4.000000, 4.000000, 4.000000, 4.000000, 4.000000, 4.000000, 4.000000, 4.000000, 4.000000, 4.000000, 4.000000
31.000000, 0.000000, 4215.384277, 4226.666504, 4215.897461, 4208.717773, 4202.563965, 4200.000000, 4201.538574, 4205.641113, 4223.076660, 4198.974121, 4203.589844, 4192.307617, 4224.102539, 4198.461426, 0.000000, 8199.000000, 8160.000000, 0.000000, 0.000000, 0.000000, -21559.000000, 860.000000, 4.000000, 4.000000, 4.000000, 4.000000, 4.000000, 4.000000, 4.000000, 4.000000, 4.000000, 4.000000, 4.000000, 4.000000, 4.000000, 4.000000, 4.000000, 4.000000
32.000000, 0.000000, 4215.384277, 4228.717773, 4214.871582, 4209.230469, 4221.025391, 4203.589844, 4205.641113, 4203.589844, 4217.436035, 4202.563965, 4198.461426, 4193.333008, 4217.948730, 4194.871582, 0.000000, 8199.000000, 8160.000000, 0.000000, 0.000000, 0.000000, -21559.000000, 868.205078, 4.000000, 4.000000, 4.000000, 4.000000, 4.000000, 4.000000, 4.000000, 4.000000, 4.000000, 4.000000, 4.000000, 4.000000, 4.000000, 4.000000, 4.000000, 4.000000
33.000000, 0.000000, 4217.436035, 4229.230469, 4214.358887, 4214.358887, 4222.051270, 4200.000000, 4207.692383, 4201.538574, 4205.127930, 4193.333008, 4198.974121, 4201.025391, 4223.589844, 4195.897461, 0.000000, 8203.000000, 8157.000000, 0.000000, 0.000000, 0.000000, -21559.000000, 875.897400, 4.000000, 4.000000, 4.000000, 4.000000, 4.000000, 4.000000, 4.000000, 4.000000, 4.000000, 4.000000, 4.000000, 4.000000, 4.000000, 4.000000, 4.000000, 4.000000
34.000000, 0.000000, 4217.436035, 4225.641113, 4212.307617, 4213.333008, 4201.025391, 4191.794922, 4203.076660, 4197.436035, 4199.487305, 4183.589844, 4203.589844, 4201.538574, 4230.256348, 4197.948730, 0.000000, 8203.000000, 8157.000000, 0.000000, 0.000000, 0.000000, -21559.000000, 883.589722, 4.000000, 4.000000, 4.000000, 4.000000, 4.000000, 4.000000, 4.000000, 4.000000, 4.000000, 4.000000, 4.000000, 4.000000, 4.000000, 4.000000, 4.000000, 4.000000
35.000000, 0.000000, 4222.051270, 4227.179199, 4211.794922, 4205.127930, 4204.102539, 4191.794922, 4193.846191, 4192.820313, 4198.461426, 4183.076660, 4201.538574, 4191.281738, 4223.589844, 4195.384277, 0.000000, 8205.000000, 8157.000000, 0.000000, 0.000000, 0.000000, -21559.000000, 891.794861, 4.000000, 4.000000, 4.000000, 4.000000, 4.000000, 4.000000, 4.000000, 4.000000, 4.000000, 4.000000, 4.000000, 4.000000, 4.000000, 4.000000, 4.000000, 4.000000
36.000000, 0.000000, 4209.743652, 4222.051270, 4208.205078, 4200.512695, 4225.127930, 4203.589844, 4203.589844, 4194.871582, 4185.641113, 4172.307617, 4184.615234, 4184.615234, 4198.974121, 4194.871582, 0.000000, 8205.000000, 8157.000000, 0.000000, 0.000000, 0.000000, -21559.000000, 899.487183, 4.000000, 4.000000, 4.000000, 4.000000, 4.000000, 4.000000, 4.000000, 4.000000, 4.000000, 4.000000, 4.000000, 4.000000, 4.000000, 4.000000, 4.000000, 4.000000
37.000000, 0.000000, 4206.153809, 4212.307617, 4205.641113, 4201.538574, 4220.000000, 4208.205078, 4216.922852, 4198.974121, 4185.127930, 4165.641113, 4176.410156, 4187.179199, 4187.692383, 4195.384277, 0.000000, 8205.000000, 8157.000000, 0.000000, 0.000000, 0.000000, -21559.000000, 907.179443, 4.000000, 4.000000, 4.000000, 4.000000, 4.000000, 4.000000, 4.000000, 4.000000, 4.000000, 4.000000, 4.000000, 4.000000, 4.000000, 4.000000, 4.000000, 4.000000
38.000000, 0.000000, 4216.922852, 4213.846191, 4208.205078, 4206.153809, 4197.436035, 4198.461426, 4210.769043, 4202.563965, 4211.794922, 4183.589844, 4197.948730, 4198.461426, 4214.358887, 4198.974121, 0.000000, 8205.000000, 8157.000000, 0.000000, 0.000000, 0.000000, -21559.000000, 914.871765, 4.000000, 4.000000, 4.000000, 4.000000, 4.000000, 4.000000, 4.000000, 4.000000, 4.000000, 4.000000, 4.000000, 4.000000, 4.000000, 4.000000, 4.000000, 4.000000
39.000000, 0.000000, 4225.127930, 4224.615234, 4214.358887, 4214.358887, 4203.589844, 4197.948730, 4205.641113, 4203.589844, 4219.487305, 4206.666504, 4221.025391, 4207.179199, 4244.102539, 4203.589844, 0.000000, 8203.000000, 8156.000000, 0.000000, 0.000000, 0.000000, -21559.000000, 923.076904, 4.000000, 4.000000, 4.000000, 4.000000, 4.000000, 4.000000, 4.000000, 4.000000, 4.000000, 4.000000, 4.000000, 4.000000, 4.000000, 4.000000, 4.000000, 4.000000
40.000000, 0.000000, 4236.410156, 4229.743652, 4220.512695, 4222.051270, 4222.563965, 4200.000000, 4203.076660, 4196.410156, 4202.051270, 4217.948730, 4220.512695, 4206.666504, 4250.256348, 4200.512695, 0.000000, 8203.000000, 8156.000000, 0.000000, 0.000000, 0.000000, -21559.000000, 930.769226, 4.000000, 4.000000, 4.000000, 4.000000, 4.000000, 4.000000, 4.000000, 4.000000, 4.000000, 4.000000, 4.000000, 4.000000, 4.000000, 4.000000, 4.000000, 4.000000
41.000000, 0.000000, 4232.307617, 4227.692383, 4216.922852, 4217.948730, 4207.179199, 4189.230469, 4188.717773, 4184.615234, 4197.436035, 4222.051270, 4214.358887, 4204.102539, 4249.230469, 4199.487305, 0.000000, 8208.000000, 8155.000000, 0.000000, 0.000000, 0.000000, -21559.000000, 938.461487, 4.000000, 4.000000, 4.000000, 4.000000, 4.000000, 4.000000, 4.000000, 4.000000, 4.000000, 4.000000, 4.000000, 4.000000, 4.000000, 4.000000, 4.000000, 4.000000
42.000000, 0.000000, 4226.153809, 4223.589844, 4208.717773, 4208.717773, 4187.692383, 4184.102539, 4179.487305, 4180.512695, 4204.615234, 4215.897461, 4214.871582, 4198.461426, 4252.307617, 4197.436035, 0.000000, 8208.000000, 8155.000000, 0.000000, 0.000000, 0.000000, -21559.000000, 946.153809, 4.000000, 4.000000, 4.000000, 4.000000, 4.000000, 4.000000, 4.000000, 4.000000, 4.000000, 4.000000, 4.000000, 4.000000, 4.000000, 4.000000, 4.000000, 4.000000
43.000000, 0.000000, 4224.615234, 4215.897461, 4202.563965, 4204.102539, 4197.948730, 4185.641113, 4184.102539, 4186.153809, 4203.589844, 4207.692383, 4217.948730, 4191.281738, 4250.769043, 4197.948730, 0.000000, 8225.000000, 8154.000000, 0.000000, 0.000000, 0.000000, -21559.000000, 954.358948, 4.000000, 4.000000, 4.000000, 4.000000, 4.000000, 4.000000, 4.000000, 4.000000, 4.000000, 4.000000, 4.000000, 4.000000, 4.000000, 4.000000, 4.000000, 4.000000
44.000000, 0.000000, 4215.897461, 4208.205078, 4195.897461, 4201.025391, 4206.153809, 4182.051270, 4188.717773, 4191.281738, 4197.436035, 4210.769043, 4215.897461, 4190.256348, 4245.641113, 4199.487305, 0.000000, 8225.000000, 8154.000000, 0.000000, 0.000000, 0.000000, -21559.000000, 962.051270, 4.000000, 4.000000, 4.000000, 4.000000, 4.000000, 4.000000, 4.000000, 4.000000, 4.000000, 4.000000, 4.000000, 4.000000, 4.000000, 4.000000, 4.000000, 4.000000
45.000000, 0.000000, 4217.948730, 4206.153809, 4194.871582, 4198.974121, 4197.948730, 4184.615234, 4193.333008, 4198.461426, 4199.487305, 4218.974121, 4213.846191, 4192.820313, 4246.153809, 4198.461426, 0.000000, 8234.000000, 8152.000000, 0.000000, 0.000000, 0.000000, -21559.000000, 970.256409, 4.000000, 4.000000, 4.000000, 4.000000, 4.000000, 4.000000, 4.000000, 4.000000, 4.000000, 4.000000, 4.000000, 4.000000, 4.000000, 4.000000, 4.000000, 4.000000
46.000000, 0.000000, 4216.922852, 4208.205078, 4197.948730, 4201.025391, 4197.948730, 4198.974121, 4201.025391, 4209.230469, 4213.333008, 4218.974121, 4217.948730, 4196.410156, 4249.743652, 4200.512695, 0.000000, 8234.000000, 8152.000000, 0.000000, 0.000000, 0.000000, -21559.000000, 977.948669, 4.000000, 4.000000, 4.000000, 4.000000, 4.000000, 4.000000, 4.000000, 4.000000, 4.000000, 4.000000, 4.000000, 4.000000, 4.000000, 4.000000, 4.000000, 4.000000
47.000000, 0.000000, 4215.897461, 4206.153809, 4197.948730, 4200.000000, 4203.589844, 4204.102539, 4200.512695, 4211.794922, 4221.538574, 4214.871582, 4216.410156, 4195.897461, 4245.641113, 4197.436035, 0.000000, 8259.000000, 8150.000000, 0.000000, 0.000000, 0.000000, -21559.000000, 986.153809, 4.000000, 4.000000, 4.000000, 4.000000, 4.000000, 4.000000, 4.000000, 4.000000, 4.000000, 4.000000, 4.000000, 4.000000, 4.000000, 4.000000, 4.000000, 4.000000
48.000000, 0.000000, 4213.333008, 4197.436035, 4194.358887, 4191.794922, 4205.127930, 4199.487305, 4196.922852, 4198.461426, 4218.974121, 4217.436035, 4210.256348, 4192.820313, 4241.538574, 4197.948730, 0.000000, 8259.000000, 8150.000000, 0.000000, 0.000000, 0.000000, -21559.000000, 993.846130, 4.000000, 4.000000, 4.000000, 4.000000, 4.000000, 4.000000, 4.000000, 4.000000, 4.000000, 4.000000, 4.000000, 4.000000, 4.000000, 4.000000, 4.000000, 4.000000
49.000000, 0.000000, 4210.769043, 4196.922852, 4195.897461, 4189.743652, 4197.436035, 4197.436035, 4197.436035, 4189.743652, 4213.846191, 4220.512695, 4211.281738, 4194.358887, 4243.076660, 4203.589844, 0.000000, 8273.000000, 8151.000000, 0.000000, 0.000000, 0.000000, -21558.000000, 1.538461, 4.000000, 4.000000, 4.000000, 4.000000, 4.000000, 4.000000, 4.000000, 4.000000, 4.000000, 4.000000, 4.000000, 4.000000, 4.000000, 4.000000, 4.000000, 4.000000
50.000000, 0.000000, 4219.487305, 4202.051270, 4199.487305, 4196.922852, 4184.102539, 4198.461426, 4197.948730, 4194.358887, 4201.025391, 4212.820313, 4207.179199, 4194.358887, 4238.974121, 4198.461426, 0.000000, 8273.000000, 8151.000000, 0.000000, 0.000000, 0.000000, -21558.000000, 9.743589, 4.000000, 4.000000, 4.000000, 4.000000, 4.000000, 4.000000, 4.000000, 4.000000, 4.000000, 4.000000, 4.000000, 4.000000, 4.000000, 4.000000, 4.000000, 4.000000
51.000000, 0.000000, 4220.512695, 4200.512695, 4198.461426, 4202.563965, 4192.820313, 4202.051270, 4200.000000, 4200.512695, 4193.333008, 4209.743652, 4205.127930, 4191.281738, 4241.025391, 4199.487305, 0.000000, 8283.000000, 8153.000000, 0.000000, 0.000000, 0.000000, -21558.000000, 17.948717, 4.000000, 4.000000, 4.000000, 4.000000, 4.000000, 4.000000, 4.000000, 4.000000, 4.000000, 4.000000, 4.000000, 4.000000, 4.000000, 4.000000, 4.000000, 4.000000
52.000000, 0.000000, 4226.153809, 4203.589844, 4202.563965, 4205.127930, 4215.384277, 4204.615234, 4210.256348, 4208.205078, 4209.230469, 4217.436035, 4214.358887, 4189.743652, 4250.769043, 4204.102539, 0.000000, 8283.000000, 8153.000000, 0.000000, 0.000000, 0.000000, -21558.000000, 25.641026, 4.000000, 4.000000, 4.000000, 4.000000, 4.000000, 4.000000, 4.000000, 4.000000, 4.000000, 4.000000, 4.000000, 4.000000, 4.000000, 4.000000, 4.000000, 4.000000
53.000000, 0.000000, 4229.743652, 4206.666504, 4204.102539, 4202.563965, 4223.076660, 4204.102539, 4215.897461, 4214.358887, 4223.076660, 4214.358887, 4212.820313, 4189.743652, 4245.641113, 4196.922852, 0.000000, 8292.000000, 8170.000000, 0.000000, 0.000000, 0.000000, -21558.000000, 33.333332, 4.000000, 4.000000, 4.000000, 4.000000, 4.000000, 4.000000, 4.000000, 4.000000, 4.000000, 4.000000, 4.000000, 4.000000, 4.000000, 4.000000, 4.000000, 4.000000
54.000000, 0.000000, 4221.025391, 4198.974121, 4193.333008, 4196.410156, 4216.410156, 4209.743652, 4209.743652, 4216.410156, 4218.974121, 4208.717773, 4200.000000, 4185.127930, 4233.333008, 4191.794922, 0.000000, 8292.000000, 8170.000000, 0.000000, 0.000000, 0.000000, -21558.000000, 41.538460, 4.000000, 4.000000, 4.000000, 4.000000, 4.000000, 4.000000, 4.000000, 4.000000, 4.000000, 4.000000, 4.000000, 4.000000, 4.000000, 4.000000, 4.000000, 4.000000
55.000000, 0.000000, 4221.538574, 4191.794922, 4182.563965, 4189.230469, 4198.974121, 4211.281738, 4204.615234, 4219.487305, 4219.487305, 4214.358887, 4198.974121, 4178.974121, 4228.205078, 4192.820313, 0.000000, 8289.000000, 8176.000000, 0.000000, 0.000000, 0.000000, -21558.000000, 49.230766, 4.000000, 4.000000, 4.000000, 4.000000, 4.000000, 4.000000, 4.000000, 4.000000, 4.000000, 4.000000, 4.000000, 4.000000, 4.000000, 4.000000, 4.000000, 4.000000
56.000000, 0.000000, 4212.820313, 4190.256348, 4178.461426, 4180.512695, 4186.666504, 4200.512695, 4204.615234, 4212.307617, 4218.461426, 4214.358887, 4202.563965, 4174.358887, 4220.000000, 4195.384277, 0.000000, 8289.000000, 8176.000000, 0.000000, 0.000000, 0.000000, -21558.000000, 57.435898, 4.000000, 4.000000, 4.000000, 4.000000, 4.000000, 4.000000, 4.000000, 4.000000, 4.000000, 4.000000, 4.000000, 4.000000, 4.000000, 4.000000, 4.000000, 4.000000
57.000000, 0.000000, 4209.743652, 4190.256348, 4181.538574, 4179.487305, 4197.948730, 4194.871582, 4205.641113, 4198.974121, 4207.692383, 4205.127930, 4200.000000, 4169.743652, 4208.717773, 4195.897461, 0.000000, 8276.000000, 8176.000000, 0.000000, 0.000000, 0.000000, -21558.000000, 65.128204, 4.000000, 4.000000, 4.000000, 4.000000, 4.000000, 4.000000, 4.000000, 4.000000, 4.000000, 4.000000, 4.000000, 4.000000, 4.000000, 4.000000, 4.000000, 4.000000
58.000000, 0.000000, 4221.538574, 4193.846191, 4191.281738, 4185.641113, 4208.717773, 4199.487305, 4207.179199, 4204.615234, 4209.743652, 4206.666504, 4201.025391, 4171.794922, 4206.666504, 4197.436035, 0.000000, 8276.000000, 8176.000000, 0.000000, 0.000000, 0.000000, -21558.000000, 73.333328, 4.000000, 4.000000, 4.000000, 4.000000, 4.000000, 4.000000, 4.000000, 4.000000, 4.000000, 4.000000, 4.000000, 4.000000, 4.000000, 4.000000, 4.000000, 4.000000
59.000000, 0.000000, 4218.974121, 4193.333008, 4191.281738, 4187.179199, 4196.410156, 4200.000000, 4207.692383, 4212.307617, 4209.230469, 4203.589844, 4201.025391, 4172.820313, 4203.076660, 4197.436035, 0.000000, 8262.000000, 8174.000000, 0.000000, 0.000000, 0.000000, -21558.000000, 81.025642, 4.000000, 4.000000, 4.000000, 4.000000, 4.000000, 4.000000, 4.000000, 4.000000, 4.000000, 4.000000, 4.000000, 4.000000, 4.000000, 4.000000, 4.000000, 4.000000
60.000000, 0.000000, 4216.922852, 4189.230469, 4186.153809, 4182.051270, 4184.102539, 4197.436035, 4205.127930, 4202.563965, 4188.205078, 4188.205078, 4195.897461, 4171.281738, 4193.846191, 4193.333008, 0.000000, 8262.000000, 8174.000000, 0.000000, 0.000000, 0.000000, -21558.000000, 88.717949, 4.000000, 4.000000, 4.000000, 4.000000, 4.000000, 4.000000, 4.000000, 4.000000, 4.000000, 4.000000, 4.000000, 4.000000, 4.000000, 4.000000, 4.000000, 4.000000
61.000000, 0.000000, 4220.000000, 4188.717773, 4191.794922, 4180.000000, 4186.153809, 4199.487305, 4208.205078, 4199.487305, 4188.717773, 4183.589844, 4197.948730, 4181.538574, 4193.846191, 4197.948730, 0.000000, 8232.000000, 8164.000000, 0.000000, 0.000000, 0.000000, -21558.000000, 96.923073, 4.000000, 4.000000, 4.000000, 4.000000, 4.000000, 4.000000, 4.000000, 4.000000, 4.000000, 4.000000, 4.000000, 4.000000, 4.000000, 4.000000, 4.000000, 4.000000
62.000000, 0.000000, 4225.127930, 4191.794922, 4203.589844, 4184.615234, 4191.794922, 4200.000000, 4212.307617, 4205.641113, 4209.743652, 4182.563965, 4207.692383, 4194.871582, 4196.922852, 4201.025391, 0.000000, 8232.000000, 8164.000000, 0.000000, 0.000000, 0.000000, -21558.000000, 104.615379, 4.000000, 4.000000, 4.000000, 4.000000, 4.000000, 4.000000, 4.000000, 4.000000, 4.000000, 4.000000, 4.000000, 4.000000, 4.000000, 4.000000, 4.000000, 4.000000
63.000000, 0.000000, 4230.256348, 4190.256348, 4210.256348, 4185.641113, 4199.487305, 4198.461426, 4214.358887, 4203.589844, 4211.794922, 4182.563965, 4205.641113, 4193.333008, 4189.743652, 4197.948730, 0.000000, 8213.000000, 8153.000000, 0.000000, 0.000000, 0.000000, -21558.000000, 112.307686, 4.000000, 4.000000, 4.000000, 4.000000, 4.000000, 4.000000, 4.000000, 4.000000, 4.000000, 4.000000, 4.000000, 4.000000, 4.000000, 4.000000, 4.000000, 4.000000
64.000000, 0.000000, 4226.666504, 4185.641113, 4209.230469, 4184.102539, 4207.179199, 4204.102539, 4221.538574, 4203.076660, 4208.717773, 4196.922852, 4201.025391, 4191.281738, 4189.743652, 4198.974121, 3352.000000, 8213.000000, 8153.000000, 0.000000, 0.000000, 0.000000, -21558.000000, 120.000000, 4.000000, 4.000000, 4.000000, 4.000000, 4.000000, 4.000000, 4.000000, 4.000000, 4.000000, 4.000000, 4.000000, 4.000000, 4.000000, 4.000000, 4.000000, 4.000000
65.000000, 0.000000, 4234.871582, 4190.769043, 4212.307617, 4191.794922, 4197.436035, 4210.769043, 4218.974121, 4202.563965, 4209.743652, 4204.102539, 4207.179199, 4196.410156, 4199.487305, 4196.410156, 3510.000000, 8201.000000, 8144.000000, 0.000000, 0.000000, 0.000000, -21558.000000, 128.205124, 4.000000, 4.000000, 4.000000, 4.000000, 4.000000, 4.000000, 4.000000, 4.000000, 4.000000, 4.000000, 4.000000, 4.000000, 4.000000, 4.000000, 4.000000, 4.000000
66.000000, 0.000000, 4237.948730, 4196.410156, 4214.871582, 4201.538574, 4185.641113, 4203.589844, 4207.692383, 4192.307617, 4198.461426, 4189.230469, 4212.307617, 4199.487305, 4201.538574, 4196.922852, 2630.000000, 8201.000000, 8144.000000, 0.000000, 0.000000, 0.000000, -21558.000000, 135.897430, 4.000000, 4.000000, 4.000000, 4.000000, 4.000000, 4.000000, 4.000000, 4.000000, 4.000000, 4.000000, 4.000000, 4.000000, 4.000000, 4.000000, 4.000000, 4.000000
67.000000, 0.000000, 4235.384277, 4195.897461, 4210.256348, 4200.512695, 4202.563965, 4198.461426, 4203.589844, 4184.102539, 4192.307617, 4184.102539, 4207.179199, 4199.487305, 4198.461426, 4200.000000, 2067.000000, 8181.000000, 8141.000000, 0.000000, 0.000000, 0.000000, -21558.000000, 144.102554, 4.000000, 4.000000, 4.000000, 4.000000, 4.000000, 4.000000, 4.000000, 4.000000, 4.000000, 4.000000, 4.000000, 4.000000, 4.000000, 4.000000, 4.000000, 4.000000
68.000000, 0.000000, 4243.589844, 4198.461426, 4210.256348, 4200.512695, 4218.974121, 4201.538574, 4201.025391, 4184.102539, 4203.076660, 4191.794922, 4207.179199, 4201.538574, 4201.538574, 4196.922852, 3532.000000, 8181.000000, 8141.000000, 0.000000, 0.000000, 0.000000, -21558.000000, 151.794861, 4.000000, 4.000000, 4.000000, 4.000000, 4.000000, 4.000000, 4.000000, 4.000000, 4.000000, 4.000000, 4.000000, 4.000000, 4.000000, 4.000000, 4.000000, 4.000000
69.000000, 0.000000, 4238.974121, 4198.461426, 4210.769043, 4201.538574, 4198.974121, 4192.307617, 4189.743652, 4178.974121, 4200.000000, 4179.487305, 4203.589844, 4194.871582, 4194.871582, 4195.384277, 3541.000000, 8172.000000, 8141.000000, 0.000000, 0.000000, 0.000000, -21558.000000, 160.000000, 4.000000, 4.000000, 4.000000, 4.000000, 4.000000, 4.000000, 4.000000, 4.000000, 4.000000, 4.000000, 4.000000, 4.000000, 4.000000, 4.000000, 4.000000, 4.000000
70.000000, 0.000000, 4234.871582, 4192.820313, 4204.102539, 4190.769043, 4183.589844, 4180.512695, 4184.615234, 4168.717773, 4187.179199, 4163.589844, 4186.153809, 4175.384277, 4178.974121, 4193.846191, 3066.000000, 8172.000000, 8141.000000, 0.000000, 0.000000, 0.000000, -21558.000000, 167.692307, 4.000000, 4.000000, 4.000000, 4.000000, 4.000000, 4.000000, 4.000000, 4.000000, 4.000000, 4.000000, 4.000000, 4.000000, 4.000000, 4.000000, 4.000000, 4.000000
71.000000, 0.000000, 4236.922852, 4191.281738, 4200.512695, 4184.615234, 4199.487305, 4191.281738, 4200.000000, 4173.333008, 4185.127930, 4174.871582, 4182.051270, 4168.717773, 4181.025391, 4194.871582, 3519.000000, 8173.000000, 8146.000000, 0.000000, 0.000000, 0.000000, -21558.000000, 175.384613, 4.000000, 4.000000, 4.000000, 4.000000, 4.000000, 4.000000, 4.000000, 4.000000, 4.000000, 4.000000, 4.000000, 4.000000, 4.000000, 4.000000, 4.000000, 4.000000
72.000000, 0.000000, 4234.871582, 4194.358887, 4203.076660, 4189.230469, 4211.281738, 4205.127930, 4209.230469, 4180.512695, 4181.538574, 4183.589844, 4184.102539, 4170.256348, 4186.666504, 4193.333008, 3537.000000, 8173.000000, 8146.000000, 0.000000, 0.000000, 0.000000, -21558.000000, 183.076920, 4.000000, 4.000000, 4.000000, 4.000000, 4.000000, 4.000000, 4.000000, 4.000000, 4.000000, 4.000000, 4.000000, 4.000000, 4.000000, 4.000000, 4.000000, 4.000000
73.000000, 0.000000, 4230.769043, 4189.743652, 4192.820313, 4183.589844, 4196.410156, 4200.000000, 4198.461426, 4173.846191, 4176.410156, 4166.153809, 4171.281738, 4160.512695, 4174.871582, 4185.127930, 3539.000000, 8177.000000, 8144.000000, 0.000000, 0.000000, 0.000000, -21558.000000, 191.282043, 4.000000, 4.000000, 4.000000, 4.000000, 4.000000, 4.000000, 4.000000, 4.000000, 4.000000, 4.000000, 4.000000, 4.000000, 4.000000, 4.000000, 4.000000, 4.000000
74.000000, 0.000000, 4217.948730, 4179.487305, 4177.436035, 4174.358887, 4176.410156, 4190.769043, 4194.358887, 4168.717773, 4176.922852, 4153.333008, 4157.948730, 4148.717773, 4162.051270, 4185.127930, 3545.000000, 8177.000000, 8144.000000, 0.000000, 0.000000, 0.000000, -21558.000000, 198.974350, 4.000000, 4.000000, 4.000000, 4.000000, 4.000000, 4.000000, 4.000000, 4.000000, 4.000000, 4.000000, 4.000000, 4.000000, 4.000000, 4.000000, 4.000000, 4.000000
75.000000, 0.000000, 4221.538574, 4185.127930, 4181.538574, 4181.538574, 4185.641113, 4195.384277, 4198.974121, 4182.051270, 4180.000000, 4169.230469, 4164.102539, 4154.871582, 4170.769043, 4188.205078, 838.000000, 8177.000000, 8146.000000, 0.000000, 0.000000, 0.000000, -21558.000000, 207.179489, 4.000000, 4.000000, 4.000000, 4.000000, 4.000000, 4.000000, 4.000000, 4.000000, 4.000000, 4.000000, 4.000000, 4.000000, 4.000000, 4.000000, 4.000000, 4.000000
76.000000, 0.000000, 4235.384277, 4198.461426, 4194.358887, 4195.897461, 4212.307617, 4202.563965, 4201.538574, 4203.589844, 4193.846191, 4192.820313, 4183.076660, 4168.717773, 4192.820313, 4192.820313, 3497.000000, 8177.000000, 8146.000000, 0.000000, 0.000000, 0.000000, -21558.000000, 214.871796, 4.000000, 4.000000, 4.000000, 4.000000, 4.000000, 4.000000, 4.000000, 4.000000, 4.000000, 4.000000, 4.000000, 4.000000, 4.000000, 4.000000, 4.000000, 4.000000
77.000000, 0.000000, 4233.333008, 4194.358887, 4200.512695, 4197.948730, 4214.871582, 4202.051270, 4208.205078, 4212.820313, 4214.358887, 4200.512695, 4189.743652, 4173.846191, 4193.333008, 4196.410156, 3418.000000, 8192.000000, 8149.000000, 0.000000, 0.000000, 0.000000, -21558.000000, 222.564102, 4.000000, 4.000000, 4.000000, 4.000000, 4.000000, 4.000000, 4.000000, 4.000000, 4.000000, 4.000000, 4.000000, 4.000000, 4.000000, 4.000000, 4.000000, 4.000000
78.000000, 0.000000, 4227.179199, 4184.102539, 4195.897461, 4189.230469, 4195.897461, 4201.538574, 4213.333008, 4211.794922, 4217.948730, 4203.589844, 4186.153809, 4170.256348, 4181.538574, 4192.820313, 3545.000000, 8192.000000, 8149.000000, 0.000000, 0.000000, 0.000000, -21558.000000, 230.769226, 4.000000, 4.000000, 4.000000, 4.000000, 4.000000, 4.000000, 4.000000, 4.000000, 4.000000, 4.000000, 4.000000, 4.000000, 4.000000, 4.000000, 4.000000, 4.000000
79.000000, 0.000000, 4220.512695, 4183.589844, 4184.102539, 4182.051270, 4185.641113, 4201.025391, 4207.692383, 4210.256348, 4211.281738, 4213.846191, 4188.717773, 4164.615234, 4192.820313, 4194.358887, 838.000000, 8203.000000, 8147.000000, 0.000000, 0.000000, 0.000000, -21558.000000, 238.461533, 4.000000, 4.000000, 4.000000, 4.000000, 4.000000, 4.000000, 4.000000, 4.000000, 4.000000, 4.000000, 4.000000, 4.000000, 4.000000, 4.000000, 4.000000, 4.000000
80.000000, 0.000000, 4231.281738, 4190.769043, 4182.563965, 4184.102539, 4191.281738, 4198.461426, 4202.051270, 4214.871582, 4213.333008, 4220.512695, 4198.461426, 4163.589844, 4211.794922, 4197.436035, 3497.000000, 8203.000000, 8147.000000, 0.000000, 0.000000, 0.000000, -21558.000000, 246.666656, 4.000000, 4.000000, 4.000000, 4.000000, 4.000000, 4.000000, 4.000000, 4.000000, 4.000000, 4.000000, 4.000000, 4.000000, 4.000000, 4.000000, 4.000000, 4.000000
81.000000, 0.000000, 4238.461426, 4191.794922, 4187.179199, 4187.692383, 4205.127930, 4200.512695, 4206.153809, 4209.230469, 4209.230469, 4218.461426, 4201.025391, 4164.102539, 4210.256348, 4198.974121, 3418.000000, 8212.000000, 8141.000000, 0.000000, 0.000000, 0.000000, -21558.000000, 254.358963, 4.000000, 4.000000, 4.000000, 4.000000, 4.000000, 4.000000, 4.000000, 4.000000, 4.000000, 4.000000, 4.000000, 4.000000, 4.000000, 4.000000, 4.000000, 4.000000
82.000000, 0.000000, 4228.205078, 4188.205078, 4180.000000, 4184.615234, 4203.589844, 4204.102539, 4207.692383, 4185.127930, 4196.410156, 4213.333008, 4191.281738, 4154.871582, 4203.076660, 4200.000000, 3545.000000, 8212.000000, 8141.000000, 0.000000, 0.000000, 0.000000, -21558.000000, 262.051270, 4.000000, 4.000000, 4.000000, 4.000000, 4.000000, 4.000000, 4.000000, 4.000000, 4.000000, 4.000000, 4.000000, 4.000000, 4.000000, 4.000000, 4.000000, 4.000000
83.000000, 0.000000, 4231.281738, 4188.205078, 4176.922852, 4184.102539, 4191.281738, 4204.615234, 4197.436035, 4178.461426, 4196.922852, 4214.871582, 4183.589844, 4147.692383, 4205.641113, 4195.384277, 838.000000, 8221.000000, 8143.000000, 0.000000, 0.000000, 0.000000, -21558.000000, 270.256409, 4.000000, 4.000000, 4.000000, 4.000000, 4.000000, 4.000000, 4.000000, 4.000000, 4.000000, 4.000000, 4.000000, 4.000000, 4.000000, 4.000000, 4.000000, 4.000000
84.000000, 0.000000, 4231.794922, 4187.692383, 4184.102539, 4186.666504, 4203.589844, 4216.410156, 4206.666504, 4194.358887, 4207.692383, 4216.922852, 4185.641113, 4158.461426, 4209.743652, 4197.948730, 3497.000000, 8221.000000, 8143.000000, 0.000000, 0.000000, 0.000000, -21558.000000, 277.948700, 4.000000, 4.000000, 4.000000, 4.000000, 4.000000, 4.000000, 4.000000, 4.000000, 4.000000, 4.000000, 4.000000, 4.000000, 4.000000, 4.000000, 4.000000, 4.000000
85.000000, 0.000000, 4232.307617, 4190.256348, 4184.102539, 4188.205078, 4222.563965, 4228.717773, 4225.641113, 4203.076660, 4212.820313, 4212.307617, 4193.333008, 4168.717773, 4211.794922, 4202.051270, 3418.000000, 8226.000000, 8138.000000, 0.000000, 0.000000, 0.000000, -21558.000000, 285.641022, 4.000000, 4.000000, 4.000000, 4.000000, 4.000000, 4.000000, 4.000000, 4.000000, 4.000000, 4.000000, 4.000000, 4.000000, 4.000000, 4.000000, 4.000000, 4.000000
86.000000, 0.000000, 4237.436035, 4195.384277, 4177.948730, 4192.307617, 4215.384277, 4222.051270, 4222.051270, 4206.153809, 4215.384277, 4218.974121, 4199.487305, 4168.717773, 4217.948730, 4204.102539, 3545.000000, 8226.000000, 8138.000000, 0.000000, 0.000000, 0.000000, -21558.000000, 293.846161, 4.000000, 4.000000, 4.000000, 4.000000, 4.000000, 4.000000, 4.000000, 4.000000, 4.000000, 4.000000, 4.000000, 4.000000, 4.000000, 4.000000, 4.000000, 4.000000
87.000000, 0.000000, 4239.487305, 4196.922852, 4182.051270, 4198.974121, 4211.794922, 4216.922852, 4216.922852, 4214.871582, 4223.589844, 4234.871582, 4202.051270, 4173.846191, 4227.179199, 4206.666504, 838.000000, 8238.000000, 8143.000000, 0.000000, 0.000000, 0.000000, -21558.000000, 301.538452, 4.000000, 4.000000, 4.000000, 4.000000, 4.000000, 4.000000, 4.000000, 4.000000, 4.000000, 4.000000, 4.000000, 4.000000, 4.000000, 4.000000, 4.000000, 4.000000
88.000000, 0.000000, 4247.179199, 4200.000000, 4192.820313, 4201.025391, 4226.666504, 4225.641113, 4227.692383, 4221.538574, 4236.410156, 4236.922852, 4206.666504, 4181.025391, 4238.461426, 4205.641113, 3497.000000, 8238.000000, 8143.000000, 0.000000, 0.000000, 0.000000, -21558.000000, 309.743591, 4.000000, 4.000000, 4.000000, 4.000000, 4.000000, 4.000000, 4.000000, 4.000000, 4.000000, 4.000000, 4.000000, 4.000000, 4.000000, 4.000000, 4.000000, 4.000000
89.000000, 0.000000, 4236.410156, 4196.922852, 4186.666504, 4192.307617, 4205.127930, 4222.563965, 4226.153809, 4222.563965, 4235.897461, 4233.333008, 4208.717773, 4177.436035, 4234.358887, 4207.692383, 3418.000000, 8245.000000, 8139.000000, 0.000000, 0.000000, 0.000000, -21558.000000, 317.435883, 4.000000, 4.000000, 4.000000, 4.000000, 4.000000, 4.000000, 4.000000, 4.000000, 4.000000, 4.000000, 4.000000, 4.000000, 4.000000, 4.000000, 4.000000, 4.000000
90.000000, 0.000000, 4222.051270, 4186.666504, 4172.820313, 4180.512695, 4166.666504, 4205.127930, 4204.615234, 4218.974121, 4222.051270, 4235.897461, 4198.461426, 4167.179199, 4216.922852, 4206.666504, 3545.000000, 8245.000000, 8139.000000, 0.000000, 0.000000, 0.000000, -21558.000000, 325.128204, 4.000000, 4.000000, 4.000000, 4.000000, 4.000000, 4.000000, 4.000000, 4.000000, 4.000000, 4.000000, 4.000000, 4.000000, 4.000000, 4.000000, 4.000000, 4.000000
91.000000, 0.000000, 4219.487305, 4184.615234, 4173.846191, 4177.436035, 4181.025391, 4196.410156, 4195.897461, 4204.615234, 4213.333008, 4223.589844, 4189.743652, 4163.589844, 4211.281738, 4203.076660, 838.000000, 8262.000000, 8143.000000, 0.000000, 0.000000, 0.000000, -21558.000000, 332.820496, 4.000000, 4.000000, 4.000000, 4.000000, 4.000000, 4.000000, 4.000000, 4.000000, 4.000000, 4.000000, 4.000000, 4.000000, 4.000000, 4.000000, 4.000000, 4.000000
92.000000, 0.000000, 4214.871582, 4190.256348, 4178.461426, 4183.076660, 4210.769043, 4200.512695, 4202.563965, 4195.384277, 4215.384277, 4212.820313, 4195.897461, 4165.127930, 4215.384277, 4205.641113, 3497.000000, 8262.000000, 8143.000000, 0.000000, 0.000000, 0.000000, -21558.000000, 341.025635, 4.000000, 4.000000, 4.000000, 4.000000, 4.000000, 4.000000, 4.000000, 4.000000, 4.000000, 4.000000, 4.000000, 4.000000, 4.000000, 4.000000, 4.000000, 4.000000
93.000000, 0.000000, 4223.589844, 4192.820313, 4180.512695, 4188.205078, 4206.153809, 4209.230469, 4210.769043, 4207.179199, 4222.051270, 4228.205078, 4204.615234, 4168.205078, 4216.922852, 4204.615234, 3418.000000, 8264.000000, 8147.000000, 0.000000, 0.000000, 0.000000, -21558.000000, 348.717926, 4.000000, 4.000000, 4.000000, 4.000000, 4.000000, 4.000000, 4.000000, 4.000000, 4.000000, 4.000000, 4.000000, 4.000000, 4.000000, 4.000000, 4.000000, 4.000000
94.000000, 0.000000, 4217.948730, 4186.666504, 4179.487305, 4186.153809, 4197.436035, 4212.820313, 4218.974121, 4218.974121, 4222.563965, 4236.410156, 4195.384277, 4173.333008, 4204.102539, 4200.512695, 3545.000000, 8264.000000, 8147.000000, 0.000000, 0.000000, 0.000000, -21558.000000, 356.923065, 4.000000, 4.000000, 4.000000, 4.000000, 4.000000, 4.000000, 4.000000, 4.000000, 4.000000, 4.000000, 4.000000, 4.000000, 4.000000, 4.000000, 4.000000, 4.000000
95.000000, 0.000000, 4198.974121, 4184.615234, 4171.281738, 4182.563965, 4201.538574, 4202.051270, 4212.820313, 4213.333008, 4216.922852, 4214.871582, 4180.000000, 4164.102539, 4191.794922, 4198.461426, 838.000000, 8270.000000, 8156.000000, 0.000000, 0.000000, 0.000000, -21558.000000, 364.615387, 4.000000, 4.000000, 4.000000, 4.000000, 4.000000, 4.000000, 4.000000, 4.000000, 4.000000, 4.000000, 4.000000, 4.000000, 4.000000, 4.000000, 4.000000, 4.000000
96.000000, 0.000000, 4204.615234, 4192.820313, 4172.307617, 4186.666504, 4201.538574, 4195.384277, 4198.461426, 4205.641113, 4216.410156, 4208.205078, 4188.717773, 4153.846191, 4203.589844, 4202.563965, 3497.000000, 8270.000000, 8156.000000, 0.000000, 0.000000, 0.000000, -21558.000000, 372.307678, 4.000000, 4.000000, 4.000000, 4.000000, 4.000000, 4.000000, 4.000000, 4.000000, 4.000000, 4.000000, 4.000000, 4.000000, 4.000000, 4.000000, 4.000000, 4.000000
97.000000, 0.000000, 4210.769043, 4195.384277, 4181.025391, 4189.743652, 4202.051270, 4198.974121, 4197.436035, 4203.076660, 4217.436035, 4226.666504, 4202.051270, 4158.461426, 4219.487305, 4205.641113, 3418.000000, 8263.000000, 8166.000000, 0.000000, 0.000000, 0.000000, -21558.000000, 380.512817, 4.000000, 4.000000, 4.000000, 4.000000, 4.000000, 4.000000, 4.000000, 4.000000, 4.000000, 4.000000, 4.000000, 4.000000, 4.000000, 4.000000, 4.000000, 4.000000
98.000000, 0.000000, 4207.692383, 4191.281738, 4184.615234, 4186.666504, 4201.538574, 4202.051270, 4204.615234, 4202.563965, 4214.871582, 4229.743652, 4200.512695, 4168.205078, 4222.563965, 4201.025391, 3545.000000, 8263.000000, 8166.000000, 0.000000, 0.000000, 0.000000, -21558.000000, 388.717926, 4.000000, 4.000000, 4.000000, 4.000000, 4.000000, 4.000000, 4.000000, 4.000000, 4.000000, 4.000000, 4.000000, 4.000000, 4.000000, 4.000000, 4.000000, 4.000000
99.000000, 0.000000, 4205.127930, 4190.769043, 4189.743652, 4185.127930, 4198.974121, 4208.717773, 4208.717773, 4211.794922, 4220.000000, 4229.743652, 4210.769043, 4181.538574, 4236.922852, 4205.641113, 838.000000, 8258.000000, 8173.000000, 0.000000, 0.000000, 0.000000, -21558.000000, 396.410248, 4.000000, 4.000000, 4.000000, 4.000000, 4.000000, 4.000000, 4.000000, 4.000000, 4.000000, 4.000000, 4.000000, 4.000000, 4.000000, 4.000000, 4.000000, 4.000000
100.000000, 0.000000, 4207.692383, 4193.846191, 4195.384277, 4189.743652, 4201.025391, 4213.846191, 4212.307617, 4223.076660, 4232.820313, 4242.563965, 4228.717773, 4192.820313, 4251.794922, 4209.743652, 3497.000000, 8258.000000, 8173.000000, 0.000000, 0.000000, 0.000000, -21558.000000, 404.102539, 4.000000, 4.000000, 4.000000, 4.000000, 4.000000, 4.000000, 4.000000, 4.000000, 4.000000, 4.000000, 4.000000, 4.000000, 4.000000, 4.000000, 4.000000, 4.000000
101.000000, 0.000000, 4202.051270, 4187.179199, 4190.256348, 4188.205078, 4193.333008, 4205.127930, 4211.794922, 4215.384277, 4233.333008, 4245.127930, 4225.641113, 4192.307617, 4242.563965, 4203.589844, 3418.000000, 8237.000000, 8186.000000, 0.000000, 0.000000, 0.000000, -21558.000000, 412.307678, 4.000000, 4.000000, 4.000000, 4.000000, 4.000000, 4.000000, 4.000000, 4.000000, 4.000000, 4.000000, 4.000000, 4.000000, 4.000000, 4.000000, 4.000000, 4.000000
102.000000, 0.000000, 4185.641113, 4178.461426, 4185.127930, 4184.615234, 4180.000000, 4201.025391, 4204.615234, 4200.000000, 4224.102539, 4231.794922, 4214.358887, 4187.179199, 4231.794922, 4205.127930, 3545.000000, 8237.000000, 8186.000000, 0.000000, 0.000000, 0.000000, -21558.000000, 420.000000, 4.000000, 4.000000, 4.000000, 4.000000, 4.000000, 4.000000, 4.000000, 4.000000, 4.000000, 4.000000, 4.000000, 4.000000, 4.000000, 4.000000, 4.000000, 4.000000
103.000000, 0.000000, 4189.743652, 4186.666504, 4188.717773, 4185.641113, 4182.563965, 4201.025391, 4198.974121, 4197.436035, 4213.333008, 4220.000000, 4214.871582, 4182.051270, 4232.307617, 4205.127930, 838.000000, 8216.000000, 8188.000000, 0.000000, 0.000000, 0.000000, -21558.000000, 428.205109, 4.000000, 4.000000, 4.000000, 4.000000, 4.000000, 4.000000, 4.000000, 4.000000, 4.000000, 4.000000, 4.000000, 4.000000, 4.000000, 4.000000, 4.000000, 4.000000
104.000000, 0.000000, 4192.307617, 4193.333008, 4190.769043, 4186.153809, 4195.384277, 4190.256348, 4197.948730, 4198.461426, 4207.179199, 4217.436035, 4214.871582, 4174.358887, 4229.230469, 4199.487305, 3497.000000, 8216.000000, 8188.000000, 0.000000, 0.000000, 0.000000, -21558.000000, 435.897430, 4.000000, 4.000000, 4.000000, 4.000000, 4.000000, 4.000000, 4.000000, 4.000000, 4.000000, 4.000000, 4.000000, 4.000000, 4.000000, 4.000000, 4.000000, 4.000000
105.000000, 0.000000, 4185.641113, 4188.205078, 4194.358887, 4189.230469, 4203.076660, 4187.692383, 4200.000000, 4198.461426, 4215.384277, 4223.076660, 4214.358887, 4176.410156, 4230.256348, 4202.051270, 3418.000000, 8207.000000, 8201.000000, 0.000000, 0.000000, 0.000000, -21558.000000, 443.589722, 4.000000, 4.000000, 4.000000, 4.000000, 4.000000, 4.000000, 4.000000, 4.000000, 4.000000, 4.000000, 4.000000, 4.000000, 4.000000, 4.000000, 4.000000, 4.000000
106.000000, 0.000000, 4189.230469, 4190.769043, 4200.000000, 4197.436035, 4203.076660, 4196.922852, 4198.461426, 4200.000000, 4220.512695, 4224.615234, 4217.948730, 4186.666504, 4236.410156, 4204.102539, 3545.000000, 8207.000000, 8201.000000, 0.000000, 0.000000, 0.000000, -21558.000000, 451.794861, 4.000000, 4.000000, 4.000000, 4.000000, 4.000000, 4.000000, 4.000000, 4.000000, 4.000000, 4.000000, 4.000000, 4.000000, 4.000000, 4.000000, 4.000000, 4.000000
107.000000, 0.000000, 4181.538574, 4194.358887, 4198.461426, 4198.461426, 4198.974121, 4197.436035, 4188.205078, 4192.307617, 4204.102539, 4219.487305, 4221.538574, 4190.256348, 4234.358887, 4207.179199, 838.000000, 8215.000000, 8208.000000, 0.000000, 0.000000, 0.000000, -21558.000000, 459.487183, 4.000000, 4.000000, 4.000000, 4.000000, 4.000000, 4.000000, 4.000000, 4.000000, 4.000000, 4.000000, 4.000000, 4.000000, 4.000000, 4.000000, 4.000000, 4.000000
108.000000, 0.000000, 4177.948730, 4196.410156, 4198.974121, 4198.461426, 4200.000000, 4196.410156, 4186.153809, 4181.025391, 4192.820313, 4225.127930, 4227.692383, 4194.358887, 4237.436035, 4207.692383, 3497.000000, 8215.000000, 8208.000000, 0.000000, 0.000000, 0.000000, -21558.000000, 467.179474, 4.000000, 4.000000, 4.000000, 4.000000, 4.000000, 4.000000, 4.000000, 4.000000, 4.000000, 4.000000, 4.000000, 4.000000, 4.000000, 4.000000, 4.000000, 4.000000
109.000000, 0.000000, 4181.538574, 4202.563965, 4203.589844, 4207.179199, 4204.615234, 4201.025391, 4197.436035, 4188.205078, 4208.717773, 4240.000000, 4233.333008, 4202.051270, 4250.769043, 4205.127930, 3418.000000, 8222.000000, 8211.000000, 0.000000, 0.000000, 0.000000, -21558.000000, 475.384613, 4.000000, 4.000000, 4.000000, 4.000000, 4.000000, 4.000000, 4.000000, 4.000000, 4.000000, 4.000000, 4.000000, 4.000000, 4.000000, 4.000000, 4.000000, 4.000000
110.000000, 0.000000, 4175.384277, 4205.127930, 4205.127930, 4210.769043, 4200.512695, 4201.538574, 4201.538574, 4198.461426, 4219.487305, 4237.948730, 4234.871582, 4205.127930, 4252.820313, 4203.589844, 3545.000000, 8222.000000, 8211.000000, 0.000000, 0.000000, 0.000000, -21558.000000, 483.076904, 4.000000, 4.000000, 4.000000, 4.000000, 4.000000, 4.000000, 4.000000, 4.000000, 4.000000, 4.000000, 4.000000, 4.000000, 4.000000, 4.000000, 4.000000, 4.000000
111.000000, 0.000000, 4174.358887, 4206.153809, 4203.076660, 4209.230469, 4202.051270, 4200.000000, 4198.461426, 4196.410156, 4208.205078, 4223.076660, 4234.871582, 4199.487305, 4244.615234, 4202.051270, 838.000000, 8224.000000, 8234.000000, 0.000000, 0.000000, 0.000000, -21558.000000, 490.769226, 4.000000, 4.000000, 4.000000, 4.000000, 4.000000, 4.000000, 4.000000, 4.000000, 4.000000, 4.000000, 4.000000, 4.000000, 4.000000, 4.000000, 4.000000, 4.000000
112.000000, 0.000000, 4172.307617, 4207.692383, 4200.512695, 4213.333008, 4202.051270, 4200.512695, 4204.615234, 4197.948730, 4207.692383, 4215.384277, 4229.230469, 4194.358887, 4242.051270, 4202.563965, 3497.000000, 8224.000000, 8234.000000, 0.000000, 0.000000, 0.000000, -21558.000000, 498.974335, 4.000000, 4.000000, 4.000000, 4.000000, 4.000000, 4.000000, 4.000000, 4.000000, 4.000000, 4.000000, 4.000000, 4.000000, 4.000000, 4.000000, 4.000000, 4.000000
113.000000, 0.000000, 4173.333008, 4210.769043, 4202.563965, 4219.487305, 4190.256348, 4200.512695, 4205.127930, 4204.615234, 4220.512695, 4217.436035, 4225.641113, 4197.436035, 4243.076660, 4201.538574, 3418.000000, 8224.000000, 8232.000000, 0.000000, 0.000000, 0.000000, -21558.000000, 506.666656, 4.000000, 4.000000, 4.000000, 4.000000, 4.000000, 4.000000, 4.000000, 4.000000, 4.000000, 4.000000, 4.000000, 4.000000, 4.000000, 4.000000, 4.000000, 4.000000
114.000000, 0.000000, 4171.794922, 4211.281738, 4203.589844, 4220.512695, 4186.666504, 4200.000000, 4192.307617, 4203.076660, 4217.948730, 4221.025391, 4229.743652, 4201.538574, 4246.153809, 4202.051270, 3545.000000, 8224.000000, 8232.000000, 0.000000, 0.000000, 0.000000, -21558.000000, 514.358948, 4.000000, 4.000000, 4.000000, 4.000000, 4.000000, 4.000000, 4.000000, 4.000000, 4.000000, 4.000000, 4.000000, 4.000000, 4.000000, 4.000000, 4.000000, 4.000000
115.000000, 0.000000, 4162.563965, 4208.717773, 4197.948730, 4212.307617, 4201.538574, 4198.461426, 4189.743652, 4198.461426, 4207.692383, 4220.512695, 4231.794922, 4192.307617, 4245.127930, 4204.102539, 838.000000, 8208.000000, 8219.000000, 0.000000, 0.000000, 0.000000, -21558.000000, 522.051270, 4.000000, 4.000000, 4.000000, 4.000000, 4.000000, 4.000000, 4.000000, 4.000000, 4.000000, 4.000000, 4.000000, 4.000000, 4.000000, 4.000000, 4.000000, 4.000000
116.000000, 0.000000, 4162.563965, 4205.127930, 4195.897461, 4207.692383, 4216.410156, 4199.487305, 4202.051270, 4201.538574, 4212.820313, 4217.948730, 4230.769043, 4184.102539, 4242.051270, 4201.025391, 3497.000000, 8208.000000, 8219.000000, 0.000000, 0.000000, 0.000000, -21558.000000, 529.743591, 4.000000, 4.000000, 4.000000, 4.000000, 4.000000, 4.000000, 4.000000, 4.000000, 4.000000, 4.000000, 4.000000, 4.000000, 4.000000, 4.000000, 4.000000, 4.000000
117.000000, 0.000000, 4160.000000, 4202.563965, 4196.922852, 4210.769043, 4211.281738, 4201.538574, 4208.205078, 4205.127930, 4225.641113, 4222.051270, 4231.794922, 4188.717773, 4244.102539, 4201.538574, 3418.000000, 8192.000000, 8211.000000, 0.000000, 0.000000, 0.000000, -21558.000000, 537.948730, 4.000000, 4.000000, 4.000000, 4.000000, 4.000000, 4.000000, 4.000000, 4.000000, 4.000000, 4.000000, 4.000000, 4.000000, 4.000000, 4.000000, 4.000000, 4.000000
118.000000, 0.000000, 4161.025391, 4203.076660, 4194.871582, 4208.717773, 4191.794922, 4190.769043, 4192.820313, 4203.076660, 4227.179199, 4218.974121, 4228.205078, 4189.230469, 4237.436035, 4198.461426, 3545.000000, 8192.000000, 8211.000000, 0.000000, 0.000000, 0.000000, -21558.000000, 546.153809, 4.000000, 4.000000, 4.000000, 4.000000, 4.000000, 4.000000, 4.000000, 4.000000, 4.000000, 4.000000, 4.000000, 4.000000, 4.000000, 4.000000, 4.000000, 4.000000
119.000000, 0.000000, 4166.153809, 4200.000000, 4195.384277, 4201.025391, 4182.563965, 4179.487305, 4182.563965, 4203.076660, 4220.000000, 4204.615234, 4227.179199, 4190.769043, 4232.820313, 4196.922852, 838.000000, 8164.000000, 8199.000000, 0.000000, 0.000000, 0.000000, -21558.000000, 553.846130, 4.000000, 4.000000, 4.000000, 4.000000, 4.000000, 4.000000, 4.000000, 4.000000, 4.000000, 4.000000, 4.000000, 4.000000, 4.000000, 4.000000, 4.000000, 4.000000
120.000000, 0.000000, 4169.743652, 4197.948730, 4202.051270, 4201.538574, 4191.281738, 4189.230469, 4196.410156, 4206.153809, 4216.922852, 4204.615234, 4234.871582, 4202.563965, 4243.589844, 4203.589844, 3497.000000, 8164.000000, 8199.000000, 0.000000, 0.000000, 0.000000, -21558.000000, 561.538452, 4.000000, 4.000000, 4.000000, 4.000000, 4.000000, 4.000000, 4.000000, 4.000000, 4.000000, 4.000000, 4.000000, 4.000000, 4.000000, 4.000000, 4.000000, 4.000000
121.000000, 0.000000, 4173.846191, 4197.948730, 4207.692383, 4203.589844, 4196.410156, 4198.461426, 4199.487305, 4200.512695, 4214.358887, 4215.384277, 4235.384277, 4199.487305, 4241.025391, 4199.487305, 3418.000000, 8151.000000, 8189.000000, 0.000000, 0.000000, 0.000000, -21558.000000, 569.743591, 4.000000, 4.000000, 4.000000, 4.000000, 4.000000, 4.000000, 4.000000, 4.000000, 4.000000, 4.000000, 4.000000, 4.000000, 4.000000, 4.000000, 4.000000, 4.000000
122.000000, 0.000000, 4160.512695, 4194.358887, 4197.436035, 4196.410156, 4181.025391, 4186.666504, 4187.179199, 4191.281738, 4200.512695, 4207.692383, 4220.000000, 4182.051270, 4217.948730, 4194.358887, 3545.000000, 8151.000000, 8189.000000, 0.000000, 0.000000, 0.000000, -21558.000000, 577.435913, 4.000000, 4.000000, 4.000000, 4.000000, 4.000000, 4.000000, 4.000000, 4.000000, 4.000000, 4.000000, 4.000000, 4.000000, 4.000000, 4.000000, 4.000000, 4.000000
123.000000, 0.000000, 4158.461426, 4190.769043, 4187.179199, 4194.358887, 4172.307617, 4180.512695, 4189.230469, 4201.538574, 4196.922852, 4192.307617, 4208.717773, 4177.436035, 4209.230469, 4195.384277, 838.000000, 8143.000000, 8188.000000, 0.000000, 0.000000, 0.000000, -21558.000000, 585.128174, 4.000000, 4.000000, 4.000000, 4.000000, 4.000000, 4.000000, 4.000000, 4.000000, 4.000000, 4.000000, 4.000000, 4.000000, 4.000000, 4.000000, 4.000000, 4.000000
124.000000, 0.000000, 4173.333008, 4193.333008, 4195.897461, 4200.000000, 4187.692383, 4195.897461, 4205.127930, 4216.410156, 4213.846191, 4195.897461, 4212.307617, 4185.641113, 4216.922852, 4197.436035, 3497.000000, 8143.000000, 8188.000000, 0.000000, 0.000000, 0.000000, -21558.000000, 592.820496, 4.000000, 4.000000, 4.000000, 4.000000, 4.000000, 4.000000, 4.000000, 4.000000, 4.000000, 4.000000, 4.000000, 4.000000, 4.000000, 4.000000, 4.000000, 4.000000
125.000000, 0.000000, 4174.871582, 4196.410156, 4202.051270, 4202.563965, 4207.179199, 4201.538574, 4205.127930, 4210.769043, 4220.000000, 4206.153809, 4218.974121, 4188.717773, 4219.487305, 4201.538574, 3418.000000, 8120.000000, 8178.000000, 0.000000, 0.000000, 0.000000, -21558.000000, 601.025635, 4.000000, 4.000000, 4.000000, 4.000000, 4.000000, 4.000000, 4.000000, 4.000000, 4.000000, 4.000000, 4.000000, 4.000000, 4.000000, 4.000000, 4.000000, 4.000000
126.000000, 0.000000, 4175.897461, 4196.922852, 4196.410156, 4199.487305, 4204.615234, 4189.743652, 4198.461426, 4203.076660, 4213.333008, 4200.512695, 4217.436035, 4184.102539, 4214.871582, 4197.436035, 3545.000000, 8120.000000, 8178.000000, 0.000000, 0.000000, 0.000000, -21558.000000, 608.717957, 4.000000, 4.000000, 4.000000, 4.000000, 4.000000, 4.000000, 4.000000, 4.000000, 4.000000, 4.000000, 4.000000, 4.000000, 4.000000, 4.000000, 4.000000, 4.000000
127.000000, 0.000000, 4174.871582, 4193.846191, 4193.846191, 4197.948730, 4187.179199, 4186.153809, 4202.563965, 4211.794922, 4211.281738, 4193.333008, 4214.358887, 4185.641113, 4209.230469, 4195.897461, 54.000000, 8114.000000, 8178.000000, 0.000000, 0.000000, 0.000000, -21558.000000, 616.410217, 4.000000, 4.000000, 4.000000, 4.000000, 4.000000, 4.000000, 4.000000, 4.000000, 4.000000, 4.000000, 4.000000, 4.000000, 4.000000, 4.000000, 4.000000, 4.000000
0.000000, 0.000000, 4179.487305, 4192.820313, 4201.538574, 4202.051270, 4183.589844, 4188.717773, 4198.461426, 4213.846191, 4210.256348, 4196.922852, 4214.871582, 4189.743652, 4210.256348, 4200.512695, 3353.000000, 8114.000000, 8178.000000, 0.000000, 0.000000, 0.000000, -21558.000000, 624.615356, 4.000000, 4.000000, 4.000000, 4.000000, 4.000000, 4.000000, 4.000000, 4.000000, 4.000000, 4.000000, 4.000000, 4.000000, 4.000000, 4.000000, 4.000000, 4.000000
1.000000, 0.000000, 4190.256348, 4195.384277, 4206.153809, 4206.153809, 4203.076660, 4191.281738, 4187.179199, 4203.589844, 4208.205078, 4207.692383, 4217.436035, 4191.281738, 4217.436035, 4200.512695, 3510.000000, 8110.000000, 8187.000000, 0.000000, 0.000000, 0.000000, -21558.000000, 632.307678, 4.000000, 4.000000, 4.000000, 4.000000, 4.000000, 4.000000, 4.000000, 4.000000, 4.000000, 4.000000, 4.000000, 4.000000, 4.000000, 4.000000, 4.000000, 4.000000
2.000000, 0.000000, 4183.589844, 4190.769043, 4198.974121, 4200.512695, 4206.153809, 4197.948730, 4190.256348, 4198.974121, 4202.563965, 4202.051270, 4216.410156, 4194.358887, 4212.820313, 4198.974121, 2639.000000, 8110.000000, 8187.000000, 0.000000, 0.000000, 0.000000, -21558.000000, 640.000000, 4.000000, 4.000000, 4.000000, 4.000000, 4.000000, 4.000000, 4.000000, 4.000000, 4.000000, 4.000000, 4.000000, 4.000000, 4.000000, 4.000000, 4.000000, 4.000000
3.000000, 0.000000, 4184.102539, 4186.666504, 4195.897461, 4192.307617, 4184.102539, 4199.487305, 4194.358887, 4197.436035, 4195.897461, 4185.641113, 4208.717773, 4192.820313, 4199.487305, 4196.410156, 2071.000000, 8114.000000, 8190.000000, 0.000000, 0.000000, 0.000000, -21558.000000, 648.205139, 4.000000, 4.000000, 4.000000, 4.000000, 4.000000, 4.000000, 4.000000, 4.000000, 4.000000, 4.000000, 4.000000, 4.000000, 4.000000, 4.000000, 4.000000, 4.000000
4.000000, 0.000000, 4189.230469, 4190.256348, 4205.641113, 4195.897461, 4189.743652, 4192.820313, 4188.717773, 4206.153809, 4206.666504, 4193.333008, 4208.205078, 4191.794922, 4203.589844, 4198.461426, 3534.000000, 8114.000000, 8190.000000, 0.000000, 0.000000, 0.000000, -21558.000000, 655.897400, 4.000000, 4.000000, 4.000000, 4.000000, 4.000000, 4.000000, 4.000000, 4.000000, 4.000000, 4.000000, 4.000000, 4.000000, 4.000000, 4.000000, 4.000000, 4.000000
5.000000, 0.000000, 4189.743652, 4193.333008, 4209.743652, 4201.538574, 4206.666504, 4191.281738, 4190.256348, 4217.436035, 4220.000000, 4201.025391, 4214.871582, 4196.922852, 4209.230469, 4201.025391, 3545.000000, 8116.000000, 8187.000000, 0.000000, 0.000000, 0.000000, -21558.000000, 664.102539, 4.000000, 4.000000, 4.000000, 4.000000, 4.000000, 4.000000, 4.000000, 4.000000, 4.000000, 4.000000, 4.000000, 4.000000, 4.000000, 4.000000, 4.000000, 4.000000
6.000000, 0.000000, 4195.897461, 4195.897461, 4201.538574, 4198.974121, 4192.307617, 4194.871582, 4194.871582, 4209.743652, 4216.922852, 4188.205078, 4216.410156, 4199.487305, 4203.076660, 4200.000000, 3065.000000, 8116.000000, 8187.000000, 0.000000, 0.000000, 0.000000, -21558.000000, 671.794861, 4.000000, 4.000000, 4.000000, 4.000000, 4.000000, 4.000000, 4.000000, 4.000000, 4.000000, 4.000000, 4.000000, 4.000000, 4.000000, 4.000000, 4.000000, 4.000000
7.000000, 0.000000, 4197.436035, 4195.897461, 4198.461426, 4196.922852, 4187.179199, 4198.974121, 4198.974121, 4207.692383, 4218.461426, 4192.307617, 4215.384277, 4199.487305, 4207.179199, 4202.563965, 3514.000000, 8128.000000, 8182.000000, 0.000000, 0.000000, 0.000000, -21558.000000, 679.487183, 4.000000, 4.000000, 4.000000, 4.000000, 4.000000, 4.000000, 4.000000, 4.000000, 4.000000, 4.000000, 4.000000, 4.000000, 4.000000, 4.000000, 4.000000, 4.000000
8.000000, 0.000000, 4201.025391, 4194.871582, 4204.615234, 4199.487305, 4209.743652, 4204.102539, 4206.153809, 4215.897461, 4221.538574, 4211.281738, 4214.871582, 4197.436035, 4212.307617, 4201.025391, 3520.000000, 8128.000000, 8182.000000, 0.000000, 0.000000, 0.000000, -21558.000000, 687.692261, 4.000000, 4.000000, 4.000000, 4.000000, 4.000000, 4.000000, 4.000000, 4.000000, 4.000000, 4.000000, 4.000000, 4.000000, 4.000000, 4.000000, 4.000000, 4.000000
9.000000, 0.000000, 4198.974121, 4193.846191, 4205.127930, 4200.000000, 4214.358887, 4203.589844, 4207.692383, 4210.256348, 4214.871582, 4207.692383, 4212.307617, 4196.410156, 4204.615234, 4202.051270, 3538.000000, 8138.000000, 8180.000000, 0.000000, 0.000000, 0.000000, -21558.000000, 695.384583, 4.000000, 4.000000, 4.000000, 4.000000, 4.000000, 4.000000, 4.000000, 4.000000, 4.000000, 4.000000, 4.000000, 4.000000, 4.000000, 4.000000, 4.000000, 4.000000
10.000000, 0.000000, 4200.000000, 4196.410156, 4204.615234, 4202.563965, 4211.794922, 4196.410156, 4198.974121, 4193.846191, 4213.846191, 4195.384277, 4213.333008, 4198.461426, 4202.051270, 4204.102539, 3547.000000, 8138.000000, 8180.000000, 0.000000, 0.000000, 0.000000, -21558.000000, 703.589722, 4.000000, 4.000000, 4.000000, 4.000000, 4.000000, 4.000000, 4.000000, 4.000000, 4.000000, 4.000000, 4.000000, 4.000000, 4.000000, 4.000000, 4.000000, 4.000000
11.000000, 0.000000, 4210.256348, 4196.410156, 4210.256348, 4204.615234, 4205.127930, 4192.820313, 4191.281738, 4188.717773, 4216.922852, 4203.076660, 4215.897461, 4196.922852, 4208.717773, 4198.461426, 840.000000, 8159.000000, 8177.000000, 0.000000, 0.000000, 0.000000, -21558.000000, 711.282043, 4.000000, 4.000000, 4.000000, 4.000000, 4.000000, 4.000000, 4.000000, 4.000000, 4.000000, 4.000000, 4.000000, 4.000000, 4.000000, 4.000000, 4.000000, 4.000000
12.000000, 0.000000, 4205.641113, 4194.871582, 4212.820313, 4201.538574, 4182.563965, 4195.897461, 4192.307617, 4194.871582, 4215.384277, 4210.769043, 4213.333008, 4196.410156, 4209.230469, 4202.051270, 3481.000000, 8159.000000, 8177.000000, 0.000000, 0.000000, 0.000000, -21558.000000, 718.974365, 4.000000, 4.000000, 4.000000, 4.000000, 4.000000, 4.000000, 4.000000, 4.000000, 4.000000, 4.000000, 4.000000, 4.000000, 4.000000, 4.000000, 4.000000, 4.000000
13.000000, 0.000000, 4212.820313, 4203.589844, 4217.436035, 4207.179199, 4192.307617, 4200.512695, 4200.000000, 4201.025391, 4220.000000, 4211.794922, 4214.871582, 4206.153809, 4214.358887, 4209.230469, 3418.000000, 8164.000000, 8175.000000, 0.000000, 0.000000, 0.000000, -21558.000000, 727.179443, 4.000000, 4.000000, 4.000000, 4.000000, 4.000000, 4.000000, 4.000000, 4.000000, 4.000000, 4.000000, 4.000000, 4.000000, 4.000000, 4.000000, 4.000000, 4.000000
14.000000, 0.000000, 4225.127930, 4210.256348, 4223.076660, 4218.974121, 4221.538574, 4201.538574, 4205.127930, 4202.563965, 4224.615234, 4224.102539, 4226.153809, 4214.358887, 4230.256348, 4208.205078, 3547.000000, 8164.000000, 8175.000000, 0.000000, 0.000000, 0.000000, -21558.000000, 734.871765, 4.000000, 4.000000, 4.000000, 4.000000, 4.000000, 4.000000, 4.000000, 4.000000, 4.000000, 4.000000, 4.000000, 4.000000, 4.000000, 4.000000, 4.000000, 4.000000
15.000000, 0.000000, 4223.589844, 4208.717773, 4220.512695, 4221.538574, 4218.461426, 4200.000000, 4202.563965, 4202.051270, 4217.436035, 4234.358887, 4229.743652, 4207.179199, 4232.307617, 4203.589844, 840.000000, 8175.000000, 8172.000000, 0.000000, 0.000000, 0.000000, -21558.000000, 743.076904, 4.000000, 4.000000, 4.000000, 4.000000, 4.000000, 4.000000, 4.000000, 4.000000, 4.000000, 4.000000, 4.000000, 4.000000, 4.000000, 4.000000, 4.000000, 4.000000
16.000000, 0.000000, 4224.102539, 4205.127930, 4209.743652, 4214.358887, 4211.281738, 4202.563965, 4193.846191, 4199.487305, 4204.102539, 4217.436035, 4214.358887, 4196.922852, 4215.897461, 4199.487305, 0.000000, 8175.000000, 8172.000000, 0.000000, 0.000000, 0.000000, -21558.000000, 750.769226, 4.000000, 4.000000, 4.000000, 4.000000, 4.000000, 4.000000, 4.000000, 4.000000, 4.000000, 4.000000, 4.000000, 4.000000, 4.000000, 4.000000, 4.000000, 4.000000
17.000000, 0.000000, 4211.281738, 4197.948730, 4198.461426, 4206.153809, 4212.820313, 4201.538574, 4188.205078, 4188.717773, 4189.230469, 4187.692383, 4197.436035, 4188.717773, 4196.922852, 4201.025391, 0.000000, 8179.000000, 8169.000000, 0.000000, 0.000000, 0.000000, -21558.000000, 758.461548, 4.000000, 4.000000, 4.000000, 4.000000, 4.000000, 4.000000, 4.000000, 4.000000, 4.000000, 4.000000, 4.000000, 4.000000, 4.000000, 4.000000, 4.000000, 4.000000
18.000000, 0.000000, 4201.025391, 4192.820313, 4193.846191, 4198.974121, 4200.512695, 4201.025391, 4189.230469, 4188.717773, 4189.743652, 4187.692383, 4193.846191, 4183.589844, 4191.794922, 4198.461426, 0.000000, 8179.000000, 8169.000000, 0.000000, 0.000000, 0.000000, -21558.000000, 766.666626, 4.000000, 4.000000, 4.000000, 4.000000, 4.000000, 4.000000, 4.000000, 4.000000, 4.000000, 4.000000, 4.000000, 4.000000, 4.000000, 4.000000, 4.000000, 4.000000
19.000000, 0.000000, 4204.102539, 4192.820313, 4195.897461, 4196.922852, 4201.025391, 4207.179199, 4194.358887, 4205.641113, 4213.846191, 4205.641113, 4198.461426, 4186.153809, 4203.076660, 4198.461426, 0.000000, 8179.000000, 8169.000000, 0.000000, 0.000000, 0.000000, -21558.000000, 774.358948, 4.000000, 4.000000, 4.000000, 4.000000, 4.000000, 4.000000, 4.000000, 4.000000, 4.000000, 4.000000, 4.000000, 4.000000, 4.000000, 4.000000, 4.000000, 4.000000
20.000000, 0.000000, 4208.205078, 4197.948730, 4200.000000, 4199.487305, 4214.871582, 4208.205078, 4198.461426, 4206.666504, 4222.563965, 4208.717773, 4205.641113, 4192.820313, 4213.846191, 4205.641113, 0.000000, 8179.000000, 8169.000000, 0.000000, 0.000000, 0.000000, -21558.000000, 782.051270, 4.000000, 4.000000, 4.000000, 4.000000, 4.000000, 4.000000, 4.000000, 4.000000, 4.000000, 4.000000, 4.000000, 4.000000, 4.000000, 4.000000, 4.000000, 4.000000
21.000000, 0.000000, 4214.358887, 4204.615234, 4203.076660, 4201.025391, 4214.358887, 4199.487305, 4195.897461, 4190.256348, 4202.563965, 4214.871582, 4214.871582, 4196.922852, 4220.000000, 4205.127930, 0.000000, 8182.000000, 8169.000000, 0.000000, 0.000000, 0.000000, -21558.000000, 790.256409, 4.000000, 4.000000, 4.000000, 4.000000, 4.000000, 4.000000, 4.000000, 4.000000, 4.000000, 4.000000, 4.000000, 4.000000, 4.000000, 4.000000, 4.000000, 4.000000
22.000000, 0.000000, 4212.307617, 4205.127930, 4206.153809, 4206.153809, 4205.641113, 4191.794922, 4188.205078, 4187.179199, 4195.897461, 4224.102539, 4218.461426, 4202.051270, 4224.615234, 4203.589844, 0.000000, 8182.000000, 8169.000000, 0.000000, 0.000000, 0.000000, -21558.000000, 797.948669, 4.000000, 4.000000, 4.000000, 4.000000, 4.000000, 4.000000, 4.000000, 4.000000, 4.000000, 4.000000, 4.000000, 4.000000, 4.000000, 4.000000, 4.000000, 4.000000
23.000000, 0.000000, 4219.487305, 4209.230469, 4214.871582, 4215.897461, 4208.717773, 4196.410156, 4189.230469, 4193.846191, 4206.666504, 4214.871582, 4217.948730, 4202.051270, 4232.307617, 4205.127930, 0.000000, 8182.000000, 8165.000000, 0.000000, 0.000000, 0.000000, -21558.000000, 806.153809, 4.000000, 4.000000, 4.000000, 4.000000, 4.000000, 4.000000, 4.000000, 4.000000, 4.000000, 4.000000, 4.000000, 4.000000, 4.000000, 4.000000, 4.000000, 4.000000
24.000000, 0.000000, 4225.641113, 4205.127930, 4221.025391, 4216.922852, 4217.948730, 4208.205078, 4200.512695, 4201.538574, 4216.922852, 4207.179199, 4220.512695, 4205.127930, 4237.436035, 4207.179199, 0.000000, 8182.000000, 8165.000000, 0.000000, 0.000000, 0.000000, -21558.000000, 813.846130, 4.000000, 4.000000, 4.000000, 4.000000, 4.000000, 4.000000, 4.000000, 4.000000, 4.000000, 4.000000, 4.000000, 4.000000, 4.000000, 4.000000, 4.000000, 4.000000
25.000000, 0.000000, 4210.256348, 4187.179199, 4216.922852, 4203.076660, 4222.051270, 4215.897461, 4206.153809, 4210.769043, 4223.589844, 4213.333008, 4220.000000, 4215.897461, 4229.230469, 4203.076660, 0.000000, 8195.000000, 8169.000000, 0.000000, 0.000000, 0.000000, -21558.000000, 821.538452, 4.000000, 4.000000, 4.000000, 4.000000, 4.000000, 4.000000, 4.000000, 4.000000, 4.000000, 4.000000, 4.000000, 4.000000, 4.000000, 4.000000, 4.000000, 4.000000
26.000000, 0.000000, 4210.256348, 4192.820313, 4212.307617, 4202.051270, 4224.102539, 4212.820313, 4199.487305, 4210.256348, 4222.563965, 4211.794922, 4214.871582, 4214.871582, 4221.025391, 4194.871582, 0.000000, 8195.000000, 8169.000000, 0.000000, 0.000000, 0.000000, -21558.000000, 829.230774, 4.000000, 4.000000, 4.000000, 4.000000, 4.000000, 4.000000, 4.000000, 4.000000, 4.000000, 4.000000, 4.000000, 4.000000, 4.000000, 4.000000, 4.000000, 4.000000
27.000000, 0.000000, 4220.000000, 4215.384277, 4212.307617, 4215.384277, 4225.127930, 4202.051270, 4191.281738, 4202.051270, 4213.333008, 4196.922852, 4212.307617, 4201.538574, 4220.000000, 4200.512695, 0.000000, 8201.000000, 8164.000000, 0.000000, 0.000000, 0.000000, -21558.000000, 837.435852, 4.000000, 4.000000, 4.000000, 4.000000, 4.000000, 4.000000, 4.000000, 4.000000, 4.000000, 4.000000, 4.000000, 4.000000, 4.000000, 4.000000, 4.000000, 4.000000
28.000000, 0.000000, 4225.641113, 4221.538574, 4215.897461, 4217.948730, 4221.025391, 4197.436035, 4192.307617, 4197.436035, 4205.127930, 4186.666504, 4212.307617, 4199.487305, 4215.384277, 4204.102539, 0.000000, 8201.000000, 8164.000000, 0.000000, 0.000000, 0.000000, -21558.000000, 845.128174, 4.000000, 4.000000, 4.000000, 4.000000, 4.000000, 4.000000, 4.000000, 4.000000, 4.000000, 4.000000, 4.000000, 4.000000, 4.000000, 4.000000, 4.000000, 4.000000
29.000000, 0.000000, 4227.692383, 4220.512695, 4220.000000, 4216.922852, 4204.615234, 4197.436035, 4200.512695, 4194.871582, 4204.615234, 4187.179199, 4208.717773, 4207.692383, 4208.205078, 4202.051270, 0.000000, 8210.000000, 8161.000000, 0.000000, 0.000000, 0.000000, -21558.000000, 853.333313, 4.000000, 4.000000, 4.000000, 4.000000, 4.000000, 4.000000, 4.000000, 4.000000, 4.000000, 4.000000, 4.000000, 4.000000, 4.000000, 4.000000, 4.000000, 4.000000
30.000000, 0.000000, 4223.589844, 4227.179199, 4214.358887, 4227.179199, 4194.358887, 4195.897461, 4192.820313, 4183.076660, 4195.384277, 4186.153809, 4198.974121, 4198.974121, 4199.487305, 4203.076660, 0.000000, 8210.000000, 8161.000000, 0.000000, 0.000000, 0.000000, -21558.000000, 861.025635, 4.000000, 4.000000, 4.000000, 4.000000, 4.000000, 4.000000, 4.000000, 4.000000, 4.000000, 4.000000, 4.000000, 4.000000, 4.000000, 4.000000, 4.000000, 4.000000
31.000000, 0.000000, 4225.127930, 4233.333008, 4209.230469, 4233.846191, 4205.127930, 4197.948730, 4181.025391, 4181.538574, 4185.127930, 4183.589844, 4188.717773, 4183.076660, 4188.717773, 4197.948730, 0.000000, 8225.000000, 8158.000000, 0.000000, 0.000000, 0.000000, -21558.000000, 868.717957, 4.000000, 4.000000, 4.000000, 4.000000, 4.000000, 4.000000, 4.000000, 4.000000, 4.000000, 4.000000, 4.000000, 4.000000, 4.000000, 4.000000, 4.000000, 4.000000
32.000000, 0.000000, 4217.948730, 4230.256348, 4210.256348, 4229.230469, 4219.487305, 4202.563965, 4191.794922, 4194.871582, 4195.384277, 4185.641113, 4185.127930, 4184.615234, 4184.615234, 4200.512695, 0.000000, 8225.000000, 8158.000000, 0.000000, 0.000000, 0.000000, -21558.000000, 876.923035, 4.000000, 4.000000, 4.000000, 4.000000, 4.000000, 4.000000, 4.000000, 4.000000, 4.000000, 4.000000, 4.000000, 4.000000, 4.000000, 4.000000, 4.000000, 4.000000
33.000000, 0.000000, 4209.230469, 4226.153809, 4207.692383, 4222.051270, 4222.563965, 4203.589844, 4203.076660, 4192.820313, 4200.000000, 4187.692383, 4184.102539, 4187.179199, 4183.076660, 4204.102539, 0.000000, 8224.000000, 8160.000000, 0.000000, 0.000000, 0.000000, -21558.000000, 884.615356, 4.000000, 4.000000, 4.000000, 4.000000, 4.000000, 4.000000, 4.000000, 4.000000, 4.000000, 4.000000, 4.000000, 4.000000, 4.000000, 4.000000, 4.000000, 4.000000
34.000000, 0.000000, 4207.179199, 4221.025391, 4208.205078, 4215.897461, 4215.897461, 4202.051270, 4200.512695, 4182.051270, 4188.205078, 4182.563965, 4183.589844, 4183.076660, 4174.358887, 4198.974121, 0.000000, 8224.000000, 8160.000000, 0.000000, 0.000000, 0.000000, -21558.000000, 892.307678, 4.000000, 4.000000, 4.000000, 4.000000, 4.000000, 4.000000, 4.000000, 4.000000, 4.000000, 4.000000, 4.000000, 4.000000, 4.000000, 4.000000, 4.000000, 4.000000
35.000000, 0.000000, 4202.051270, 4220.512695, 4213.333008, 4213.333008, 4201.025391, 4204.615234, 4198.461426, 4184.615234, 4188.205078, 4177.948730, 4185.127930, 4185.127930, 4170.769043, 4198.461426, 0.000000, 8221.000000, 8170.000000, 0.000000, 0.000000, 0.000000, -21558.000000, 900.512817, 4.000000, 4.000000, 4.000000, 4.000000, 4.000000, 4.000000, 4.000000, 4.000000, 4.000000, 4.000000, 4.000000, 4.000000, 4.000000, 4.000000, 4.000000, 4.000000
36.000000, 0.000000, 4204.102539, 4220.000000, 4208.717773, 4211.281738, 4191.794922, 4205.641113, 4197.948730, 4183.076660, 4193.846191, 4174.358887, 4182.051270, 4183.076660, 4168.717773, 4199.487305, 0.000000, 8221.000000, 8170.000000, 0.000000, 0.000000, 0.000000, -21558.000000, 908.205078, 4.000000, 4.000000, 4.000000, 4.000000, 4.000000, 4.000000, 4.000000, 4.000000, 4.000000, 4.000000, 4.000000, 4.000000, 4.000000, 4.000000, 4.000000, 4.000000
37.000000, 0.000000, 4200.512695, 4214.871582, 4196.922852, 4205.127930, 4205.127930, 4201.538574, 4197.436035, 4174.871582, 4181.538574, 4169.230469, 4178.461426, 4173.333008, 4160.512695, 4202.051270, 0.000000, 8217.000000, 8168.000000, 0.000000, 0.000000, 0.000000, -21558.000000, 916.410217, 4.000000, 4.000000, 4.000000, 4.000000, 4.000000, 4.000000, 4.000000, 4.000000, 4.000000, 4.000000, 4.000000, 4.000000, 4.000000, 4.000000, 4.000000, 4.000000
38.000000, 0.000000, 4198.461426, 4216.922852, 4192.307617, 4201.025391, 4204.615234, 4197.948730, 4198.974121, 4176.410156, 4174.871582, 4165.641113, 4181.025391, 4174.871582, 4156.922852, 4203.589844, 0.000000, 8217.000000, 8168.000000, 0.000000, 0.000000, 0.000000, -21558.000000, 924.102539, 4.000000, 4.000000, 4.000000, 4.000000, 4.000000, 4.000000, 4.000000, 4.000000, 4.000000, 4.000000, 4.000000, 4.000000, 4.000000, 4.000000, 4.000000, 4.000000
39.000000, 0.000000, 4203.589844, 4218.974121, 4194.358887, 4202.563965, 4188.717773, 4197.948730, 4194.871582, 4181.025391, 4182.563965, 4159.487305, 4183.076660, 4180.512695, 4158.461426, 4200.000000, 0.000000, 8212.000000, 8172.000000, 0.000000, 0.000000, 0.000000, -21558.000000, 931.794861, 4.000000, 4.000000, 4.000000, 4.000000, 4.000000, 4.000000, 4.000000, 4.000000, 4.000000, 4.000000, 4.000000, 4.000000, 4.000000, 4.000000, 4.000000, 4.000000
40.000000, 0.000000, 4198.461426, 4214.358887, 4198.974121, 4203.589844, 4208.717773, 4201.538574, 4196.410156, 4189.230469, 4187.692383, 4160.000000, 4182.051270, 4178.974121, 4152.820313, 4202.563965, 0.000000, 8212.000000, 8172.000000, 0.000000, 0.000000, 0.000000, -21558.000000, 940.000000, 4.000000, 4.000000, 4.000000, 4.000000, 4.000000, 4.000000, 4.000000, 4.000000, 4.000000, 4.000000, 4.000000, 4.000000, 4.000000, 4.000000, 4.000000, 4.000000
41.000000, 0.000000, 4204.615234, 4217.948730, 4208.717773, 4202.563965, 4227.179199, 4204.615234, 4202.051270, 4203.589844, 4196.410156, 4160.512695, 4185.641113, 4183.589844, 4150.769043, 4204.102539, 0.000000, 8202.000000, 8172.000000, 0.000000, 0.000000, 0.000000, -21558.000000, 947.692261, 4.000000, 4.000000, 4.000000, 4.000000, 4.000000, 4.000000, 4.000000, 4.000000, 4.000000, 4.000000, 4.000000, 4.000000, 4.000000, 4.000000, 4.000000, 4.000000
42.000000, 0.000000, 4209.230469, 4222.051270, 4208.717773, 4208.717773, 4206.153809, 4197.436035, 4194.871582, 4200.000000, 4205.127930, 4153.333008, 4189.230469, 4188.205078, 4157.436035, 4203.589844, 0.000000, 8202.000000, 8172.000000, 0.000000, 0.000000, 0.000000, -21558.000000, 955.897400, 4.000000, 4.000000, 4.000000, 4.000000, 4.000000, 4.000000, 4.000000, 4.000000, 4.000000, 4.000000, 4.000000, 4.000000, 4.000000, 4.000000, 4.000000, 4.000000
43.000000, 0.000000, 4205.641113, 4219.487305, 4203.589844, 4213.333008, 4201.538574, 4196.922852, 4188.717773, 4196.410156, 4200.512695, 4154.358887, 4187.692383, 4182.563965, 4156.410156, 4203.076660, 0.000000, 8196.000000, 8175.000000, 0.000000, 0.000000, 0.000000, -21558.000000, 963.589722, 4.000000, 4.000000, 4.000000, 4.000000, 4.000000, 4.000000, 4.000000, 4.000000, 4.000000, 4.000000, 4.000000, 4.000000, 4.000000, 4.000000, 4.000000, 4.000000
44.000000, 0.000000, 4214.871582, 4224.102539, 4213.333008, 4217.948730, 4223.076660, 4212.820313, 4198.974121, 4218.974121, 4200.000000, 4171.281738, 4194.358887, 4190.256348, 4156.410156, 4203.589844, 0.000000, 8196.000000, 8175.000000, 0.000000, 0.000000, 0.000000, -21558.000000, 971.282043, 4.000000, 4.000000, 4.000000, 4.000000, 4.000000, 4.000000, 4.000000, 4.000000, 4.000000, 4.000000, 4.000000, 4.000000, 4.000000, 4.000000, 4.000000, 4.000000
45.000000, 0.000000, 4217.436035, 4229.230469, 4224.102539, 4226.153809, 4228.717773, 4218.461426, 4207.179199, 4229.230469, 4210.769043, 4177.436035, 4205.127930, 4209.230469, 4166.666504, 4207.179199, 0.000000, 8189.000000, 8172.000000, 0.000000, 0.000000, 0.000000, -21558.000000, 979.487183, 4.000000, 4.000000, 4.000000, 4.000000, 4.000000, 4.000000, 4.000000, 4.000000, 4.000000, 4.000000, 4.000000, 4.000000, 4.000000, 4.000000, 4.000000, 4.000000
46.000000, 0.000000, 4212.307617, 4223.076660, 4222.051270, 4224.615234, 4212.307617, 4203.076660, 4203.076660, 4206.153809, 4208.717773, 4154.358887, 4197.436035, 4200.000000, 4158.974121, 4202.563965, 0.000000, 8189.000000, 8172.000000, 0.000000, 0.000000, 0.000000, -21558.000000, 987.179443, 4.000000, 4.000000, 4.000000, 4.000000, 4.000000, 4.000000, 4.000000, 4.000000, 4.000000, 4.000000, 4.000000, 4.000000, 4.000000, 4.000000, 4.000000, 4.000000
47.000000, 0.000000, 4208.717773, 4218.974121, 4217.436035, 4217.436035, 4205.127930, 4196.922852, 4197.948730, 4196.410156, 4201.025391, 4137.948730, 4184.102539, 4187.692383, 4143.589844, 4203.076660, 0.000000, 8189.000000, 8171.000000, 0.000000, 0.000000, 0.000000, -21558.000000, 994.871765, 4.000000, 4.000000, 4.000000, 4.000000, 4.000000, 4.000000, 4.000000, 4.000000, 4.000000, 4.000000, 4.000000, 4.000000, 4.000000, 4.000000, 4.000000, 4.000000
48.000000, 0.000000, 4213.333008, 4221.025391, 4223.076660, 4221.538574, 4217.436035, 4204.615234, 4194.358887, 4201.025391, 4204.102539, 4138.461426, 4186.153809, 4198.461426, 4146.153809, 4209.230469, 0.000000, 8189.000000, 8171.000000, 0.000000, 0.000000, 0.000000, -21557.000000, 2.564102, 4.000000, 4.000000, 4.000000, 4.000000, 4.000000, 4.000000, 4.000000, 4.000000, 4.000000, 4.000000, 4.000000, 4.000000, 4.000000, 4.000000, 4.000000, 4.000000
49.000000, 0.000000, 4220.000000, 4222.051270, 4223.076660, 4224.102539, 4209.743652, 4199.487305, 4184.102539, 4185.127930, 4196.922852, 4129.743652, 4185.641113, 4197.948730, 4144.615234, 4204.102539, 0.000000, 8193.000000, 8167.000000, 0.000000, 0.000000, 0.000000, -21557.000000, 10.769231, 4.000000, 4.000000, 4.000000, 4.000000, 4.000000, 4.000000, 4.000000, 4.000000, 4.000000, 4.000000, 4.000000, 4.000000, 4.000000, 4.000000, 4.000000, 4.000000
50.000000, 0.000000, 4207.692383, 4213.333008, 4209.230469, 4212.820313, 4188.717773, 4191.281738, 4187.692383, 4175.897461, 4181.025391, 4123.076660, 4178.974121, 4188.717773, 4130.769043, 4202.051270, 0.000000, 8193.000000, 8167.000000, 0.000000, 0.000000, 0.000000, -21557.000000, 18.461538, 4.000000, 4.000000, 4.000000, 4.000000, 4.000000, 4.000000, 4.000000, 4.000000, 4.000000, 4.000000, 4.000000, 4.000000, 4.000000, 4.000000, 4.000000, 4.000000
51.000000, 0.000000, 4205.641113, 4209.230469, 4205.641113, 4208.205078, 4204.102539, 4198.461426, 4202.563965, 4188.717773, 4182.563965, 4135.897461, 4182.051270, 4193.333008, 4133.333008, 4201.538574, 0.000000, 8195.000000, 8163.000000, 0.000000, 0.000000, 0.000000, -21557.000000, 26.666666, 4.000000, 4.000000, 4.000000, 4.000000, 4.000000, 4.000000, 4.000000, 4.000000, 4.000000, 4.000000, 4.000000, 4.000000, 4.000000, 4.000000, 4.000000, 4.000000
52.000000, 0.000000, 4212.307617, 4216.410156, 4207.692383, 4213.846191, 4228.717773, 4208.205078, 4207.692383, 4195.384277, 4193.333008, 4145.641113, 4187.692383, 4191.794922, 4144.615234, 4201.025391, 0.000000, 8195.000000, 8163.000000, 0.000000, 0.000000, 0.000000, -21557.000000, 34.358974, 4.000000, 4.000000, 4.000000, 4.000000, 4.000000, 4.000000, 4.000000, 4.000000, 4.000000, 4.000000, 4.000000, 4.000000, 4.000000, 4.000000, 4.000000, 4.000000
53.000000, 0.000000, 4208.205078, 4222.563965, 4201.025391, 4210.769043, 4212.307617, 4206.666504, 4201.025391, 4188.717773, 4187.179199, 4140.512695, 4181.538574, 4182.563965, 4138.461426, 4201.025391, 0.000000, 8203.000000, 8165.000000, 0.000000, 0.000000, 0.000000, -21557.000000, 42.051281, 4.000000, 4.000000, 4.000000, 4.000000, 4.000000, 4.000000, 4.000000, 4.000000, 4.000000, 4.000000, 4.000000, 4.000000, 4.000000, 4.000000, 4.000000, 4.000000
54.000000, 0.000000, 4215.384277, 4217.948730, 4196.922852, 4208.717773, 4202.051270, 4201.538574, 4193.846191, 4188.717773, 4184.615234, 4146.153809, 4181.025391, 4180.000000, 4137.948730, 4198.461426, 0.000000, 8203.000000, 8165.000000, 0.000000, 0.000000, 0.000000, -21557.000000, 50.256409, 4.000000, 4.000000, 4.000000, 4.000000, 4.000000, 4.000000, 4.000000, 4.000000, 4.000000, 4.000000, 4.000000, 4.000000, 4.000000, 4.000000, 4.000000, 4.000000
55.000000, 0.000000, 4215.897461, 4212.307617, 4196.410156, 4209.230469, 4211.794922, 4203.589844, 4190.256348, 4186.153809, 4191.794922, 4147.179199, 4187.692383, 4176.922852, 4147.692383, 4202.051270, 0.000000, 8214.000000, 8168.000000, 0.000000, 0.000000, 0.000000, -21557.000000, 57.948715, 4.000000, 4.000000, 4.000000, 4.000000, 4.000000, 4.000000, 4.000000, 4.000000, 4.000000, 4.000000, 4.000000, 4.000000, 4.000000, 4.000000, 4.000000, 4.000000
56.000000, 0.000000, 4212.307617, 4216.922852, 4191.794922, 4205.641113, 4201.538574, 4203.589844, 4191.794922, 4186.666504, 4189.743652, 4135.897461, 4186.666504, 4170.256348, 4151.794922, 4205.127930, 0.000000, 8214.000000, 8168.000000, 0.000000, 0.000000, 0.000000, -21557.000000, 65.641022, 4.000000, 4.000000, 4.000000, 4.000000, 4.000000, 4.000000, 4.000000, 4.000000, 4.000000, 4.000000, 4.000000, 4.000000, 4.000000, 4.000000, 4.000000, 4.000000
57.000000, 0.000000, 4215.897461, 4220.000000, 4193.333008, 4206.153809, 4198.461426, 4200.000000, 4197.948730, 4200.000000, 4191.794922, 4144.102539, 4186.153809, 4171.794922, 4152.820313, 4206.666504, 0.000000, 8216.000000, 8167.000000, 0.000000, 0.000000, 0.000000, -21557.000000, 73.846153, 4.000000, 4.000000, 4.000000, 4.000000, 4.000000, 4.000000, 4.000000, 4.000000, 4.000000, 4.000000, 4.000000, 4.000000, 4.000000, 4.000000, 4.000000, 4.000000
58.000000, 0.000000, 4221.025391, 4217.948730, 4202.051270, 4214.871582, 4215.897461, 4197.436035, 4198.974121, 4202.563965, 4198.974121, 4161.538574, 4191.794922, 4178.974121, 4157.948730, 4207.179199, 0.000000, 8216.000000, 8167.000000, 0.000000, 0.000000, 0.000000, -21557.000000, 81.538460, 4.000000, 4.000000, 4.000000, 4.000000, 4.000000, 4.000000, 4.000000, 4.000000, 4.000000, 4.000000, 4.000000, 4.000000, 4.000000, 4.000000, 4.000000, 4.000000
59.000000, 0.000000, 4231.281738, 4222.563965, 4207.692383, 4221.025391, 4221.025391, 4199.487305, 4192.820313, 4199.487305, 4200.512695, 4167.692383, 4202.563965, 4183.589844, 4167.692383, 4203.589844, 0.000000, 8211.000000, 8165.000000, 0.000000, 0.000000, 0.000000, -21557.000000, 89.230766, 4.000000, 4.000000, 4.000000, 4.000000, 4.000000, 4.000000, 4.000000, 4.000000, 4.000000, 4.000000, 4.000000, 4.000000, 4.000000, 4.000000, 4.000000, 4.000000
60.000000, 0.000000, 4224.102539, 4224.615234, 4203.589844, 4215.897461, 4209.230469, 4202.563965, 4193.333008, 4203.589844, 4203.076660, 4168.717773, 4204.102539, 4180.000000, 4171.794922, 4204.102539, 0.000000, 8211.000000, 8165.000000, 0.000000, 0.000000, 0.000000, -21557.000000, 97.435898, 4.000000, 4.000000, 4.000000, 4.000000, 4.000000, 4.000000, 4.000000, 4.000000, 4.000000, 4.000000, 4.000000, 4.000000, 4.000000, 4.000000, 4.000000, 4.000000
61.000000, 0.000000, 4222.051270, 4223.589844, 4201.538574, 4215.384277, 4214.358887, 4204.102539, 4196.922852, 4199.487305, 4206.666504, 4167.692383, 4191.794922, 4170.256348, 4164.615234, 4202.563965, 0.000000, 8210.000000, 8163.000000, 0.000000, 0.000000, 0.000000, -21557.000000, 105.128204, 4.000000, 4.000000, 4.000000, 4.000000, 4.000000, 4.000000, 4.000000, 4.000000, 4.000000, 4.000000, 4.000000, 4.000000, 4.000000, 4.000000, 4.000000, 4.000000
62.000000, 0.000000, 4228.717773, 4225.641113, 4200.512695, 4217.436035, 4221.538574, 4202.563965, 4195.384277, 4197.436035, 4202.051270, 4156.410156, 4187.179199, 4168.717773, 4157.948730, 4200.512695, 0.000000, 8210.000000, 8163.000000, 0.000000, 0.000000, 0.000000, -21557.000000, 112.820511, 4.000000, 4.000000, 4.000000, 4.000000, 4.000000, 4.000000, 4.000000, 4.000000, 4.000000, 4.000000, 4.000000, 4.000000, 4.000000, 4.000000, 4.000000, 4.000000
63.000000, 0.000000, 4221.025391, 4224.615234, 4198.461426, 4214.871582, 4202.563965, 4199.487305, 4193.846191, 4209.743652, 4204.102539, 4154.871582, 4196.410156, 4175.384277, 4160.512695, 4203.589844, 0.000000, 8210.000000, 8171.000000, 0.000000, 0.000000, 0.000000, -21557.000000, 121.025635, 4.000000, 4.000000, 4.000000, 4.000000, 4.000000, 4.000000, 4.000000, 4.000000, 4.000000, 4.000000, 4.000000, 4.000000, 4.000000, 4.000000, 4.000000, 4.000000
64.000000, 0.000000, 4218.974121, 4222.563965, 4200.512695, 4213.333008, 4193.333008, 4202.563965, 4200.000000, 4217.436035, 4214.358887, 4173.846191, 4197.436035, 4177.948730, 4166.666504, 4198.974121, 3353.000000, 8210.000000, 8171.000000, 0.000000, 0.000000, 0.000000, -21557.000000, 128.717941, 4.000000, 4.000000, 4.000000, 4.000000, 4.000000, 4.000000, 4.000000, 4.000000, 4.000000, 4.000000, 4.000000, 4.000000, 4.000000, 4.000000, 4.000000, 4.000000
65.000000, 0.000000, 4219.487305, 4224.102539, 4204.102539, 4214.358887, 4209.743652, 4205.127930, 4205.127930, 4222.051270, 4217.436035, 4185.127930, 4193.846191, 4180.512695, 4171.281738, 4200.512695, 3507.000000, 8218.000000, 8184.000000, 0.000000, 0.000000, 0.000000, -21557.000000, 136.923080, 4.000000, 4.000000, 4.000000, 4.000000, 4.000000, 4.000000, 4.000000, 4.000000, 4.000000, 4.000000, 4.000000, 4.000000, 4.000000, 4.000000, 4.000000, 4.000000
66.000000, 0.000000, 4221.538574, 4225.641113, 4206.153809, 4217.436035, 4224.102539, 4205.127930, 4200.512695, 4231.794922, 4226.153809, 4181.025391, 4201.025391, 4185.127930, 4175.384277, 4205.641113, 2633.000000, 8218.000000, 8184.000000, 0.000000, 0.000000, 0.000000, -21557.000000, 144.615387, 4.000000, 4.000000, 4.000000, 4.000000, 4.000000, 4.000000, 4.000000, 4.000000, 4.000000, 4.000000, 4.000000, 4.000000, 4.000000, 4.000000, 4.000000, 4.000000
67.000000, 0.000000, 4221.025391, 4224.615234, 4204.102539, 4217.436035, 4217.436035, 4208.717773, 4191.281738, 4224.102539, 4226.666504, 4174.871582, 4201.538574, 4179.487305, 4175.384277, 4202.563965, 2068.000000, 8219.000000, 8184.000000, 0.000000, 0.000000, 0.000000, -21557.000000, 152.820511, 4.000000, 4.000000, 4.000000, 4.000000, 4.000000, 4.000000, 4.000000, 4.000000, 4.000000, 4.000000, 4.000000, 4.000000, 4.000000, 4.000000, 4.000000, 4.000000
68.000000, 0.000000, 4212.307617, 4223.076660, 4198.461426, 4213.846191, 4213.333008, 4201.538574, 4185.641113, 4195.384277, 4206.153809, 4167.692383, 4186.666504, 4171.281738, 4166.666504, 4201.538574, 3538.000000, 8219.000000, 8184.000000, 0.000000, 0.000000, 0.000000, -21557.000000, 160.512817, 4.000000, 4.000000, 4.000000, 4.000000, 4.000000, 4.000000, 4.000000, 4.000000, 4.000000, 4.000000, 4.000000, 4.000000, 4.000000, 4.000000, 4.000000, 4.000000
69.000000, 0.000000, 4215.897461, 4224.615234, 4199.487305, 4215.384277, 4216.922852, 4191.281738, 4180.000000, 4188.717773, 4197.948730, 4165.127930, 4181.538574, 4174.871582, 4160.000000, 4202.563965, 3545.000000, 8211.000000, 8194.000000, 0.000000, 0.000000, 0.000000, -21557.000000, 168.717941, 4.000000, 4.000000, 4.000000, 4.000000, 4.000000, 4.000000, 4.000000, 4.000000, 4.000000, 4.000000, 4.000000, 4.000000, 4.000000, 4.000000, 4.000000, 4.000000
70.000000, 0.000000, 4214.358887, 4222.051270, 4202.563965, 4216.922852, 4202.051270, 4196.410156, 4175.384277, 4193.846191, 4197.948730, 4171.281738, 4188.205078, 4178.974121, 4158.974121, 4206.666504, 3065.000000, 8211.000000, 8194.000000, 0.000000, 0.000000, 0.000000, -21557.000000, 176.410248, 4.000000, 4.000000, 4.000000, 4.000000, 4.000000, 4.000000, 4.000000, 4.000000, 4.000000, 4.000000, 4.000000, 4.000000, 4.000000, 4.000000, 4.000000, 4.000000
71.000000, 0.000000, 4211.281738, 4221.025391, 4194.871582, 4208.717773, 4187.179199, 4202.563965, 4176.410156, 4172.820313, 4170.769043, 4170.256348, 4186.153809, 4172.307617, 4156.410156, 4205.127930, 3511.000000, 8213.000000, 8195.000000, 0.000000, 0.000000, 0.000000, -21557.000000, 184.102554, 4.000000, 4.000000, 4.000000, 4.000000, 4.000000, 4.000000, 4.000000, 4.000000, 4.000000, 4.000000, 4.000000, 4.000000, 4.000000, 4.000000, 4.000000, 4.000000
72.000000, 0.000000, 4218.461426, 4221.538574, 4191.281738, 4203.076660, 4198.461426, 4199.487305, 4177.948730, 4166.666504, 4162.563965, 4160.000000, 4184.615234, 4170.256348, 4158.461426, 4201.538574, 3517.000000, 8213.000000, 8195.000000, 0.000000, 0.000000, 0.000000, -21557.000000, 191.794861, 4.000000, 4.000000, 4.000000, 4.000000, 4.000000, 4.000000, 4.000000, 4.000000, 4.000000, 4.000000, 4.000000, 4.000000, 4.000000, 4.000000, 4.000000, 4.000000
73.000000, 0.000000, 4214.871582, 4220.000000, 4193.333008, 4205.641113, 4208.717773, 4195.897461, 4174.871582, 4189.230469, 4188.205078, 4151.794922, 4187.179199, 4173.846191, 4160.000000, 4203.076660, 3538.000000, 8206.000000, 8176.000000, 0.000000, 0.000000, 0.000000, -21557.000000, 200.000000, 4.000000, 4.000000, 4.000000, 4.000000, 4.000000, 4.000000, 4.000000, 4.000000, 4.000000, 4.000000, 4.000000, 4.000000, 4.000000, 4.000000, 4.000000, 4.000000
74.000000, 0.000000, 4211.794922, 4217.948730, 4191.794922, 4205.127930, 4199.487305, 4192.307617, 4171.794922, 4186.153809, 4192.307617, 4152.307617, 4182.051270, 4169.230469, 4153.846191, 4200.000000, 3548.000000, 8206.000000, 8176.000000, 0.000000, 0.000000, 0.000000, -21557.000000, 208.205124, 4.000000, 4.000000, 4.000000, 4.000000, 4.000000, 4.000000, 4.000000, 4.000000, 4.000000, 4.000000, 4.000000, 4.000000, 4.000000, 4.000000, 4.000000, 4.000000
75.000000, 0.000000, 4211.281738, 4217.948730, 4191.281738, 4201.538574, 4197.948730, 4191.794922, 4177.948730, 4171.281738, 4182.051270, 4156.410156, 4181.538574, 4168.205078, 4155.384277, 4201.025391, 837.000000, 8204.000000, 8174.000000, 0.000000, 0.000000, 0.000000, -21557.000000, 215.897430, 4.000000, 4.000000, 4.000000, 4.000000, 4.000000, 4.000000, 4.000000, 4.000000, 4.000000, 4.000000, 4.000000, 4.000000, 4.000000, 4.000000, 4.000000, 4.000000
76.000000, 0.000000, 4210.769043, 4220.512695, 4191.794922, 4203.589844, 4197.948730, 4197.436035, 4183.589844, 4180.000000, 4182.051270, 4146.666504, 4184.102539, 4169.230469, 4158.974121, 4204.615234, 3481.000000, 8204.000000, 8174.000000, 0.000000, 0.000000, 0.000000, -21557.000000, 223.589737, 4.000000, 4.000000, 4.000000, 4.000000, 4.000000, 4.000000, 4.000000, 4.000000, 4.000000, 4.000000, 4.000000, 4.000000, 4.000000, 4.000000, 4.000000, 4.000000
77.000000, 0.000000, 4213.333008, 4216.922852, 4187.692383, 4204.615234, 4188.717773, 4197.436035, 4181.538574, 4186.666504, 4181.025391, 4137.436035, 4179.487305, 4160.512695, 4156.410156, 4202.563965, 3418.000000, 8198.000000, 8175.000000, 0.000000, 0.000000, 0.000000, -21557.000000, 231.794861, 4.000000, 4.000000, 4.000000, 4.000000, 4.000000, 4.000000, 4.000000, 4.000000, 4.000000, 4.000000, 4.000000, 4.000000, 4.000000, 4.000000, 4.000000, 4.000000
78.000000, 0.000000, 4210.769043, 4213.846191, 4183.076660, 4201.025391, 4197.436035, 4198.461426, 4188.205078, 4187.692383, 4182.563965, 4143.589844, 4178.461426, 4158.461426, 4159.487305, 4205.641113, 3548.000000, 8198.000000, 8175.000000, 0.000000, 0.000000, 0.000000, -21557.000000, 239.487167, 4.000000, 4.000000, 4.000000, 4.000000, 4.000000, 4.000000, 4.000000, 4.000000, 4.000000, 4.000000, 4.000000, 4.000000, 4.000000, 4.000000, 4.000000, 4.000000
79.000000, 0.000000, 4213.333008, 4216.922852, 4184.615234, 4202.051270, 4207.179199, 4204.615234, 4194.871582, 4196.410156, 4188.717773, 4149.230469, 4184.615234, 4164.615234, 4165.127930, 4202.563965, 837.000000, 8191.000000, 8184.000000, 0.000000, 0.000000, 0.000000, -21557.000000, 247.692307, 4.000000, 4.000000, 4.000000, 4.000000, 4.000000, 4.000000, 4.000000, 4.000000, 4.000000, 4.000000, 4.000000, 4.000000, 4.000000, 4.000000, 4.000000, 4.000000
80.000000, 0.000000, 4213.333008, 4214.871582, 4189.230469, 4206.153809, 4201.025391, 4201.538574, 4190.769043, 4190.256348, 4182.051270, 4155.384277, 4190.256348, 4171.281738, 4169.743652, 4201.538574, 3481.000000, 8191.000000, 8184.000000, 0.000000, 0.000000, 0.000000, -21557.000000, 255.384613, 4.000000, 4.000000, 4.000000, 4.000000, 4.000000, 4.000000, 4.000000, 4.000000, 4.000000, 4.000000, 4.000000, 4.000000, 4.000000, 4.000000, 4.000000, 4.000000
81.000000, 0.000000, 4217.948730, 4215.384277, 4195.384277, 4212.307617, 4204.102539, 4197.948730, 4193.846191, 4186.153809, 4185.127930, 4169.230469, 4195.897461, 4181.025391, 4178.461426, 4208.205078, 3418.000000, 8193.000000, 8180.000000, 0.000000, 0.000000, 0.000000, -21557.000000, 263.076904, 4.000000, 4.000000, 4.000000, 4.000000, 4.000000, 4.000000, 4.000000, 4.000000, 4.000000, 4.000000, 4.000000, 4.000000, 4.000000, 4.000000, 4.000000, 4.000000
82.000000, 0.000000, 4227.692383, 4217.948730, 4198.461426, 4215.384277, 4202.051270, 4200.512695, 4203.589844, 4201.025391, 4201.538574, 4168.717773, 4201.025391, 4186.666504, 4182.563965, 4205.127930, 3548.000000, 8193.000000, 8180.000000, 0.000000, 0.000000, 0.000000, -21557.000000, 271.282043, 4.000000, 4.000000, 4.000000, 4.000000, 4.000000, 4.000000, 4.000000, 4.000000, 4.000000, 4.000000, 4.000000, 4.000000, 4.000000, 4.000000, 4.000000, 4.000000
83.000000, 0.000000, 4222.051270, 4214.871582, 4195.384277, 4213.333008, 4183.589844, 4198.974121, 4201.025391, 4210.256348, 4203.076660, 4160.512695, 4206.153809, 4187.692383, 4179.487305, 4205.127930, 837.000000, 8191.000000, 8181.000000, 0.000000, 0.000000, 0.000000, -21557.000000, 278.974365, 4.000000, 4.000000, 4.000000, 4.000000, 4.000000, 4.000000, 4.000000, 4.000000, 4.000000, 4.000000, 4.000000, 4.000000, 4.000000, 4.000000, 4.000000, 4.000000
84.000000, 0.000000, 4227.692383, 4215.384277, 4199.487305, 4215.897461, 4193.846191, 4200.512695, 4194.358887, 4207.692383, 4203.589844, 4176.410156, 4214.358887, 4195.384277, 4188.717773, 4205.641113, 3481.000000, 8191.000000, 8181.000000, 0.000000, 0.000000, 0.000000, -21557.000000, 286.666656, 4.000000, 4.000000, 4.000000, 4.000000, 4.000000, 4.000000, 4.000000, 4.000000, 4.000000, 4.000000, 4.000000, 4.000000, 4.000000, 4.000000, 4.000000, 4.000000
85.000000, 0.000000, 4240.512695, 4225.127930, 4212.307617, 4226.153809, 4224.102539, 4213.846191, 4203.589844, 4216.410156, 4222.051270, 4203.076660, 4224.102539, 4207.692383, 4205.641113, 4204.615234, 3418.000000, 8194.000000, 8184.000000, 0.000000, 0.000000, 0.000000, -21557.000000, 294.871796, 4.000000, 4.000000, 4.000000, 4.000000, 4.000000, 4.000000, 4.000000, 4.000000, 4.000000, 4.000000, 4.000000, 4.000000, 4.000000, 4.000000, 4.000000, 4.000000
86.000000, 0.000000, 4237.436035, 4227.179199, 4215.384277, 4226.153809, 4222.051270, 4222.051270, 4213.333008, 4229.743652, 4230.256348, 4203.076660, 4223.076660, 4209.230469, 4206.153809, 4208.717773, 3548.000000, 8194.000000, 8184.000000, 0.000000, 0.000000, 0.000000, -21557.000000, 302.564087, 4.000000, 4.000000, 4.000000, 4.000000, 4.000000, 4.000000, 4.000000, 4.000000, 4.000000, 4.000000, 4.000000, 4.000000, 4.000000, 4.000000, 4.000000, 4.000000
87.000000, 0.000000, 4233.846191, 4218.974121, 4205.127930, 4214.871582, 4202.563965, 4210.256348, 4202.563965, 4216.410156, 4210.769043, 4184.615234, 4209.230469, 4198.461426, 4192.820313, 4205.641113, 837.000000, 8201.000000, 8180.000000, 0.000000, 0.000000, 0.000000, -21557.000000, 310.769226, 4.000000, 4.000000, 4.000000, 4.000000, 4.000000, 4.000000, 4.000000, 4.000000, 4.000000, 4.000000, 4.000000, 4.000000, 4.000000, 4.000000, 4.000000, 4.000000
88.000000, 0.000000, 4227.692383, 4213.333008, 4199.487305, 4213.333008, 4196.922852, 4196.410156, 4191.281738, 4196.410156, 4198.461426, 4185.127930, 4201.538574, 4194.358887, 4185.641113, 4202.051270, 3481.000000, 8201.000000, 8180.000000, 0.000000, 0.000000, 0.000000, -21557.000000, 318.461517, 4.000000, 4.000000, 4.000000, 4.000000, 4.000000, 4.000000, 4.000000, 4.000000, 4.000000, 4.000000, 4.000000, 4.000000, 4.000000, 4.000000, 4.000000, 4.000000
89.000000, 0.000000, 4232.307617, 4211.794922, 4205.641113, 4216.410156, 4202.563965, 4196.922852, 4195.384277, 4204.102539, 4207.692383, 4202.563965, 4205.641113, 4197.948730, 4187.179199, 4202.051270, 3418.000000, 8215.000000, 8175.000000, 0.000000, 0.000000, 0.000000, -21557.000000, 326.666656, 4.000000, 4.000000, 4.000000, 4.000000, 4.000000, 4.000000, 4.000000, 4.000000, 4.000000, 4.000000, 4.000000, 4.000000, 4.000000, 4.000000, 4.000000, 4.000000
90.000000, 0.000000, 4235.897461, 4213.333008, 4205.127930, 4209.743652, 4206.666504, 4205.641113, 4204.102539, 4216.922852, 4209.230469, 4204.615234, 4206.153809, 4200.512695, 4189.743652, 4203.589844, 3548.000000, 8215.000000, 8175.000000, 0.000000, 0.000000, 0.000000, -21557.000000, 334.358978, 4.000000, 4.000000, 4.000000, 4.000000, 4.000000, 4.000000, 4.000000, 4.000000, 4.000000, 4.000000, 4.000000, 4.000000, 4.000000, 4.000000, 4.000000, 4.000000
91.000000, 0.000000, 4230.256348, 4214.358887, 4197.436035, 4205.127930, 4204.102539, 4200.512695, 4198.974121, 4205.127930, 4200.000000, 4188.717773, 4201.025391, 4197.436035, 4189.743652, 4205.641113, 837.000000, 8218.000000, 8176.000000, 0.000000, 0.000000, 0.000000, -21557.000000, 342.051270, 4.000000, 4.000000, 4.000000, 4.000000, 4.000000, 4.000000, 4.000000, 4.000000, 4.000000, 4.000000, 4.000000, 4.000000, 4.000000, 4.000000, 4.000000, 4.000000
92.000000, 0.000000, 4237.436035, 4217.948730, 4200.512695, 4209.743652, 4194.871582, 4186.666504, 4187.692383, 4190.256348, 4197.436035, 4183.076660, 4202.563965, 4193.846191, 4192.820313, 4199.487305, 3481.000000, 8218.000000, 8176.000000, 0.000000, 0.000000, 0.000000, -21557.000000, 350.256409, 4.000000, 4.000000, 4.000000, 4.000000, 4.000000, 4.000000, 4.000000, 4.000000, 4.000000, 4.000000, 4.000000, 4.000000, 4.000000, 4.000000, 4.000000, 4.000000
93.000000, 0.000000, 4242.051270, 4221.025391, 4208.717773, 4213.846191, 4198.974121, 4188.205078, 4188.205078, 4193.333008, 4195.384277, 4192.307617, 4203.589844, 4196.922852, 4197.948730, 4198.461426, 3418.000000, 8222.000000, 8171.000000, 0.000000, 0.000000, 0.000000, -21557.000000, 357.948700, 4.000000, 4.000000, 4.000000, 4.000000, 4.000000, 4.000000, 4.000000, 4.000000, 4.000000, 4.000000, 4.000000, 4.000000, 4.000000, 4.000000, 4.000000, 4.000000
94.000000, 0.000000, 4245.127930, 4223.076660, 4209.743652, 4212.820313, 4208.717773, 4198.461426, 4192.307617, 4194.358887, 4186.153809, 4196.410156, 4200.000000, 4197.436035, 4193.333008, 4201.538574, 3548.000000, 8222.000000, 8171.000000, 0.000000, 0.000000, 0.000000, -21557.000000, 365.641022, 4.000000, 4.000000, 4.000000, 4.000000, 4.000000, 4.000000, 4.000000, 4.000000, 4.000000, 4.000000, 4.000000, 4.000000, 4.000000, 4.000000, 4.000000, 4.000000
95.000000, 0.000000, 4246.153809, 4221.025391, 4203.589844, 4206.666504, 4196.922852, 4193.333008, 4189.230469, 4186.666504, 4184.615234, 4188.717773, 4198.461426, 4193.333008, 4186.666504, 4201.538574, 837.000000, 8227.000000, 8168.000000, 0.000000, 0.000000, 0.000000, -21557.000000, 373.846130, 4.000000, 4.000000, 4.000000, 4.000000, 4.000000, 4.000000, 4.000000, 4.000000, 4.000000, 4.000000, 4.000000, 4.000000, 4.000000, 4.000000, 4.000000, 4.000000
96.000000, 0.000000, 4238.974121, 4217.436035, 4198.974121, 4202.051270, 4188.205078, 4182.051270, 4182.563965, 4180.000000, 4191.281738, 4187.179199, 4198.974121, 4188.205078, 4192.307617, 4198.974121, 3481.000000, 8227.000000, 8168.000000, 0.000000, 0.000000, 0.000000, -21557.000000, 381.538452, 4.000000, 4.000000, 4.000000, 4.000000, 4.000000, 4.000000, 4.000000, 4.000000, 4.000000, 4.000000, 4.000000, 4.000000, 4.000000, 4.000000, 4.000000, 4.000000
97.000000, 0.000000, 4245.127930, 4223.076660, 4203.589844, 4209.743652, 4207.692383, 4190.769043, 4181.025391, 4184.615234, 4192.820313, 4200.000000, 4202.051270, 4186.666504, 4201.025391, 4196.922852, 3418.000000, 8223.000000, 8171.000000, 0.000000, 0.000000, 0.000000, -21557.000000, 389.230774, 4.000000, 4.000000, 4.000000, 4.000000, 4.000000, 4.000000, 4.000000, 4.000000, 4.000000, 4.000000, 4.000000, 4.000000, 4.000000, 4.000000, 4.000000, 4.000000
98.000000, 0.000000, 4244.615234, 4223.076660, 4206.666504, 4215.897461, 4222.051270, 4200.512695, 4186.153809, 4193.333008, 4185.127930, 4205.127930, 4201.025391, 4187.179199, 4195.384277, 4200.000000, 3548.000000, 8223.000000, 8171.000000, 0.000000, 0.000000, 0.000000, -21557.000000, 397.435883, 4.000000, 4.000000, 4.000000, 4.000000, 4.000000, 4.000000, 4.000000, 4.000000, 4.000000, 4.000000, 4.000000, 4.000000, 4.000000, 4.000000, 4.000000, 4.000000
99.000000, 0.000000, 4242.563965, 4220.000000, 4203.076660, 4215.897461, 4214.871582, 4200.000000, 4192.820313, 4199.487305, 4184.615234, 4198.461426, 4194.871582, 4184.615234, 4187.179199, 4197.948730, 837.000000, 8225.000000, 8169.000000, 0.000000, 0.000000, 0.000000, -21557.000000, 405.128204, 4.000000, 4.000000, 4.000000, 4.000000, 4.000000, 4.000000, 4.000000, 4.000000, 4.000000, 4.000000, 4.000000, 4.000000, 4.000000, 4.000000, 4.000000, 4.000000
100.000000, 0.000000, 4250.769043, 4225.127930, 4202.051270, 4218.974121, 4219.487305, 4207.179199, 4201.538574, 4211.794922, 4200.000000, 4201.025391, 4200.512695, 4188.205078, 4198.461426, 4197.948730, 3481.000000, 8225.000000, 8169.000000, 0.000000, 0.000000, 0.000000, -21557.000000, 412.820496, 4.000000, 4.000000, 4.000000, 4.000000, 4.000000, 4.000000, 4.000000, 4.000000, 4.000000, 4.000000, 4.000000, 4.000000, 4.000000, 4.000000, 4.000000, 4.000000
101.000000, 0.000000, 4246.666504, 4224.102539, 4198.461426, 4214.358887, 4222.563965, 4212.307617, 4205.127930, 4212.307617, 4209.743652, 4209.230469, 4203.589844, 4192.307617, 4203.076660, 4204.102539, 3418.000000, 8231.000000, 8172.000000, 0.000000, 0.000000, 0.000000, -21557.000000, 420.512817, 4.000000, 4.000000, 4.000000, 4.000000, 4.000000, 4.000000, 4.000000, 4.000000, 4.000000, 4.000000, 4.000000, 4.000000, 4.000000, 4.000000, 4.000000, 4.000000
102.000000, 0.000000, 4241.025391, 4214.358887, 4190.256348, 4199.487305, 4192.307617, 4200.000000, 4194.358887, 4194.358887, 4197.948730, 4203.076660, 4186.153809, 4178.974121, 4185.641113, 4194.871582, 3548.000000, 8231.000000, 8172.000000, 0.000000, 0.000000, 0.000000, -21557.000000, 428.717926, 4.000000, 4.000000, 4.000000, 4.000000, 4.000000, 4.000000, 4.000000, 4.000000, 4.000000, 4.000000, 4.000000, 4.000000, 4.000000, 4.000000, 4.000000, 4.000000
103.000000, 0.000000, 4239.487305, 4210.256348, 4190.769043, 4196.410156, 4178.461426, 4195.384277, 4188.717773, 4183.589844, 4186.666504, 4189.743652, 4180.000000, 4163.589844, 4175.897461, 4193.333008, 837.000000, 8237.000000, 8185.000000, 0.000000, 0.000000, 0.000000, -21557.000000, 436.923065, 4.000000, 4.000000, 4.000000, 4.000000, 4.000000, 4.000000, 4.000000, 4.000000, 4.000000, 4.000000, 4.000000, 4.000000, 4.000000, 4.000000, 4.000000, 4.000000
104.000000, 0.000000, 4246.666504, 4218.461426, 4201.538574, 4207.179199, 4210.769043, 4212.307617, 4196.922852, 4191.281738, 4189.230469, 4192.307617, 4191.281738, 4169.743652, 4183.076660, 4202.051270, 3481.000000, 8237.000000, 8185.000000, 0.000000, 0.000000, 0.000000, -21557.000000, 444.615387, 4.000000, 4.000000, 4.000000, 4.000000, 4.000000, 4.000000, 4.000000, 4.000000, 4.000000, 4.000000, 4.000000, 4.000000, 4.000000, 4.000000, 4.000000, 4.000000
105.000000, 0.000000, 4255.897461, 4220.000000, 4205.641113, 4212.820313, 4236.922852, 4220.512695, 4201.025391, 4199.487305, 4191.794922, 4207.692383, 4191.794922, 4183.589844, 4188.205078, 4201.538574, 3418.000000, 8247.000000, 8193.000000, 0.000000, 0.000000, 0.000000, -21557.000000, 452.307678, 4.000000, 4.000000, 4.000000, 4.000000, 4.000000, 4.000000, 4.000000, 4.000000, 4.000000, 4.000000, 4.000000, 4.000000, 4.000000, 4.000000, 4.000000, 4.000000
106.000000, 0.000000, 4252.307617, 4215.384277, 4198.461426, 4213.333008, 4224.102539, 4217.948730, 4205.127930, 4198.974121, 4187.692383, 4204.102539, 4188.717773, 4183.589844, 4188.717773, 4200.000000, 3548.000000, 8247.000000, 8193.000000, 0.000000, 0.000000, 0.000000, -21557.000000, 460.512817, 4.000000, 4.000000, 4.000000, 4.000000, 4.000000, 4.000000, 4.000000, 4.000000, 4.000000, 4.000000, 4.000000, 4.000000, 4.000000, 4.000000, 4.000000, 4.000000
107.000000, 0.000000, 4254.358887, 4217.948730, 4202.051270, 4217.948730, 4203.589844, 4217.436035, 4210.769043, 4198.461426, 4185.641113, 4193.333008, 4194.871582, 4182.563965, 4193.333008, 4195.897461, 837.000000, 8261.000000, 8202.000000, 0.000000, 0.000000, 0.000000, -21557.000000, 468.205109, 4.000000, 4.000000, 4.000000, 4.000000, 4.000000, 4.000000, 4.000000, 4.000000, 4.000000, 4.000000, 4.000000, 4.000000, 4.000000, 4.000000, 4.000000, 4.000000
108.000000, 0.000000, 4255.897461, 4222.563965, 4210.769043, 4220.000000, 4208.205078, 4209.743652, 4204.615234, 4201.538574, 4197.948730, 4211.281738, 4197.948730, 4187.179199, 4195.897461, 4197.436035, 3481.000000, 8261.000000, 8202.000000, 0.000000, 0.000000, 0.000000, -21557.000000, 475.897430, 4.000000, 4.000000, 4.000000, 4.000000, 4.000000, 4.000000, 4.000000, 4.000000, 4.000000, 4.000000, 4.000000, 4.000000, 4.000000, 4.000000, 4.000000, 4.000000
109.000000, 0.000000, 4255.897461, 4222.051270, 4209.743652, 4218.461426, 4221.538574, 4204.615234, 4195.384277, 4204.615234, 4203.076660, 4229.230469, 4197.948730, 4188.717773, 4192.820313, 4201.538574, 3418.000000, 8274.000000, 8200.000000, 0.000000, 0.000000, 0.000000, -21557.000000, 483.589722, 4.000000, 4.000000, 4.000000, 4.000000, 4.000000, 4.000000, 4.000000, 4.000000, 4.000000, 4.000000, 4.000000, 4.000000, 4.000000, 4.000000, 4.000000, 4.000000
110.000000, 0.000000, 4261.025391, 4218.461426, 4208.205078, 4218.461426, 4221.538574, 4205.641113, 4197.436035, 4201.538574, 4189.743652, 4227.692383, 4203.589844, 4186.666504, 4197.436035, 4197.436035, 3548.000000, 8274.000000, 8200.000000, 0.000000, 0.000000, 0.000000, -21557.000000, 491.794861, 4.000000, 4.000000, 4.000000, 4.000000, 4.000000, 4.000000, 4.000000, 4.000000, 4.000000, 4.000000, 4.000000, 4.000000, 4.000000, 4.000000, 4.000000, 4.000000
111.000000, 0.000000, 4257.948730, 4221.025391, 4207.692383, 4217.436035, 4209.743652, 4203.589844, 4197.436035, 4197.948730, 4186.666504, 4229.743652, 4205.127930, 4190.256348, 4204.102539, 4201.538574, 837.000000, 8284.000000, 8203.000000, 0.000000, 0.000000, 0.000000, -21557.000000, 499.487152, 4.000000, 4.000000, 4.000000, 4.000000, 4.000000, 4.000000, 4.000000, 4.000000, 4.000000, 4.000000, 4.000000, 4.000000, 4.000000, 4.000000, 4.000000, 4.000000
112.000000, 0.000000, 4254.871582, 4223.076660, 4201.538574, 4212.307617, 4205.127930, 4203.076660, 4194.358887, 4203.076660, 4196.922852, 4228.717773, 4200.000000, 4194.871582, 4199.487305, 4202.563965, 3481.000000, 8284.000000, 8203.000000, 0.000000, 0.000000, 0.000000, -21557.000000, 507.179474, 4.000000, 4.000000, 4.000000, 4.000000, 4.000000, 4.000000, 4.000000, 4.000000, 4.000000, 4.000000, 4.000000, 4.000000, 4.000000, 4.000000, 4.000000, 4.000000
