title:neutral36, recorded:23.05.18 21.30.08, timestamp started:2018-05-23T14:18:30.888274+02:00            , sampling:128, subject:Noé, labels:COUNTER INTERPOLATED AF3 F7 F3 FC5 T7 P7 O1 O2 P8 T8 FC6 F4 F8 AF4 RAW_CQ GYROX GYROY MARKER MARKER_HARDWARE SYNC TIME_STAMP_s TIME_STAMP_ms CQ_AF3 CQ_F7 CQ_F3 CQ_FC5 CQ_T7 CQ_P7 CQ_O1 CQ_O2 CQ_P8 CQ_T8 CQ_FC6 CQ_F4 CQ_F8 CQ_AF4 CQ_CMS CQ_DRL, chan:40, samples:2597, units:emotiv
53.000000, 0.000000, 4209.230469, 4220.512695, 4219.487305, 4205.641113, 4206.666504, 4203.589844, 4195.384277, 4208.717773, 4223.076660, 4209.743652, 4188.205078, 4202.051270, 4152.820313, 4189.743652, 0.000000, 8190.000000, 8095.000000, 0.000000, 0.000000, 0.000000, 25898.000000, 233.333328, 4.000000, 4.000000, 4.000000, 4.000000, 4.000000, 4.000000, 4.000000, 4.000000, 4.000000, 4.000000, 4.000000, 4.000000, 4.000000, 4.000000, 4.000000, 4.000000
54.000000, 0.000000, 4201.538574, 4217.948730, 4214.358887, 4207.179199, 4200.512695, 4200.512695, 4204.615234, 4208.717773, 4216.410156, 4209.230469, 4185.127930, 4201.538574, 4144.615234, 4187.692383, 0.000000, 8190.000000, 8095.000000, 0.000000, 0.000000, 0.000000, 25898.000000, 241.025635, 4.000000, 4.000000, 4.000000, 4.000000, 4.000000, 4.000000, 4.000000, 4.000000, 4.000000, 4.000000, 4.000000, 4.000000, 4.000000, 4.000000, 4.000000, 4.000000
55.000000, 0.000000, 4195.384277, 4206.666504, 4211.281738, 4205.127930, 4198.974121, 4204.615234, 4214.871582, 4217.436035, 4217.436035, 4205.127930, 4177.948730, 4200.512695, 4132.307617, 4181.538574, 0.000000, 8201.000000, 8097.000000, 0.000000, 0.000000, 0.000000, 25898.000000, 249.230759, 4.000000, 4.000000, 4.000000, 4.000000, 4.000000, 4.000000, 4.000000, 4.000000, 4.000000, 4.000000, 4.000000, 4.000000, 4.000000, 4.000000, 4.000000, 4.000000
56.000000, 0.000000, 4195.897461, 4197.948730, 4215.897461, 4201.025391, 4204.102539, 4216.922852, 4224.615234, 4221.025391, 4226.666504, 4205.127930, 4173.333008, 4201.025391, 4127.692383, 4172.307617, 0.000000, 8201.000000, 8097.000000, 0.000000, 0.000000, 0.000000, 25898.000000, 256.923065, 4.000000, 4.000000, 4.000000, 4.000000, 4.000000, 4.000000, 4.000000, 4.000000, 4.000000, 4.000000, 4.000000, 4.000000, 4.000000, 4.000000, 4.000000, 4.000000
57.000000, 0.000000, 4197.436035, 4203.589844, 4211.281738, 4203.076660, 4196.410156, 4205.641113, 4218.461426, 4204.615234, 4223.589844, 4207.179199, 4174.358887, 4194.871582, 4133.846191, 4170.256348, 0.000000, 8205.000000, 8099.000000, 0.000000, 0.000000, 0.000000, 25898.000000, 264.615387, 4.000000, 4.000000, 4.000000, 4.000000, 4.000000, 4.000000, 4.000000, 4.000000, 4.000000, 4.000000, 4.000000, 4.000000, 4.000000, 4.000000, 4.000000, 4.000000
58.000000, 0.000000, 4193.846191, 4211.794922, 4200.000000, 4200.512695, 4187.692383, 4196.922852, 4204.102539, 4186.666504, 4214.871582, 4206.153809, 4176.922852, 4182.051270, 4140.512695, 4171.794922, 0.000000, 8205.000000, 8099.000000, 0.000000, 0.000000, 0.000000, 25898.000000, 272.820496, 4.000000, 4.000000, 4.000000, 4.000000, 4.000000, 4.000000, 4.000000, 4.000000, 4.000000, 4.000000, 4.000000, 4.000000, 4.000000, 4.000000, 4.000000, 4.000000
59.000000, 0.000000, 4188.717773, 4209.743652, 4196.922852, 4201.538574, 4196.410156, 4209.743652, 4204.102539, 4188.717773, 4215.384277, 4204.615234, 4176.410156, 4179.487305, 4137.948730, 4168.205078, 0.000000, 8216.000000, 8098.000000, 0.000000, 0.000000, 0.000000, 25898.000000, 280.512817, 4.000000, 4.000000, 4.000000, 4.000000, 4.000000, 4.000000, 4.000000, 4.000000, 4.000000, 4.000000, 4.000000, 4.000000, 4.000000, 4.000000, 4.000000, 4.000000
60.000000, 0.000000, 4188.717773, 4208.205078, 4201.025391, 4202.563965, 4206.153809, 4218.974121, 4210.256348, 4206.666504, 4220.512695, 4208.717773, 4176.922852, 4186.153809, 4141.538574, 4170.256348, 0.000000, 8216.000000, 8098.000000, 0.000000, 0.000000, 0.000000, 25898.000000, 288.205109, 4.000000, 4.000000, 4.000000, 4.000000, 4.000000, 4.000000, 4.000000, 4.000000, 4.000000, 4.000000, 4.000000, 4.000000, 4.000000, 4.000000, 4.000000, 4.000000
61.000000, 0.000000, 4190.256348, 4214.871582, 4204.102539, 4203.589844, 4202.051270, 4213.846191, 4207.692383, 4202.563965, 4219.487305, 4208.205078, 4181.025391, 4184.102539, 4154.871582, 4175.384277, 0.000000, 8221.000000, 8099.000000, 0.000000, 0.000000, 0.000000, 25898.000000, 296.410248, 4.000000, 4.000000, 4.000000, 4.000000, 4.000000, 4.000000, 4.000000, 4.000000, 4.000000, 4.000000, 4.000000, 4.000000, 4.000000, 4.000000, 4.000000, 4.000000
62.000000, 0.000000, 4187.179199, 4213.846191, 4198.461426, 4203.589844, 4198.461426, 4201.025391, 4194.358887, 4175.897461, 4212.820313, 4201.025391, 4175.384277, 4178.461426, 4151.281738, 4171.794922, 0.000000, 8221.000000, 8099.000000, 0.000000, 0.000000, 0.000000, 25898.000000, 304.102570, 4.000000, 4.000000, 4.000000, 4.000000, 4.000000, 4.000000, 4.000000, 4.000000, 4.000000, 4.000000, 4.000000, 4.000000, 4.000000, 4.000000, 4.000000, 4.000000
63.000000, 0.000000, 4182.563965, 4206.666504, 4189.743652, 4196.410156, 4204.102539, 4194.358887, 4182.563965, 4175.384277, 4206.666504, 4193.846191, 4165.127930, 4176.922852, 4141.538574, 4167.179199, 0.000000, 8226.000000, 8106.000000, 0.000000, 0.000000, 0.000000, 25898.000000, 311.794861, 4.000000, 4.000000, 4.000000, 4.000000, 4.000000, 4.000000, 4.000000, 4.000000, 4.000000, 4.000000, 4.000000, 4.000000, 4.000000, 4.000000, 4.000000, 4.000000
64.000000, 0.000000, 4174.358887, 4199.487305, 4184.102539, 4194.358887, 4196.922852, 4200.000000, 4183.589844, 4186.666504, 4203.589844, 4183.589844, 4154.871582, 4173.333008, 4133.846191, 4161.538574, 3493.000000, 8226.000000, 8106.000000, 0.000000, 0.000000, 0.000000, 25898.000000, 320.000000, 4.000000, 4.000000, 4.000000, 4.000000, 4.000000, 4.000000, 4.000000, 4.000000, 4.000000, 4.000000, 4.000000, 4.000000, 4.000000, 4.000000, 4.000000, 4.000000
65.000000, 0.000000, 4168.717773, 4193.846191, 4182.051270, 4190.769043, 4188.205078, 4203.589844, 4190.769043, 4173.333008, 4196.922852, 4171.794922, 4145.641113, 4166.153809, 4124.102539, 4152.307617, 2278.000000, 8227.000000, 8109.000000, 0.000000, 0.000000, 0.000000, 25898.000000, 327.692291, 4.000000, 4.000000, 4.000000, 4.000000, 4.000000, 4.000000, 4.000000, 4.000000, 4.000000, 4.000000, 4.000000, 4.000000, 4.000000, 4.000000, 4.000000, 4.000000
66.000000, 0.000000, 4174.358887, 4194.871582, 4184.102539, 4191.281738, 4195.897461, 4200.512695, 4192.307617, 4163.589844, 4188.205078, 4166.666504, 4146.666504, 4166.153809, 4125.641113, 4155.897461, 3126.000000, 8227.000000, 8109.000000, 0.000000, 0.000000, 0.000000, 25898.000000, 335.384613, 4.000000, 4.000000, 4.000000, 4.000000, 4.000000, 4.000000, 4.000000, 4.000000, 4.000000, 4.000000, 4.000000, 4.000000, 4.000000, 4.000000, 4.000000, 4.000000
67.000000, 0.000000, 4180.512695, 4200.512695, 4193.846191, 4197.436035, 4201.538574, 4201.025391, 4191.281738, 4173.333008, 4186.153809, 4169.743652, 4152.820313, 4175.384277, 4136.922852, 4168.717773, 3549.000000, 8236.000000, 8104.000000, 0.000000, 0.000000, 0.000000, 25898.000000, 343.076904, 4.000000, 4.000000, 4.000000, 4.000000, 4.000000, 4.000000, 4.000000, 4.000000, 4.000000, 4.000000, 4.000000, 4.000000, 4.000000, 4.000000, 4.000000, 4.000000
68.000000, 0.000000, 4186.153809, 4203.589844, 4197.948730, 4194.358887, 4198.461426, 4197.948730, 4190.769043, 4161.025391, 4187.692383, 4172.307617, 4153.846191, 4178.461426, 4141.025391, 4170.256348, 3534.000000, 8236.000000, 8104.000000, 0.000000, 0.000000, 0.000000, 25898.000000, 351.282043, 4.000000, 4.000000, 4.000000, 4.000000, 4.000000, 4.000000, 4.000000, 4.000000, 4.000000, 4.000000, 4.000000, 4.000000, 4.000000, 4.000000, 4.000000, 4.000000
69.000000, 0.000000, 4189.743652, 4204.102539, 4194.871582, 4196.922852, 4196.410156, 4186.153809, 4185.641113, 4149.743652, 4188.717773, 4175.897461, 4157.948730, 4177.948730, 4144.615234, 4171.281738, 3569.000000, 8229.000000, 8116.000000, 0.000000, 0.000000, 0.000000, 25898.000000, 358.974365, 4.000000, 4.000000, 4.000000, 4.000000, 4.000000, 4.000000, 4.000000, 4.000000, 4.000000, 4.000000, 4.000000, 4.000000, 4.000000, 4.000000, 4.000000, 4.000000
70.000000, 0.000000, 4189.230469, 4210.256348, 4191.281738, 4198.974121, 4192.820313, 4183.076660, 4184.102539, 4176.922852, 4198.974121, 4188.717773, 4171.281738, 4182.051270, 4161.538574, 4182.563965, 3494.000000, 8229.000000, 8116.000000, 0.000000, 0.000000, 0.000000, 25898.000000, 366.666656, 4.000000, 4.000000, 4.000000, 4.000000, 4.000000, 4.000000, 4.000000, 4.000000, 4.000000, 4.000000, 4.000000, 4.000000, 4.000000, 4.000000, 4.000000, 4.000000
71.000000, 0.000000, 4189.743652, 4215.384277, 4187.179199, 4195.897461, 4186.153809, 4188.717773, 4195.897461, 4189.743652, 4211.281738, 4200.512695, 4180.512695, 4188.717773, 4177.948730, 4189.230469, 3502.000000, 8231.000000, 8115.000000, 0.000000, 0.000000, 0.000000, 25898.000000, 374.871796, 4.000000, 4.000000, 4.000000, 4.000000, 4.000000, 4.000000, 4.000000, 4.000000, 4.000000, 4.000000, 4.000000, 4.000000, 4.000000, 4.000000, 4.000000, 4.000000
72.000000, 0.000000, 4195.384277, 4220.000000, 4190.769043, 4201.025391, 4193.846191, 4188.717773, 4200.512695, 4176.922852, 4214.358887, 4206.666504, 4189.230469, 4200.000000, 4186.666504, 4190.769043, 3353.000000, 8231.000000, 8115.000000, 0.000000, 0.000000, 0.000000, 25898.000000, 382.564087, 4.000000, 4.000000, 4.000000, 4.000000, 4.000000, 4.000000, 4.000000, 4.000000, 4.000000, 4.000000, 4.000000, 4.000000, 4.000000, 4.000000, 4.000000, 4.000000
73.000000, 0.000000, 4204.615234, 4229.743652, 4201.538574, 4204.615234, 4207.179199, 4184.102539, 4187.692383, 4198.461426, 4226.153809, 4214.871582, 4201.025391, 4210.769043, 4191.281738, 4198.461426, 3535.000000, 8230.000000, 8110.000000, 0.000000, 0.000000, 0.000000, 25898.000000, 390.256409, 4.000000, 4.000000, 4.000000, 4.000000, 4.000000, 4.000000, 4.000000, 4.000000, 4.000000, 4.000000, 4.000000, 4.000000, 4.000000, 4.000000, 4.000000, 4.000000
74.000000, 0.000000, 4204.615234, 4232.820313, 4207.179199, 4208.205078, 4205.641113, 4185.641113, 4188.717773, 4227.692383, 4239.487305, 4216.922852, 4202.563965, 4210.769043, 4193.846191, 4201.538574, 3300.000000, 8230.000000, 8110.000000, 0.000000, 0.000000, 0.000000, 25898.000000, 398.461517, 4.000000, 4.000000, 4.000000, 4.000000, 4.000000, 4.000000, 4.000000, 4.000000, 4.000000, 4.000000, 4.000000, 4.000000, 4.000000, 4.000000, 4.000000, 4.000000
75.000000, 0.000000, 4198.461426, 4230.256348, 4208.205078, 4206.153809, 4199.487305, 4190.256348, 4202.051270, 4215.384277, 4230.256348, 4216.922852, 4198.461426, 4207.179199, 4198.974121, 4197.436035, 3291.000000, 8232.000000, 8109.000000, 0.000000, 0.000000, 0.000000, 25898.000000, 406.153839, 4.000000, 4.000000, 4.000000, 4.000000, 4.000000, 4.000000, 4.000000, 4.000000, 4.000000, 4.000000, 4.000000, 4.000000, 4.000000, 4.000000, 4.000000, 4.000000
76.000000, 0.000000, 4203.076660, 4232.820313, 4214.871582, 4205.127930, 4201.025391, 4182.563965, 4192.307617, 4195.384277, 4218.974121, 4225.127930, 4203.076660, 4213.846191, 4205.127930, 4200.512695, 3753.000000, 8232.000000, 8109.000000, 0.000000, 0.000000, 0.000000, 25898.000000, 413.846130, 4.000000, 4.000000, 4.000000, 4.000000, 4.000000, 4.000000, 4.000000, 4.000000, 4.000000, 4.000000, 4.000000, 4.000000, 4.000000, 4.000000, 4.000000, 4.000000
77.000000, 0.000000, 4212.307617, 4234.358887, 4218.461426, 4211.794922, 4205.641113, 4178.974121, 4177.436035, 4203.589844, 4230.256348, 4234.871582, 4210.256348, 4219.487305, 4209.743652, 4208.717773, 3475.000000, 8232.000000, 8113.000000, 0.000000, 0.000000, 0.000000, 25898.000000, 422.051270, 4.000000, 4.000000, 4.000000, 4.000000, 4.000000, 4.000000, 4.000000, 4.000000, 4.000000, 4.000000, 4.000000, 4.000000, 4.000000, 4.000000, 4.000000, 4.000000
78.000000, 0.000000, 4210.769043, 4231.794922, 4214.871582, 4208.717773, 4200.512695, 4184.615234, 4185.127930, 4208.717773, 4236.410156, 4236.410156, 4208.205078, 4213.333008, 4207.179199, 4205.641113, 3300.000000, 8232.000000, 8113.000000, 0.000000, 0.000000, 0.000000, 25898.000000, 429.743591, 4.000000, 4.000000, 4.000000, 4.000000, 4.000000, 4.000000, 4.000000, 4.000000, 4.000000, 4.000000, 4.000000, 4.000000, 4.000000, 4.000000, 4.000000, 4.000000
79.000000, 0.000000, 4202.563965, 4233.333008, 4214.358887, 4207.179199, 4194.871582, 4176.410156, 4190.769043, 4191.281738, 4217.436035, 4230.769043, 4200.512695, 4205.641113, 4201.538574, 4198.974121, 3291.000000, 8232.000000, 8118.000000, 0.000000, 0.000000, 0.000000, 25898.000000, 437.435883, 4.000000, 4.000000, 4.000000, 4.000000, 4.000000, 4.000000, 4.000000, 4.000000, 4.000000, 4.000000, 4.000000, 4.000000, 4.000000, 4.000000, 4.000000, 4.000000
80.000000, 0.000000, 4200.000000, 4234.358887, 4212.820313, 4208.205078, 4204.102539, 4174.358887, 4183.076660, 4184.615234, 4212.820313, 4226.153809, 4200.000000, 4204.102539, 4204.615234, 4199.487305, 3753.000000, 8232.000000, 8118.000000, 0.000000, 0.000000, 0.000000, 25898.000000, 445.128204, 4.000000, 4.000000, 4.000000, 4.000000, 4.000000, 4.000000, 4.000000, 4.000000, 4.000000, 4.000000, 4.000000, 4.000000, 4.000000, 4.000000, 4.000000, 4.000000
81.000000, 0.000000, 4194.871582, 4227.179199, 4200.512695, 4203.589844, 4218.461426, 4196.410156, 4182.563965, 4198.461426, 4219.487305, 4218.974121, 4195.384277, 4197.436035, 4200.512695, 4192.307617, 3475.000000, 8234.000000, 8121.000000, 0.000000, 0.000000, 0.000000, 25898.000000, 453.333313, 4.000000, 4.000000, 4.000000, 4.000000, 4.000000, 4.000000, 4.000000, 4.000000, 4.000000, 4.000000, 4.000000, 4.000000, 4.000000, 4.000000, 4.000000, 4.000000
82.000000, 0.000000, 4172.820313, 4209.230469, 4182.563965, 4197.436035, 4215.897461, 4207.692383, 4194.871582, 4197.436035, 4204.615234, 4203.076660, 4173.333008, 4182.563965, 4173.846191, 4164.102539, 3300.000000, 8234.000000, 8121.000000, 0.000000, 0.000000, 0.000000, 25898.000000, 461.025635, 4.000000, 4.000000, 4.000000, 4.000000, 4.000000, 4.000000, 4.000000, 4.000000, 4.000000, 4.000000, 4.000000, 4.000000, 4.000000, 4.000000, 4.000000, 4.000000
83.000000, 0.000000, 4154.358887, 4190.769043, 4176.410156, 4185.641113, 4198.974121, 4202.563965, 4204.615234, 4192.820313, 4202.051270, 4197.436035, 4161.538574, 4173.846191, 4158.974121, 4146.153809, 3291.000000, 8238.000000, 8120.000000, 0.000000, 0.000000, 0.000000, 25898.000000, 469.230743, 4.000000, 4.000000, 4.000000, 4.000000, 4.000000, 4.000000, 4.000000, 4.000000, 4.000000, 4.000000, 4.000000, 4.000000, 4.000000, 4.000000, 4.000000, 4.000000
84.000000, 0.000000, 4164.102539, 4191.794922, 4185.127930, 4185.641113, 4189.743652, 4201.538574, 4204.615234, 4204.615234, 4225.641113, 4213.333008, 4175.384277, 4182.051270, 4175.384277, 4160.000000, 3753.000000, 8238.000000, 8120.000000, 0.000000, 0.000000, 0.000000, 25898.000000, 476.923065, 4.000000, 4.000000, 4.000000, 4.000000, 4.000000, 4.000000, 4.000000, 4.000000, 4.000000, 4.000000, 4.000000, 4.000000, 4.000000, 4.000000, 4.000000, 4.000000
85.000000, 0.000000, 4179.487305, 4208.205078, 4191.281738, 4195.384277, 4197.436035, 4201.025391, 4203.076660, 4200.000000, 4228.205078, 4224.102539, 4187.692383, 4192.307617, 4190.769043, 4180.000000, 3475.000000, 8241.000000, 8121.000000, 0.000000, 0.000000, 0.000000, 25898.000000, 484.615387, 4.000000, 4.000000, 4.000000, 4.000000, 4.000000, 4.000000, 4.000000, 4.000000, 4.000000, 4.000000, 4.000000, 4.000000, 4.000000, 4.000000, 4.000000, 4.000000
86.000000, 0.000000, 4185.641113, 4216.922852, 4190.256348, 4195.384277, 4205.127930, 4197.436035, 4200.000000, 4184.102539, 4213.333008, 4220.000000, 4191.281738, 4192.820313, 4193.333008, 4184.102539, 3300.000000, 8241.000000, 8121.000000, 0.000000, 0.000000, 0.000000, 25898.000000, 492.820496, 4.000000, 4.000000, 4.000000, 4.000000, 4.000000, 4.000000, 4.000000, 4.000000, 4.000000, 4.000000, 4.000000, 4.000000, 4.000000, 4.000000, 4.000000, 4.000000
87.000000, 0.000000, 4192.307617, 4216.410156, 4193.846191, 4197.948730, 4201.025391, 4195.384277, 4192.820313, 4193.333008, 4220.000000, 4219.487305, 4194.358887, 4195.384277, 4195.384277, 4184.615234, 3291.000000, 8239.000000, 8125.000000, 0.000000, 0.000000, 0.000000, 25898.000000, 500.512817, 4.000000, 4.000000, 4.000000, 4.000000, 4.000000, 4.000000, 4.000000, 4.000000, 4.000000, 4.000000, 4.000000, 4.000000, 4.000000, 4.000000, 4.000000, 4.000000
88.000000, 0.000000, 4197.436035, 4217.436035, 4202.051270, 4197.948730, 4201.025391, 4192.307617, 4195.384277, 4208.717773, 4234.871582, 4225.127930, 4194.871582, 4200.512695, 4202.051270, 4190.769043, 3753.000000, 8239.000000, 8125.000000, 0.000000, 0.000000, 0.000000, 25898.000000, 508.205109, 4.000000, 4.000000, 4.000000, 4.000000, 4.000000, 4.000000, 4.000000, 4.000000, 4.000000, 4.000000, 4.000000, 4.000000, 4.000000, 4.000000, 4.000000, 4.000000
89.000000, 0.000000, 4196.922852, 4216.922852, 4202.051270, 4198.461426, 4206.153809, 4188.717773, 4198.974121, 4204.615234, 4230.256348, 4222.051270, 4191.281738, 4202.051270, 4200.000000, 4190.769043, 3475.000000, 8241.000000, 8140.000000, 0.000000, 0.000000, 0.000000, 25898.000000, 515.897400, 4.000000, 4.000000, 4.000000, 4.000000, 4.000000, 4.000000, 4.000000, 4.000000, 4.000000, 4.000000, 4.000000, 4.000000, 4.000000, 4.000000, 4.000000, 4.000000
90.000000, 0.000000, 4193.846191, 4215.897461, 4201.025391, 4203.589844, 4198.461426, 4185.127930, 4192.820313, 4198.461426, 4222.563965, 4216.410156, 4190.256348, 4198.461426, 4190.256348, 4185.641113, 3300.000000, 8241.000000, 8140.000000, 0.000000, 0.000000, 0.000000, 25898.000000, 524.102539, 4.000000, 4.000000, 4.000000, 4.000000, 4.000000, 4.000000, 4.000000, 4.000000, 4.000000, 4.000000, 4.000000, 4.000000, 4.000000, 4.000000, 4.000000, 4.000000
91.000000, 0.000000, 4193.846191, 4220.512695, 4198.974121, 4200.000000, 4193.333008, 4188.205078, 4189.743652, 4200.512695, 4225.641113, 4218.974121, 4188.717773, 4191.281738, 4188.205078, 4182.051270, 3291.000000, 8250.000000, 8146.000000, 0.000000, 0.000000, 0.000000, 25898.000000, 531.794861, 4.000000, 4.000000, 4.000000, 4.000000, 4.000000, 4.000000, 4.000000, 4.000000, 4.000000, 4.000000, 4.000000, 4.000000, 4.000000, 4.000000, 4.000000, 4.000000
92.000000, 0.000000, 4182.563965, 4211.281738, 4186.153809, 4196.410156, 4198.974121, 4196.410156, 4191.794922, 4202.051270, 4225.127930, 4213.846191, 4174.871582, 4182.051270, 4181.025391, 4169.743652, 3753.000000, 8250.000000, 8146.000000, 0.000000, 0.000000, 0.000000, 25898.000000, 539.487183, 4.000000, 4.000000, 4.000000, 4.000000, 4.000000, 4.000000, 4.000000, 4.000000, 4.000000, 4.000000, 4.000000, 4.000000, 4.000000, 4.000000, 4.000000, 4.000000
93.000000, 0.000000, 4172.307617, 4198.974121, 4177.436035, 4192.820313, 4201.025391, 4196.922852, 4187.179199, 4193.333008, 4215.897461, 4200.512695, 4165.641113, 4176.922852, 4169.743652, 4158.974121, 3475.000000, 8255.000000, 8141.000000, 0.000000, 0.000000, 0.000000, 25898.000000, 547.692322, 4.000000, 4.000000, 4.000000, 4.000000, 4.000000, 4.000000, 4.000000, 4.000000, 4.000000, 4.000000, 4.000000, 4.000000, 4.000000, 4.000000, 4.000000, 4.000000
94.000000, 0.000000, 4180.000000, 4205.127930, 4185.641113, 4196.410156, 4198.974121, 4197.948730, 4185.641113, 4179.487305, 4211.794922, 4205.127930, 4174.871582, 4184.102539, 4175.384277, 4164.102539, 3300.000000, 8255.000000, 8141.000000, 0.000000, 0.000000, 0.000000, 25898.000000, 555.384583, 4.000000, 4.000000, 4.000000, 4.000000, 4.000000, 4.000000, 4.000000, 4.000000, 4.000000, 4.000000, 4.000000, 4.000000, 4.000000, 4.000000, 4.000000, 4.000000
95.000000, 0.000000, 4185.127930, 4210.256348, 4188.717773, 4200.000000, 4201.538574, 4198.974121, 4187.179199, 4181.538574, 4214.871582, 4212.820313, 4184.615234, 4188.205078, 4188.205078, 4172.307617, 3291.000000, 8255.000000, 8140.000000, 0.000000, 0.000000, 0.000000, 25898.000000, 563.076904, 4.000000, 4.000000, 4.000000, 4.000000, 4.000000, 4.000000, 4.000000, 4.000000, 4.000000, 4.000000, 4.000000, 4.000000, 4.000000, 4.000000, 4.000000, 4.000000
96.000000, 0.000000, 4180.512695, 4202.563965, 4183.589844, 4192.820313, 4201.025391, 4187.179199, 4178.974121, 4190.256348, 4217.436035, 4207.692383, 4178.974121, 4183.589844, 4184.615234, 4170.256348, 3753.000000, 8255.000000, 8140.000000, 0.000000, 0.000000, 0.000000, 25898.000000, 571.282043, 4.000000, 4.000000, 4.000000, 4.000000, 4.000000, 4.000000, 4.000000, 4.000000, 4.000000, 4.000000, 4.000000, 4.000000, 4.000000, 4.000000, 4.000000, 4.000000
97.000000, 0.000000, 4177.436035, 4197.436035, 4182.563965, 4192.820313, 4195.897461, 4183.076660, 4186.153809, 4190.256348, 4217.948730, 4206.666504, 4172.307617, 4182.051270, 4179.487305, 4166.153809, 3475.000000, 8258.000000, 8135.000000, 0.000000, 0.000000, 0.000000, 25898.000000, 578.974365, 4.000000, 4.000000, 4.000000, 4.000000, 4.000000, 4.000000, 4.000000, 4.000000, 4.000000, 4.000000, 4.000000, 4.000000, 4.000000, 4.000000, 4.000000, 4.000000
98.000000, 0.000000, 4182.051270, 4202.563965, 4186.153809, 4192.820313, 4200.512695, 4197.436035, 4198.461426, 4185.127930, 4221.025391, 4216.922852, 4178.974121, 4186.153809, 4186.666504, 4170.256348, 3300.000000, 8258.000000, 8135.000000, 0.000000, 0.000000, 0.000000, 25898.000000, 586.666626, 4.000000, 4.000000, 4.000000, 4.000000, 4.000000, 4.000000, 4.000000, 4.000000, 4.000000, 4.000000, 4.000000, 4.000000, 4.000000, 4.000000, 4.000000, 4.000000
99.000000, 0.000000, 4186.666504, 4206.153809, 4191.281738, 4193.333008, 4205.127930, 4202.563965, 4185.641113, 4183.589844, 4228.205078, 4219.487305, 4186.666504, 4188.205078, 4190.256348, 4178.974121, 3291.000000, 8262.000000, 8129.000000, 0.000000, 0.000000, 0.000000, 25898.000000, 594.871765, 4.000000, 4.000000, 4.000000, 4.000000, 4.000000, 4.000000, 4.000000, 4.000000, 4.000000, 4.000000, 4.000000, 4.000000, 4.000000, 4.000000, 4.000000, 4.000000
100.000000, 0.000000, 4183.589844, 4200.512695, 4192.307617, 4196.410156, 4193.846191, 4193.846191, 4183.076660, 4195.384277, 4232.820313, 4211.281738, 4187.179199, 4187.692383, 4182.051270, 4178.461426, 3753.000000, 8262.000000, 8129.000000, 0.000000, 0.000000, 0.000000, 25898.000000, 602.564087, 4.000000, 4.000000, 4.000000, 4.000000, 4.000000, 4.000000, 4.000000, 4.000000, 4.000000, 4.000000, 4.000000, 4.000000, 4.000000, 4.000000, 4.000000, 4.000000
101.000000, 0.000000, 4181.025391, 4195.897461, 4188.205078, 4194.358887, 4188.717773, 4192.820313, 4205.127930, 4203.589844, 4226.666504, 4205.127930, 4183.589844, 4189.743652, 4172.307617, 4171.281738, 3475.000000, 8269.000000, 8135.000000, 0.000000, 0.000000, 0.000000, 25898.000000, 610.769226, 4.000000, 4.000000, 4.000000, 4.000000, 4.000000, 4.000000, 4.000000, 4.000000, 4.000000, 4.000000, 4.000000, 4.000000, 4.000000, 4.000000, 4.000000, 4.000000
102.000000, 0.000000, 4182.051270, 4197.948730, 4190.769043, 4197.948730, 4199.487305, 4188.717773, 4202.051270, 4192.820313, 4216.922852, 4201.538574, 4181.025391, 4191.281738, 4169.743652, 4170.769043, 3300.000000, 8269.000000, 8135.000000, 0.000000, 0.000000, 0.000000, 25898.000000, 618.461548, 4.000000, 4.000000, 4.000000, 4.000000, 4.000000, 4.000000, 4.000000, 4.000000, 4.000000, 4.000000, 4.000000, 4.000000, 4.000000, 4.000000, 4.000000, 4.000000
103.000000, 0.000000, 4184.615234, 4194.871582, 4200.000000, 4194.358887, 4200.512695, 4182.563965, 4179.487305, 4184.615234, 4217.948730, 4200.512695, 4183.076660, 4192.820313, 4170.256348, 4172.307617, 3291.000000, 8274.000000, 8138.000000, 0.000000, 0.000000, 0.000000, 25898.000000, 626.153809, 4.000000, 4.000000, 4.000000, 4.000000, 4.000000, 4.000000, 4.000000, 4.000000, 4.000000, 4.000000, 4.000000, 4.000000, 4.000000, 4.000000, 4.000000, 4.000000
104.000000, 0.000000, 4191.281738, 4191.281738, 4205.127930, 4191.794922, 4195.384277, 4188.205078, 4184.615234, 4190.256348, 4224.615234, 4207.692383, 4184.615234, 4194.871582, 4169.743652, 4170.769043, 3753.000000, 8274.000000, 8138.000000, 0.000000, 0.000000, 0.000000, 25898.000000, 633.846130, 4.000000, 4.000000, 4.000000, 4.000000, 4.000000, 4.000000, 4.000000, 4.000000, 4.000000, 4.000000, 4.000000, 4.000000, 4.000000, 4.000000, 4.000000, 4.000000
105.000000, 0.000000, 4195.897461, 4193.846191, 4203.589844, 4200.000000, 4200.512695, 4191.794922, 4190.769043, 4188.205078, 4224.615234, 4208.717773, 4180.512695, 4196.922852, 4170.256348, 4172.307617, 3475.000000, 8277.000000, 8132.000000, 0.000000, 0.000000, 0.000000, 25898.000000, 642.051270, 4.000000, 4.000000, 4.000000, 4.000000, 4.000000, 4.000000, 4.000000, 4.000000, 4.000000, 4.000000, 4.000000, 4.000000, 4.000000, 4.000000, 4.000000, 4.000000
106.000000, 0.000000, 4189.230469, 4190.256348, 4203.589844, 4196.922852, 4196.922852, 4184.102539, 4175.384277, 4173.333008, 4217.436035, 4194.358887, 4180.000000, 4193.846191, 4168.717773, 4172.307617, 3300.000000, 8277.000000, 8132.000000, 0.000000, 0.000000, 0.000000, 25898.000000, 650.256409, 4.000000, 4.000000, 4.000000, 4.000000, 4.000000, 4.000000, 4.000000, 4.000000, 4.000000, 4.000000, 4.000000, 4.000000, 4.000000, 4.000000, 4.000000, 4.000000
107.000000, 0.000000, 4188.205078, 4183.589844, 4203.589844, 4198.461426, 4187.179199, 4178.461426, 4168.205078, 4166.153809, 4208.717773, 4187.692383, 4180.000000, 4188.717773, 4165.641113, 4170.256348, 3291.000000, 8276.000000, 8129.000000, 0.000000, 0.000000, 0.000000, 25898.000000, 657.948730, 4.000000, 4.000000, 4.000000, 4.000000, 4.000000, 4.000000, 4.000000, 4.000000, 4.000000, 4.000000, 4.000000, 4.000000, 4.000000, 4.000000, 4.000000, 4.000000
108.000000, 0.000000, 4192.820313, 4186.153809, 4201.025391, 4201.538574, 4197.948730, 4182.051270, 4172.307617, 4170.256348, 4206.153809, 4194.871582, 4175.384277, 4190.256348, 4166.153809, 4171.794922, 3753.000000, 8276.000000, 8129.000000, 0.000000, 0.000000, 0.000000, 25898.000000, 665.640991, 4.000000, 4.000000, 4.000000, 4.000000, 4.000000, 4.000000, 4.000000, 4.000000, 4.000000, 4.000000, 4.000000, 4.000000, 4.000000, 4.000000, 4.000000, 4.000000
109.000000, 0.000000, 4192.307617, 4188.717773, 4198.461426, 4194.871582, 4205.127930, 4182.051270, 4171.281738, 4170.256348, 4203.076660, 4191.794922, 4169.743652, 4187.692383, 4169.230469, 4173.333008, 3475.000000, 8267.000000, 8120.000000, 0.000000, 0.000000, 0.000000, 25898.000000, 673.846130, 4.000000, 4.000000, 4.000000, 4.000000, 4.000000, 4.000000, 4.000000, 4.000000, 4.000000, 4.000000, 4.000000, 4.000000, 4.000000, 4.000000, 4.000000, 4.000000
110.000000, 0.000000, 4193.333008, 4189.743652, 4198.974121, 4200.000000, 4196.922852, 4183.076660, 4172.820313, 4164.102539, 4196.922852, 4182.051270, 4170.769043, 4187.692383, 4169.230469, 4173.333008, 3300.000000, 8267.000000, 8120.000000, 0.000000, 0.000000, 0.000000, 25898.000000, 681.538452, 4.000000, 4.000000, 4.000000, 4.000000, 4.000000, 4.000000, 4.000000, 4.000000, 4.000000, 4.000000, 4.000000, 4.000000, 4.000000, 4.000000, 4.000000, 4.000000
111.000000, 0.000000, 4200.512695, 4198.461426, 4204.615234, 4207.179199, 4202.563965, 4194.871582, 4184.102539, 4175.897461, 4207.692383, 4185.641113, 4178.974121, 4190.769043, 4174.871582, 4181.025391, 3291.000000, 8260.000000, 8115.000000, 0.000000, 0.000000, 0.000000, 25898.000000, 689.743591, 4.000000, 4.000000, 4.000000, 4.000000, 4.000000, 4.000000, 4.000000, 4.000000, 4.000000, 4.000000, 4.000000, 4.000000, 4.000000, 4.000000, 4.000000, 4.000000
112.000000, 0.000000, 4201.025391, 4200.512695, 4205.641113, 4205.127930, 4209.230469, 4201.538574, 4190.769043, 4198.461426, 4226.666504, 4193.333008, 4186.666504, 4191.794922, 4184.102539, 4186.666504, 3753.000000, 8260.000000, 8115.000000, 0.000000, 0.000000, 0.000000, 25898.000000, 697.435852, 4.000000, 4.000000, 4.000000, 4.000000, 4.000000, 4.000000, 4.000000, 4.000000, 4.000000, 4.000000, 4.000000, 4.000000, 4.000000, 4.000000, 4.000000, 4.000000
113.000000, 0.000000, 4192.307617, 4191.281738, 4199.487305, 4196.922852, 4200.000000, 4195.897461, 4183.589844, 4203.589844, 4226.666504, 4198.461426, 4184.102539, 4192.307617, 4182.051270, 4181.538574, 3475.000000, 8252.000000, 8098.000000, 0.000000, 0.000000, 0.000000, 25898.000000, 705.640991, 4.000000, 4.000000, 4.000000, 4.000000, 4.000000, 4.000000, 4.000000, 4.000000, 4.000000, 4.000000, 4.000000, 4.000000, 4.000000, 4.000000, 4.000000, 4.000000
114.000000, 0.000000, 4189.743652, 4185.641113, 4197.436035, 4194.871582, 4198.461426, 4193.846191, 4185.127930, 4197.436035, 4216.922852, 4204.102539, 4178.974121, 4194.871582, 4175.897461, 4181.025391, 3300.000000, 8252.000000, 8098.000000, 0.000000, 0.000000, 0.000000, 25898.000000, 713.333313, 4.000000, 4.000000, 4.000000, 4.000000, 4.000000, 4.000000, 4.000000, 4.000000, 4.000000, 4.000000, 4.000000, 4.000000, 4.000000, 4.000000, 4.000000, 4.000000
115.000000, 0.000000, 4192.307617, 4187.692383, 4197.948730, 4201.025391, 4205.641113, 4201.538574, 4197.948730, 4190.769043, 4218.461426, 4200.000000, 4184.102539, 4196.410156, 4181.538574, 4184.615234, 3291.000000, 8252.000000, 8092.000000, 0.000000, 0.000000, 0.000000, 25898.000000, 721.538452, 4.000000, 4.000000, 4.000000, 4.000000, 4.000000, 4.000000, 4.000000, 4.000000, 4.000000, 4.000000, 4.000000, 4.000000, 4.000000, 4.000000, 4.000000, 4.000000
116.000000, 0.000000, 4188.205078, 4185.127930, 4190.256348, 4195.384277, 4204.102539, 4199.487305, 4193.333008, 4185.641113, 4219.487305, 4188.205078, 4184.615234, 4190.769043, 4186.666504, 4178.461426, 3753.000000, 8252.000000, 8092.000000, 0.000000, 0.000000, 0.000000, 25898.000000, 729.230774, 4.000000, 4.000000, 4.000000, 4.000000, 4.000000, 4.000000, 4.000000, 4.000000, 4.000000, 4.000000, 4.000000, 4.000000, 4.000000, 4.000000, 4.000000, 4.000000
117.000000, 0.000000, 4178.974121, 4174.358887, 4184.615234, 4193.846191, 4196.922852, 4193.846191, 4176.410156, 4188.205078, 4212.307617, 4183.589844, 4172.820313, 4187.179199, 4176.410156, 4171.794922, 3475.000000, 8256.000000, 8090.000000, 0.000000, 0.000000, 0.000000, 25898.000000, 737.435852, 4.000000, 4.000000, 4.000000, 4.000000, 4.000000, 4.000000, 4.000000, 4.000000, 4.000000, 4.000000, 4.000000, 4.000000, 4.000000, 4.000000, 4.000000, 4.000000
118.000000, 0.000000, 4171.794922, 4167.179199, 4183.076660, 4194.358887, 4193.846191, 4193.846191, 4182.563965, 4189.230469, 4206.666504, 4188.205078, 4164.615234, 4182.563965, 4166.153809, 4166.666504, 3300.000000, 8256.000000, 8090.000000, 0.000000, 0.000000, 0.000000, 25898.000000, 745.128174, 4.000000, 4.000000, 4.000000, 4.000000, 4.000000, 4.000000, 4.000000, 4.000000, 4.000000, 4.000000, 4.000000, 4.000000, 4.000000, 4.000000, 4.000000, 4.000000
119.000000, 0.000000, 4172.307617, 4170.769043, 4181.025391, 4190.256348, 4190.769043, 4190.256348, 4196.922852, 4182.563965, 4205.641113, 4190.769043, 4169.230469, 4177.948730, 4168.717773, 4162.051270, 3291.000000, 8252.000000, 8083.000000, 0.000000, 0.000000, 0.000000, 25898.000000, 753.333313, 4.000000, 4.000000, 4.000000, 4.000000, 4.000000, 4.000000, 4.000000, 4.000000, 4.000000, 4.000000, 4.000000, 4.000000, 4.000000, 4.000000, 4.000000, 4.000000
120.000000, 0.000000, 4177.948730, 4180.512695, 4188.717773, 4195.897461, 4189.743652, 4182.563965, 4186.666504, 4190.769043, 4219.487305, 4192.820313, 4182.051270, 4185.641113, 4179.487305, 4170.769043, 3753.000000, 8252.000000, 8083.000000, 0.000000, 0.000000, 0.000000, 25898.000000, 761.025635, 4.000000, 4.000000, 4.000000, 4.000000, 4.000000, 4.000000, 4.000000, 4.000000, 4.000000, 4.000000, 4.000000, 4.000000, 4.000000, 4.000000, 4.000000, 4.000000
121.000000, 0.000000, 4187.179199, 4186.666504, 4195.384277, 4197.948730, 4197.436035, 4185.641113, 4178.974121, 4206.153809, 4233.846191, 4202.051270, 4189.743652, 4197.948730, 4188.205078, 4186.666504, 3475.000000, 8249.000000, 8084.000000, 0.000000, 0.000000, 0.000000, 25898.000000, 769.230774, 4.000000, 4.000000, 4.000000, 4.000000, 4.000000, 4.000000, 4.000000, 4.000000, 4.000000, 4.000000, 4.000000, 4.000000, 4.000000, 4.000000, 4.000000, 4.000000
122.000000, 0.000000, 4187.692383, 4184.102539, 4189.743652, 4197.436035, 4203.076660, 4193.333008, 4185.641113, 4190.769043, 4224.615234, 4204.102539, 4187.692383, 4203.589844, 4187.692383, 4187.692383, 3300.000000, 8249.000000, 8084.000000, 0.000000, 0.000000, 0.000000, 25898.000000, 776.923035, 4.000000, 4.000000, 4.000000, 4.000000, 4.000000, 4.000000, 4.000000, 4.000000, 4.000000, 4.000000, 4.000000, 4.000000, 4.000000, 4.000000, 4.000000, 4.000000
123.000000, 0.000000, 4182.051270, 4180.512695, 4187.179199, 4197.948730, 4201.025391, 4191.281738, 4181.025391, 4161.538574, 4210.769043, 4194.358887, 4184.615234, 4200.512695, 4185.127930, 4183.076660, 3291.000000, 8257.000000, 8074.000000, 0.000000, 0.000000, 0.000000, 25898.000000, 785.128174, 4.000000, 4.000000, 4.000000, 4.000000, 4.000000, 4.000000, 4.000000, 4.000000, 4.000000, 4.000000, 4.000000, 4.000000, 4.000000, 4.000000, 4.000000, 4.000000
124.000000, 0.000000, 4185.127930, 4184.615234, 4191.794922, 4196.410156, 4197.436035, 4188.205078, 4175.384277, 4169.743652, 4212.820313, 4192.307617, 4187.692383, 4199.487305, 4187.179199, 4185.127930, 3753.000000, 8257.000000, 8074.000000, 0.000000, 0.000000, 0.000000, 25898.000000, 792.820496, 4.000000, 4.000000, 4.000000, 4.000000, 4.000000, 4.000000, 4.000000, 4.000000, 4.000000, 4.000000, 4.000000, 4.000000, 4.000000, 4.000000, 4.000000, 4.000000
125.000000, 0.000000, 4188.205078, 4187.179199, 4196.410156, 4200.000000, 4197.948730, 4190.256348, 4182.051270, 4194.871582, 4221.538574, 4201.538574, 4187.692383, 4202.563965, 4188.717773, 4184.102539, 3475.000000, 8260.000000, 8071.000000, 0.000000, 0.000000, 0.000000, 25898.000000, 801.025635, 4.000000, 4.000000, 4.000000, 4.000000, 4.000000, 4.000000, 4.000000, 4.000000, 4.000000, 4.000000, 4.000000, 4.000000, 4.000000, 4.000000, 4.000000, 4.000000
126.000000, 0.000000, 4187.692383, 4186.153809, 4195.384277, 4198.974121, 4203.589844, 4192.820313, 4187.692383, 4187.179199, 4217.436035, 4205.641113, 4184.102539, 4197.948730, 4189.230469, 4182.563965, 3300.000000, 8260.000000, 8071.000000, 0.000000, 0.000000, 0.000000, 25898.000000, 809.230774, 4.000000, 4.000000, 4.000000, 4.000000, 4.000000, 4.000000, 4.000000, 4.000000, 4.000000, 4.000000, 4.000000, 4.000000, 4.000000, 4.000000, 4.000000, 4.000000
127.000000, 0.000000, 4188.205078, 4184.615234, 4190.769043, 4197.948730, 4197.948730, 4186.153809, 4182.051270, 4165.641113, 4203.589844, 4199.487305, 4184.615234, 4188.205078, 4188.205078, 4182.051270, 53.000000, 8273.000000, 8066.000000, 0.000000, 0.000000, 0.000000, 25898.000000, 816.923035, 4.000000, 4.000000, 4.000000, 4.000000, 4.000000, 4.000000, 4.000000, 4.000000, 4.000000, 4.000000, 4.000000, 4.000000, 4.000000, 4.000000, 4.000000, 4.000000
0.000000, 0.000000, 4187.179199, 4184.102539, 4191.794922, 4200.000000, 4186.153809, 4181.538574, 4181.538574, 4177.948730, 4205.641113, 4197.436035, 4184.615234, 4191.281738, 4186.666504, 4182.051270, 3492.000000, 8273.000000, 8066.000000, 0.000000, 0.000000, 0.000000, 25898.000000, 825.128174, 4.000000, 4.000000, 4.000000, 4.000000, 4.000000, 4.000000, 4.000000, 4.000000, 4.000000, 4.000000, 4.000000, 4.000000, 4.000000, 4.000000, 4.000000, 4.000000
1.000000, 0.000000, 4189.230469, 4187.179199, 4201.025391, 4195.897461, 4191.281738, 4192.307617, 4184.615234, 4203.589844, 4221.538574, 4203.589844, 4187.692383, 4198.974121, 4192.307617, 4186.153809, 2277.000000, 8275.000000, 8064.000000, 0.000000, 0.000000, 0.000000, 25898.000000, 832.820496, 4.000000, 4.000000, 4.000000, 4.000000, 4.000000, 4.000000, 4.000000, 4.000000, 4.000000, 4.000000, 4.000000, 4.000000, 4.000000, 4.000000, 4.000000, 4.000000
2.000000, 0.000000, 4191.281738, 4188.205078, 4203.589844, 4198.461426, 4203.076660, 4195.384277, 4177.948730, 4195.384277, 4226.153809, 4208.205078, 4192.307617, 4193.333008, 4200.512695, 4187.692383, 3124.000000, 8275.000000, 8064.000000, 0.000000, 0.000000, 0.000000, 25898.000000, 841.025635, 4.000000, 4.000000, 4.000000, 4.000000, 4.000000, 4.000000, 4.000000, 4.000000, 4.000000, 4.000000, 4.000000, 4.000000, 4.000000, 4.000000, 4.000000, 4.000000
3.000000, 0.000000, 4187.692383, 4187.179199, 4194.871582, 4197.436035, 4201.025391, 4184.615234, 4164.102539, 4190.256348, 4225.641113, 4212.307617, 4191.281738, 4189.743652, 4201.025391, 4187.692383, 3551.000000, 8279.000000, 8065.000000, 0.000000, 0.000000, 0.000000, 25898.000000, 848.717957, 4.000000, 4.000000, 4.000000, 4.000000, 4.000000, 4.000000, 4.000000, 4.000000, 4.000000, 4.000000, 4.000000, 4.000000, 4.000000, 4.000000, 4.000000, 4.000000
4.000000, 0.000000, 4191.281738, 4193.333008, 4194.358887, 4195.897461, 4196.410156, 4182.051270, 4171.281738, 4216.922852, 4235.384277, 4221.025391, 4196.410156, 4199.487305, 4205.127930, 4195.897461, 3536.000000, 8279.000000, 8065.000000, 0.000000, 0.000000, 0.000000, 25898.000000, 856.923035, 4.000000, 4.000000, 4.000000, 4.000000, 4.000000, 4.000000, 4.000000, 4.000000, 4.000000, 4.000000, 4.000000, 4.000000, 4.000000, 4.000000, 4.000000, 4.000000
5.000000, 0.000000, 4197.948730, 4196.922852, 4200.512695, 4200.512695, 4200.000000, 4188.717773, 4201.538574, 4225.641113, 4233.333008, 4228.717773, 4211.281738, 4211.281738, 4216.922852, 4204.102539, 3565.000000, 8273.000000, 8063.000000, 0.000000, 0.000000, 0.000000, 25898.000000, 864.615356, 4.000000, 4.000000, 4.000000, 4.000000, 4.000000, 4.000000, 4.000000, 4.000000, 4.000000, 4.000000, 4.000000, 4.000000, 4.000000, 4.000000, 4.000000, 4.000000
6.000000, 0.000000, 4196.410156, 4190.769043, 4200.512695, 4196.922852, 4202.051270, 4188.205078, 4203.589844, 4199.487305, 4222.051270, 4227.179199, 4213.846191, 4214.358887, 4216.922852, 4203.589844, 3500.000000, 8273.000000, 8063.000000, 0.000000, 0.000000, 0.000000, 25898.000000, 872.820496, 4.000000, 4.000000, 4.000000, 4.000000, 4.000000, 4.000000, 4.000000, 4.000000, 4.000000, 4.000000, 4.000000, 4.000000, 4.000000, 4.000000, 4.000000, 4.000000
7.000000, 0.000000, 4190.769043, 4185.127930, 4196.922852, 4198.974121, 4197.948730, 4190.769043, 4184.615234, 4192.307617, 4224.102539, 4221.538574, 4204.102539, 4212.307617, 4206.153809, 4200.000000, 3501.000000, 8274.000000, 8067.000000, 0.000000, 0.000000, 0.000000, 25898.000000, 880.512817, 4.000000, 4.000000, 4.000000, 4.000000, 4.000000, 4.000000, 4.000000, 4.000000, 4.000000, 4.000000, 4.000000, 4.000000, 4.000000, 4.000000, 4.000000, 4.000000
8.000000, 0.000000, 4183.076660, 4181.538574, 4193.333008, 4196.410156, 4195.384277, 4203.076660, 4191.794922, 4202.563965, 4224.102539, 4214.358887, 4195.897461, 4203.589844, 4200.000000, 4192.307617, 3352.000000, 8274.000000, 8067.000000, 0.000000, 0.000000, 0.000000, 25898.000000, 888.717957, 4.000000, 4.000000, 4.000000, 4.000000, 4.000000, 4.000000, 4.000000, 4.000000, 4.000000, 4.000000, 4.000000, 4.000000, 4.000000, 4.000000, 4.000000, 4.000000
9.000000, 0.000000, 4177.948730, 4178.461426, 4188.717773, 4189.743652, 4200.512695, 4202.051270, 4202.051270, 4189.743652, 4213.846191, 4204.102539, 4187.692383, 4189.743652, 4192.307617, 4177.948730, 3538.000000, 8263.000000, 8073.000000, 0.000000, 0.000000, 0.000000, 25898.000000, 896.410217, 4.000000, 4.000000, 4.000000, 4.000000, 4.000000, 4.000000, 4.000000, 4.000000, 4.000000, 4.000000, 4.000000, 4.000000, 4.000000, 4.000000, 4.000000, 4.000000
10.000000, 0.000000, 4178.974121, 4180.000000, 4181.538574, 4192.307617, 4205.127930, 4189.743652, 4188.205078, 4180.512695, 4210.256348, 4197.948730, 4180.000000, 4184.102539, 4183.589844, 4169.230469, 3293.000000, 8263.000000, 8073.000000, 0.000000, 0.000000, 0.000000, 25898.000000, 904.615356, 4.000000, 4.000000, 4.000000, 4.000000, 4.000000, 4.000000, 4.000000, 4.000000, 4.000000, 4.000000, 4.000000, 4.000000, 4.000000, 4.000000, 4.000000, 4.000000
11.000000, 0.000000, 4182.051270, 4183.589844, 4182.051270, 4193.333008, 4205.127930, 4185.641113, 4174.871582, 4189.230469, 4213.333008, 4200.000000, 4185.641113, 4188.717773, 4190.256348, 4177.436035, 3513.000000, 8250.000000, 8073.000000, 0.000000, 0.000000, 0.000000, 25898.000000, 912.307678, 4.000000, 4.000000, 4.000000, 4.000000, 4.000000, 4.000000, 4.000000, 4.000000, 4.000000, 4.000000, 4.000000, 4.000000, 4.000000, 4.000000, 4.000000, 4.000000
12.000000, 0.000000, 4181.538574, 4186.153809, 4187.179199, 4196.922852, 4207.692383, 4187.179199, 4171.794922, 4188.717773, 4210.769043, 4202.051270, 4193.333008, 4197.948730, 4200.512695, 4186.153809, 3569.000000, 8250.000000, 8073.000000, 0.000000, 0.000000, 0.000000, 25898.000000, 920.512817, 4.000000, 4.000000, 4.000000, 4.000000, 4.000000, 4.000000, 4.000000, 4.000000, 4.000000, 4.000000, 4.000000, 4.000000, 4.000000, 4.000000, 4.000000, 4.000000
13.000000, 0.000000, 4176.922852, 4184.102539, 4183.589844, 4194.358887, 4206.153809, 4182.563965, 4167.692383, 4180.000000, 4205.127930, 4197.948730, 4187.179199, 4196.410156, 4193.846191, 4178.461426, 3475.000000, 8242.000000, 8082.000000, 0.000000, 0.000000, 0.000000, 25898.000000, 928.205078, 4.000000, 4.000000, 4.000000, 4.000000, 4.000000, 4.000000, 4.000000, 4.000000, 4.000000, 4.000000, 4.000000, 4.000000, 4.000000, 4.000000, 4.000000, 4.000000
14.000000, 0.000000, 4173.846191, 4174.358887, 4172.820313, 4185.127930, 4187.179199, 4173.846191, 4166.666504, 4180.000000, 4200.512695, 4183.589844, 4174.871582, 4185.641113, 4182.051270, 4165.127930, 3293.000000, 8242.000000, 8082.000000, 0.000000, 0.000000, 0.000000, 25898.000000, 936.410217, 4.000000, 4.000000, 4.000000, 4.000000, 4.000000, 4.000000, 4.000000, 4.000000, 4.000000, 4.000000, 4.000000, 4.000000, 4.000000, 4.000000, 4.000000, 4.000000
15.000000, 0.000000, 4172.307617, 4171.281738, 4171.794922, 4187.179199, 4176.922852, 4171.794922, 4167.692383, 4182.563965, 4201.025391, 4177.436035, 4169.230469, 4183.589844, 4180.000000, 4164.102539, 3513.000000, 8238.000000, 8083.000000, 0.000000, 0.000000, 0.000000, 25898.000000, 944.102539, 4.000000, 4.000000, 4.000000, 4.000000, 4.000000, 4.000000, 4.000000, 4.000000, 4.000000, 4.000000, 4.000000, 4.000000, 4.000000, 4.000000, 4.000000, 4.000000
16.000000, 0.000000, 4176.410156, 4183.589844, 4184.615234, 4191.794922, 4191.281738, 4175.384277, 4162.563965, 4184.615234, 4216.410156, 4196.410156, 4176.410156, 4186.153809, 4186.153809, 4171.794922, 0.000000, 8238.000000, 8083.000000, 0.000000, 0.000000, 0.000000, 25898.000000, 952.307678, 4.000000, 4.000000, 4.000000, 4.000000, 4.000000, 4.000000, 4.000000, 4.000000, 4.000000, 4.000000, 4.000000, 4.000000, 4.000000, 4.000000, 4.000000, 4.000000
17.000000, 0.000000, 4180.512695, 4186.153809, 4188.717773, 4195.384277, 4201.025391, 4174.871582, 4165.641113, 4193.333008, 4220.512695, 4208.717773, 4180.000000, 4181.538574, 4188.205078, 4168.717773, 0.000000, 8237.000000, 8089.000000, 0.000000, 0.000000, 0.000000, 25898.000000, 960.000000, 4.000000, 4.000000, 4.000000, 4.000000, 4.000000, 4.000000, 4.000000, 4.000000, 4.000000, 4.000000, 4.000000, 4.000000, 4.000000, 4.000000, 4.000000, 4.000000
18.000000, 0.000000, 4175.384277, 4174.358887, 4177.948730, 4189.230469, 4195.897461, 4172.307617, 4181.538574, 4189.743652, 4204.615234, 4201.025391, 4172.820313, 4168.717773, 4183.589844, 4156.922852, 0.000000, 8237.000000, 8089.000000, 0.000000, 0.000000, 0.000000, 25898.000000, 968.205078, 4.000000, 4.000000, 4.000000, 4.000000, 4.000000, 4.000000, 4.000000, 4.000000, 4.000000, 4.000000, 4.000000, 4.000000, 4.000000, 4.000000, 4.000000, 4.000000
19.000000, 0.000000, 4173.846191, 4173.846191, 4173.333008, 4184.102539, 4197.436035, 4175.384277, 4188.717773, 4182.563965, 4203.589844, 4205.641113, 4175.897461, 4168.717773, 4188.717773, 4158.974121, 0.000000, 8245.000000, 8094.000000, 0.000000, 0.000000, 0.000000, 25898.000000, 975.897400, 4.000000, 4.000000, 4.000000, 4.000000, 4.000000, 4.000000, 4.000000, 4.000000, 4.000000, 4.000000, 4.000000, 4.000000, 4.000000, 4.000000, 4.000000, 4.000000
20.000000, 0.000000, 4183.589844, 4187.692383, 4184.102539, 4197.436035, 4203.076660, 4182.563965, 4174.871582, 4188.717773, 4217.948730, 4220.512695, 4189.743652, 4183.589844, 4205.127930, 4173.846191, 0.000000, 8245.000000, 8094.000000, 0.000000, 0.000000, 0.000000, 25898.000000, 984.102539, 4.000000, 4.000000, 4.000000, 4.000000, 4.000000, 4.000000, 4.000000, 4.000000, 4.000000, 4.000000, 4.000000, 4.000000, 4.000000, 4.000000, 4.000000, 4.000000
21.000000, 0.000000, 4187.179199, 4192.820313, 4192.307617, 4201.025391, 4199.487305, 4185.641113, 4165.641113, 4184.102539, 4213.846191, 4215.384277, 4186.666504, 4185.641113, 4203.076660, 4175.384277, 0.000000, 8244.000000, 8093.000000, 0.000000, 0.000000, 0.000000, 25898.000000, 991.794861, 4.000000, 4.000000, 4.000000, 4.000000, 4.000000, 4.000000, 4.000000, 4.000000, 4.000000, 4.000000, 4.000000, 4.000000, 4.000000, 4.000000, 4.000000, 4.000000
22.000000, 0.000000, 4178.974121, 4183.076660, 4191.794922, 4194.871582, 4194.871582, 4183.076660, 4178.461426, 4171.281738, 4200.000000, 4194.358887, 4165.641113, 4175.384277, 4183.076660, 4165.127930, 0.000000, 8244.000000, 8093.000000, 0.000000, 0.000000, 0.000000, 25898.000000, 1000.000000, 4.000000, 4.000000, 4.000000, 4.000000, 4.000000, 4.000000, 4.000000, 4.000000, 4.000000, 4.000000, 4.000000, 4.000000, 4.000000, 4.000000, 4.000000, 4.000000
23.000000, 0.000000, 4180.512695, 4182.051270, 4196.922852, 4196.922852, 4198.461426, 4183.076660, 4183.589844, 4170.769043, 4197.436035, 4186.666504, 4165.641113, 4178.461426, 4183.589844, 4165.127930, 0.000000, 8236.000000, 8104.000000, 0.000000, 0.000000, 0.000000, 25899.000000, 7.692307, 4.000000, 4.000000, 4.000000, 4.000000, 4.000000, 4.000000, 4.000000, 4.000000, 4.000000, 4.000000, 4.000000, 4.000000, 4.000000, 4.000000, 4.000000, 4.000000
24.000000, 0.000000, 4186.153809, 4190.769043, 4202.563965, 4202.563965, 4203.589844, 4187.179199, 4172.820313, 4166.666504, 4198.461426, 4189.230469, 4169.230469, 4185.641113, 4184.615234, 4165.127930, 0.000000, 8236.000000, 8104.000000, 0.000000, 0.000000, 0.000000, 25899.000000, 15.897435, 4.000000, 4.000000, 4.000000, 4.000000, 4.000000, 4.000000, 4.000000, 4.000000, 4.000000, 4.000000, 4.000000, 4.000000, 4.000000, 4.000000, 4.000000, 4.000000
25.000000, 0.000000, 4172.307617, 4181.025391, 4191.281738, 4200.512695, 4200.000000, 4186.666504, 4172.820313, 4154.871582, 4195.384277, 4185.127930, 4152.820313, 4181.025391, 4163.589844, 4149.743652, 0.000000, 8230.000000, 8109.000000, 0.000000, 0.000000, 0.000000, 25899.000000, 23.589743, 4.000000, 4.000000, 4.000000, 4.000000, 4.000000, 4.000000, 4.000000, 4.000000, 4.000000, 4.000000, 4.000000, 4.000000, 4.000000, 4.000000, 4.000000, 4.000000
26.000000, 0.000000, 4161.538574, 4167.692383, 4181.025391, 4185.127930, 4189.230469, 4182.563965, 4186.153809, 4168.205078, 4198.461426, 4187.692383, 4156.410156, 4177.948730, 4164.102539, 4147.179199, 0.000000, 8230.000000, 8109.000000, 0.000000, 0.000000, 0.000000, 25899.000000, 31.794870, 4.000000, 4.000000, 4.000000, 4.000000, 4.000000, 4.000000, 4.000000, 4.000000, 4.000000, 4.000000, 4.000000, 4.000000, 4.000000, 4.000000, 4.000000, 4.000000
27.000000, 0.000000, 4174.871582, 4177.436035, 4188.205078, 4187.179199, 4192.307617, 4188.717773, 4198.974121, 4202.563965, 4214.358887, 4208.717773, 4185.127930, 4190.769043, 4199.487305, 4170.769043, 0.000000, 8221.000000, 8111.000000, 0.000000, 0.000000, 0.000000, 25899.000000, 40.000000, 4.000000, 4.000000, 4.000000, 4.000000, 4.000000, 4.000000, 4.000000, 4.000000, 4.000000, 4.000000, 4.000000, 4.000000, 4.000000, 4.000000, 4.000000, 4.000000
28.000000, 0.000000, 4184.615234, 4184.615234, 4191.794922, 4196.922852, 4202.051270, 4201.025391, 4206.666504, 4203.589844, 4217.436035, 4214.358887, 4194.871582, 4198.461426, 4217.436035, 4185.641113, 0.000000, 8221.000000, 8111.000000, 0.000000, 0.000000, 0.000000, 25899.000000, 47.692307, 4.000000, 4.000000, 4.000000, 4.000000, 4.000000, 4.000000, 4.000000, 4.000000, 4.000000, 4.000000, 4.000000, 4.000000, 4.000000, 4.000000, 4.000000, 4.000000
29.000000, 0.000000, 4182.051270, 4176.410156, 4186.666504, 4190.256348, 4192.307617, 4202.051270, 4206.666504, 4182.051270, 4204.102539, 4203.589844, 4190.256348, 4193.846191, 4212.307617, 4182.051270, 0.000000, 8202.000000, 8112.000000, 0.000000, 0.000000, 0.000000, 25899.000000, 55.897434, 4.000000, 4.000000, 4.000000, 4.000000, 4.000000, 4.000000, 4.000000, 4.000000, 4.000000, 4.000000, 4.000000, 4.000000, 4.000000, 4.000000, 4.000000, 4.000000
30.000000, 0.000000, 4184.102539, 4175.384277, 4194.358887, 4191.794922, 4184.615234, 4198.974121, 4200.512695, 4189.743652, 4204.615234, 4206.666504, 4197.436035, 4195.897461, 4222.051270, 4190.256348, 0.000000, 8202.000000, 8112.000000, 0.000000, 0.000000, 0.000000, 25899.000000, 63.589741, 4.000000, 4.000000, 4.000000, 4.000000, 4.000000, 4.000000, 4.000000, 4.000000, 4.000000, 4.000000, 4.000000, 4.000000, 4.000000, 4.000000, 4.000000, 4.000000
31.000000, 0.000000, 4189.230469, 4178.461426, 4198.974121, 4192.307617, 4199.487305, 4200.000000, 4196.410156, 4204.615234, 4213.846191, 4212.820313, 4202.051270, 4202.051270, 4234.358887, 4202.051270, 0.000000, 8195.000000, 8111.000000, 0.000000, 0.000000, 0.000000, 25899.000000, 71.794868, 4.000000, 4.000000, 4.000000, 4.000000, 4.000000, 4.000000, 4.000000, 4.000000, 4.000000, 4.000000, 4.000000, 4.000000, 4.000000, 4.000000, 4.000000, 4.000000
32.000000, 0.000000, 4187.179199, 4170.769043, 4188.717773, 4185.641113, 4202.563965, 4201.538574, 4202.051270, 4192.307617, 4212.307617, 4209.230469, 4201.538574, 4200.000000, 4234.358887, 4201.025391, 0.000000, 8195.000000, 8111.000000, 0.000000, 0.000000, 0.000000, 25899.000000, 79.487175, 4.000000, 4.000000, 4.000000, 4.000000, 4.000000, 4.000000, 4.000000, 4.000000, 4.000000, 4.000000, 4.000000, 4.000000, 4.000000, 4.000000, 4.000000, 4.000000
33.000000, 0.000000, 4182.051270, 4162.051270, 4181.538574, 4184.102539, 4186.666504, 4197.948730, 4210.256348, 4187.692383, 4209.230469, 4211.281738, 4202.563965, 4194.871582, 4233.333008, 4197.436035, 0.000000, 8176.000000, 8119.000000, 0.000000, 0.000000, 0.000000, 25899.000000, 87.692307, 4.000000, 4.000000, 4.000000, 4.000000, 4.000000, 4.000000, 4.000000, 4.000000, 4.000000, 4.000000, 4.000000, 4.000000, 4.000000, 4.000000, 4.000000, 4.000000
34.000000, 0.000000, 4182.051270, 4162.563965, 4186.153809, 4186.666504, 4186.666504, 4188.205078, 4200.512695, 4194.358887, 4208.717773, 4215.384277, 4200.000000, 4193.333008, 4235.384277, 4197.948730, 0.000000, 8176.000000, 8119.000000, 0.000000, 0.000000, 0.000000, 25899.000000, 95.384613, 4.000000, 4.000000, 4.000000, 4.000000, 4.000000, 4.000000, 4.000000, 4.000000, 4.000000, 4.000000, 4.000000, 4.000000, 4.000000, 4.000000, 4.000000, 4.000000
35.000000, 0.000000, 4189.743652, 4167.692383, 4193.846191, 4194.358887, 4195.897461, 4182.563965, 4186.666504, 4185.641113, 4207.179199, 4218.974121, 4205.127930, 4197.436035, 4238.974121, 4205.127930, 0.000000, 8171.000000, 8118.000000, 0.000000, 0.000000, 0.000000, 25899.000000, 103.589745, 4.000000, 4.000000, 4.000000, 4.000000, 4.000000, 4.000000, 4.000000, 4.000000, 4.000000, 4.000000, 4.000000, 4.000000, 4.000000, 4.000000, 4.000000, 4.000000
36.000000, 0.000000, 4195.384277, 4172.820313, 4199.487305, 4191.794922, 4193.333008, 4190.769043, 4197.948730, 4182.051270, 4213.846191, 4230.256348, 4218.461426, 4203.076660, 4247.179199, 4214.871582, 0.000000, 8171.000000, 8118.000000, 0.000000, 0.000000, 0.000000, 25899.000000, 111.282051, 4.000000, 4.000000, 4.000000, 4.000000, 4.000000, 4.000000, 4.000000, 4.000000, 4.000000, 4.000000, 4.000000, 4.000000, 4.000000, 4.000000, 4.000000, 4.000000
37.000000, 0.000000, 4192.820313, 4170.256348, 4201.538574, 4189.230469, 4190.256348, 4194.871582, 4209.230469, 4190.256348, 4215.897461, 4236.922852, 4216.410156, 4201.538574, 4249.743652, 4211.281738, 0.000000, 8166.000000, 8124.000000, 0.000000, 0.000000, 0.000000, 25899.000000, 119.487175, 4.000000, 4.000000, 4.000000, 4.000000, 4.000000, 4.000000, 4.000000, 4.000000, 4.000000, 4.000000, 4.000000, 4.000000, 4.000000, 4.000000, 4.000000, 4.000000
38.000000, 0.000000, 4187.179199, 4166.666504, 4197.436035, 4193.333008, 4183.589844, 4182.563965, 4187.692383, 4185.641113, 4202.051270, 4226.153809, 4202.051270, 4194.871582, 4236.922852, 4198.974121, 0.000000, 8166.000000, 8124.000000, 0.000000, 0.000000, 0.000000, 25899.000000, 127.179482, 4.000000, 4.000000, 4.000000, 4.000000, 4.000000, 4.000000, 4.000000, 4.000000, 4.000000, 4.000000, 4.000000, 4.000000, 4.000000, 4.000000, 4.000000, 4.000000
39.000000, 0.000000, 4188.205078, 4168.717773, 4197.436035, 4191.281738, 4175.384277, 4179.487305, 4176.922852, 4182.051270, 4199.487305, 4219.487305, 4205.127930, 4195.384277, 4230.769043, 4199.487305, 0.000000, 8160.000000, 8126.000000, 0.000000, 0.000000, 0.000000, 25899.000000, 135.384613, 4.000000, 4.000000, 4.000000, 4.000000, 4.000000, 4.000000, 4.000000, 4.000000, 4.000000, 4.000000, 4.000000, 4.000000, 4.000000, 4.000000, 4.000000, 4.000000
40.000000, 0.000000, 4191.281738, 4171.281738, 4201.025391, 4194.871582, 4186.153809, 4188.205078, 4200.512695, 4194.871582, 4209.230469, 4225.127930, 4217.948730, 4207.179199, 4240.512695, 4207.692383, 0.000000, 8160.000000, 8126.000000, 0.000000, 0.000000, 0.000000, 25899.000000, 143.076920, 4.000000, 4.000000, 4.000000, 4.000000, 4.000000, 4.000000, 4.000000, 4.000000, 4.000000, 4.000000, 4.000000, 4.000000, 4.000000, 4.000000, 4.000000, 4.000000
41.000000, 0.000000, 4189.743652, 4173.333008, 4203.589844, 4194.871582, 4199.487305, 4184.615234, 4206.153809, 4205.641113, 4208.205078, 4232.820313, 4218.461426, 4215.897461, 4249.230469, 4210.769043, 0.000000, 8164.000000, 8122.000000, 0.000000, 0.000000, 0.000000, 25899.000000, 151.282043, 4.000000, 4.000000, 4.000000, 4.000000, 4.000000, 4.000000, 4.000000, 4.000000, 4.000000, 4.000000, 4.000000, 4.000000, 4.000000, 4.000000, 4.000000, 4.000000
42.000000, 0.000000, 4190.256348, 4173.846191, 4201.025391, 4191.281738, 4190.769043, 4178.461426, 4185.127930, 4199.487305, 4203.076660, 4232.820313, 4215.897461, 4212.307617, 4247.692383, 4207.179199, 0.000000, 8164.000000, 8122.000000, 0.000000, 0.000000, 0.000000, 25899.000000, 159.487183, 4.000000, 4.000000, 4.000000, 4.000000, 4.000000, 4.000000, 4.000000, 4.000000, 4.000000, 4.000000, 4.000000, 4.000000, 4.000000, 4.000000, 4.000000, 4.000000
43.000000, 0.000000, 4184.102539, 4167.179199, 4190.769043, 4189.230469, 4183.589844, 4181.538574, 4178.461426, 4193.846191, 4209.743652, 4229.743652, 4212.307617, 4203.076660, 4240.000000, 4201.538574, 0.000000, 8165.000000, 8125.000000, 0.000000, 0.000000, 0.000000, 25899.000000, 167.179489, 4.000000, 4.000000, 4.000000, 4.000000, 4.000000, 4.000000, 4.000000, 4.000000, 4.000000, 4.000000, 4.000000, 4.000000, 4.000000, 4.000000, 4.000000, 4.000000
44.000000, 0.000000, 4176.922852, 4163.076660, 4185.641113, 4182.051270, 4189.230469, 4187.179199, 4196.922852, 4213.333008, 4222.051270, 4234.871582, 4206.666504, 4202.051270, 4234.358887, 4200.000000, 0.000000, 8165.000000, 8125.000000, 0.000000, 0.000000, 0.000000, 25899.000000, 174.871796, 4.000000, 4.000000, 4.000000, 4.000000, 4.000000, 4.000000, 4.000000, 4.000000, 4.000000, 4.000000, 4.000000, 4.000000, 4.000000, 4.000000, 4.000000, 4.000000
45.000000, 0.000000, 4177.948730, 4167.692383, 4181.025391, 4182.563965, 4184.615234, 4188.717773, 4201.538574, 4213.333008, 4220.000000, 4235.897461, 4201.025391, 4203.076660, 4232.307617, 4198.461426, 0.000000, 8173.000000, 8128.000000, 0.000000, 0.000000, 0.000000, 25899.000000, 183.076920, 4.000000, 4.000000, 4.000000, 4.000000, 4.000000, 4.000000, 4.000000, 4.000000, 4.000000, 4.000000, 4.000000, 4.000000, 4.000000, 4.000000, 4.000000, 4.000000
46.000000, 0.000000, 4176.410156, 4169.743652, 4170.256348, 4182.051270, 4182.563965, 4191.281738, 4190.256348, 4183.076660, 4213.333008, 4231.281738, 4200.000000, 4193.846191, 4238.461426, 4194.358887, 0.000000, 8173.000000, 8128.000000, 0.000000, 0.000000, 0.000000, 25899.000000, 191.282043, 4.000000, 4.000000, 4.000000, 4.000000, 4.000000, 4.000000, 4.000000, 4.000000, 4.000000, 4.000000, 4.000000, 4.000000, 4.000000, 4.000000, 4.000000, 4.000000
47.000000, 0.000000, 4177.436035, 4175.384277, 4168.717773, 4183.076660, 4198.974121, 4199.487305, 4194.871582, 4183.076660, 4217.436035, 4241.538574, 4209.230469, 4187.692383, 4247.179199, 4198.974121, 0.000000, 8173.000000, 8131.000000, 0.000000, 0.000000, 0.000000, 25899.000000, 198.974350, 4.000000, 4.000000, 4.000000, 4.000000, 4.000000, 4.000000, 4.000000, 4.000000, 4.000000, 4.000000, 4.000000, 4.000000, 4.000000, 4.000000, 4.000000, 4.000000
48.000000, 0.000000, 4178.461426, 4181.538574, 4174.358887, 4188.717773, 4205.127930, 4200.512695, 4205.127930, 4205.641113, 4218.461426, 4246.666504, 4209.743652, 4189.743652, 4241.538574, 4201.025391, 0.000000, 8173.000000, 8131.000000, 0.000000, 0.000000, 0.000000, 25899.000000, 206.666656, 4.000000, 4.000000, 4.000000, 4.000000, 4.000000, 4.000000, 4.000000, 4.000000, 4.000000, 4.000000, 4.000000, 4.000000, 4.000000, 4.000000, 4.000000, 4.000000
49.000000, 0.000000, 4168.205078, 4175.897461, 4170.769043, 4178.974121, 4201.538574, 4199.487305, 4208.205078, 4202.051270, 4207.692383, 4225.127930, 4189.743652, 4182.563965, 4222.563965, 4185.127930, 0.000000, 8186.000000, 8126.000000, 0.000000, 0.000000, 0.000000, 25899.000000, 214.871796, 4.000000, 4.000000, 4.000000, 4.000000, 4.000000, 4.000000, 4.000000, 4.000000, 4.000000, 4.000000, 4.000000, 4.000000, 4.000000, 4.000000, 4.000000, 4.000000
50.000000, 0.000000, 4159.487305, 4166.666504, 4166.666504, 4177.436035, 4209.743652, 4210.769043, 4216.410156, 4193.333008, 4204.615234, 4209.230469, 4174.358887, 4172.307617, 4211.281738, 4169.743652, 0.000000, 8186.000000, 8126.000000, 0.000000, 0.000000, 0.000000, 25899.000000, 223.076920, 4.000000, 4.000000, 4.000000, 4.000000, 4.000000, 4.000000, 4.000000, 4.000000, 4.000000, 4.000000, 4.000000, 4.000000, 4.000000, 4.000000, 4.000000, 4.000000
51.000000, 0.000000, 4165.127930, 4168.717773, 4168.205078, 4182.563965, 4213.846191, 4224.615234, 4221.025391, 4206.666504, 4221.538574, 4226.153809, 4187.179199, 4180.000000, 4220.000000, 4175.897461, 0.000000, 8190.000000, 8131.000000, 0.000000, 0.000000, 0.000000, 25899.000000, 230.769226, 4.000000, 4.000000, 4.000000, 4.000000, 4.000000, 4.000000, 4.000000, 4.000000, 4.000000, 4.000000, 4.000000, 4.000000, 4.000000, 4.000000, 4.000000, 4.000000
52.000000, 0.000000, 4173.846191, 4174.871582, 4170.256348, 4183.076660, 4201.538574, 4220.512695, 4206.153809, 4216.410156, 4235.897461, 4247.179199, 4208.205078, 4195.897461, 4238.974121, 4193.333008, 0.000000, 8190.000000, 8131.000000, 0.000000, 0.000000, 0.000000, 25899.000000, 238.461533, 4.000000, 4.000000, 4.000000, 4.000000, 4.000000, 4.000000, 4.000000, 4.000000, 4.000000, 4.000000, 4.000000, 4.000000, 4.000000, 4.000000, 4.000000, 4.000000
53.000000, 0.000000, 4176.410156, 4179.487305, 4178.974121, 4188.717773, 4195.897461, 4205.641113, 4197.948730, 4216.922852, 4237.436035, 4249.743652, 4214.871582, 4201.538574, 4248.717773, 4200.512695, 0.000000, 8199.000000, 8141.000000, 0.000000, 0.000000, 0.000000, 25899.000000, 246.666656, 4.000000, 4.000000, 4.000000, 4.000000, 4.000000, 4.000000, 4.000000, 4.000000, 4.000000, 4.000000, 4.000000, 4.000000, 4.000000, 4.000000, 4.000000, 4.000000
54.000000, 0.000000, 4184.615234, 4190.256348, 4186.153809, 4190.256348, 4206.153809, 4201.025391, 4203.589844, 4214.871582, 4234.871582, 4248.205078, 4215.897461, 4200.000000, 4250.256348, 4202.051270, 0.000000, 8199.000000, 8141.000000, 0.000000, 0.000000, 0.000000, 25899.000000, 254.871796, 4.000000, 4.000000, 4.000000, 4.000000, 4.000000, 4.000000, 4.000000, 4.000000, 4.000000, 4.000000, 4.000000, 4.000000, 4.000000, 4.000000, 4.000000, 4.000000
55.000000, 0.000000, 4194.358887, 4200.000000, 4187.692383, 4192.820313, 4211.794922, 4204.102539, 4201.538574, 4198.461426, 4226.666504, 4250.256348, 4219.487305, 4204.102539, 4259.487305, 4209.230469, 0.000000, 8206.000000, 8145.000000, 0.000000, 0.000000, 0.000000, 25899.000000, 262.564087, 4.000000, 4.000000, 4.000000, 4.000000, 4.000000, 4.000000, 4.000000, 4.000000, 4.000000, 4.000000, 4.000000, 4.000000, 4.000000, 4.000000, 4.000000, 4.000000
56.000000, 0.000000, 4194.871582, 4199.487305, 4189.743652, 4194.871582, 4206.153809, 4204.615234, 4198.974121, 4182.563965, 4216.410156, 4249.230469, 4220.512695, 4208.205078, 4266.153809, 4216.922852, 0.000000, 8206.000000, 8145.000000, 0.000000, 0.000000, 0.000000, 25899.000000, 270.769226, 4.000000, 4.000000, 4.000000, 4.000000, 4.000000, 4.000000, 4.000000, 4.000000, 4.000000, 4.000000, 4.000000, 4.000000, 4.000000, 4.000000, 4.000000, 4.000000
57.000000, 0.000000, 4191.281738, 4191.794922, 4190.769043, 4188.205078, 4202.563965, 4201.538574, 4202.051270, 4191.794922, 4218.461426, 4242.051270, 4216.922852, 4205.641113, 4256.410156, 4215.897461, 0.000000, 8218.000000, 8160.000000, 0.000000, 0.000000, 0.000000, 25899.000000, 278.461517, 4.000000, 4.000000, 4.000000, 4.000000, 4.000000, 4.000000, 4.000000, 4.000000, 4.000000, 4.000000, 4.000000, 4.000000, 4.000000, 4.000000, 4.000000, 4.000000
58.000000, 0.000000, 4188.205078, 4185.127930, 4187.692383, 4187.692383, 4196.922852, 4199.487305, 4201.538574, 4210.769043, 4224.102539, 4231.281738, 4212.307617, 4202.563965, 4241.538574, 4205.641113, 0.000000, 8218.000000, 8160.000000, 0.000000, 0.000000, 0.000000, 25899.000000, 286.666656, 4.000000, 4.000000, 4.000000, 4.000000, 4.000000, 4.000000, 4.000000, 4.000000, 4.000000, 4.000000, 4.000000, 4.000000, 4.000000, 4.000000, 4.000000, 4.000000
59.000000, 0.000000, 4191.794922, 4184.615234, 4185.127930, 4186.153809, 4183.589844, 4196.922852, 4203.589844, 4197.948730, 4209.230469, 4222.563965, 4204.615234, 4197.436035, 4237.948730, 4204.102539, 0.000000, 8222.000000, 8154.000000, 0.000000, 0.000000, 0.000000, 25899.000000, 294.358978, 4.000000, 4.000000, 4.000000, 4.000000, 4.000000, 4.000000, 4.000000, 4.000000, 4.000000, 4.000000, 4.000000, 4.000000, 4.000000, 4.000000, 4.000000, 4.000000
60.000000, 0.000000, 4205.641113, 4194.358887, 4189.230469, 4190.769043, 4183.076660, 4196.922852, 4200.512695, 4164.615234, 4188.205078, 4215.384277, 4198.974121, 4192.820313, 4243.076660, 4217.436035, 0.000000, 8222.000000, 8154.000000, 0.000000, 0.000000, 0.000000, 25899.000000, 302.564087, 4.000000, 4.000000, 4.000000, 4.000000, 4.000000, 4.000000, 4.000000, 4.000000, 4.000000, 4.000000, 4.000000, 4.000000, 4.000000, 4.000000, 4.000000, 4.000000
61.000000, 0.000000, 4224.102539, 4211.281738, 4196.922852, 4198.974121, 4200.512695, 4195.897461, 4185.641113, 4164.102539, 4191.794922, 4215.897461, 4206.666504, 4198.461426, 4249.230469, 4235.897461, 0.000000, 8230.000000, 8144.000000, 0.000000, 0.000000, 0.000000, 25899.000000, 310.256409, 4.000000, 4.000000, 4.000000, 4.000000, 4.000000, 4.000000, 4.000000, 4.000000, 4.000000, 4.000000, 4.000000, 4.000000, 4.000000, 4.000000, 4.000000, 4.000000
62.000000, 0.000000, 4238.461426, 4220.000000, 4203.589844, 4200.512695, 4207.179199, 4191.281738, 4180.000000, 4191.281738, 4206.666504, 4224.102539, 4216.922852, 4209.230469, 4257.948730, 4250.769043, 0.000000, 8230.000000, 8144.000000, 0.000000, 0.000000, 0.000000, 25899.000000, 318.461517, 4.000000, 4.000000, 4.000000, 4.000000, 4.000000, 4.000000, 4.000000, 4.000000, 4.000000, 4.000000, 4.000000, 4.000000, 4.000000, 4.000000, 4.000000, 4.000000
63.000000, 0.000000, 4244.102539, 4225.127930, 4206.153809, 4205.641113, 4202.051270, 4191.281738, 4183.589844, 4187.179199, 4200.000000, 4227.179199, 4218.974121, 4215.897461, 4268.717773, 4264.102539, 0.000000, 8233.000000, 8127.000000, 0.000000, 0.000000, 0.000000, 25899.000000, 326.153839, 4.000000, 4.000000, 4.000000, 4.000000, 4.000000, 4.000000, 4.000000, 4.000000, 4.000000, 4.000000, 4.000000, 4.000000, 4.000000, 4.000000, 4.000000, 4.000000
64.000000, 0.000000, 4250.256348, 4234.871582, 4204.102539, 4204.102539, 4202.563965, 4191.281738, 4184.615234, 4160.512695, 4184.102539, 4221.538574, 4218.461426, 4211.281738, 4271.281738, 4277.436035, 3492.000000, 8233.000000, 8127.000000, 0.000000, 0.000000, 0.000000, 25899.000000, 334.358978, 4.000000, 4.000000, 4.000000, 4.000000, 4.000000, 4.000000, 4.000000, 4.000000, 4.000000, 4.000000, 4.000000, 4.000000, 4.000000, 4.000000, 4.000000, 4.000000
65.000000, 0.000000, 4252.820313, 4236.410156, 4203.076660, 4198.974121, 4199.487305, 4189.230469, 4192.307617, 4174.358887, 4190.769043, 4216.410156, 4219.487305, 4204.102539, 4267.692383, 4281.538574, 2283.000000, 8227.000000, 8135.000000, 0.000000, 0.000000, 0.000000, 25899.000000, 342.051270, 4.000000, 4.000000, 4.000000, 4.000000, 4.000000, 4.000000, 4.000000, 4.000000, 4.000000, 4.000000, 4.000000, 4.000000, 4.000000, 4.000000, 4.000000, 4.000000
66.000000, 0.000000, 4249.743652, 4228.205078, 4200.512695, 4198.974121, 4197.948730, 4195.384277, 4203.589844, 4201.025391, 4204.102539, 4218.974121, 4224.102539, 4207.179199, 4270.769043, 4281.538574, 3123.000000, 8227.000000, 8135.000000, 0.000000, 0.000000, 0.000000, 25899.000000, 350.256409, 4.000000, 4.000000, 4.000000, 4.000000, 4.000000, 4.000000, 4.000000, 4.000000, 4.000000, 4.000000, 4.000000, 4.000000, 4.000000, 4.000000, 4.000000, 4.000000
67.000000, 0.000000, 4250.769043, 4229.230469, 4201.538574, 4196.410156, 4205.127930, 4207.179199, 4203.076660, 4190.256348, 4202.563965, 4223.076660, 4229.743652, 4215.897461, 4274.358887, 4283.589844, 3547.000000, 8220.000000, 8138.000000, 0.000000, 0.000000, 0.000000, 25899.000000, 357.948700, 4.000000, 4.000000, 4.000000, 4.000000, 4.000000, 4.000000, 4.000000, 4.000000, 4.000000, 4.000000, 4.000000, 4.000000, 4.000000, 4.000000, 4.000000, 4.000000
68.000000, 0.000000, 4249.743652, 4228.717773, 4209.743652, 4201.025391, 4206.666504, 4199.487305, 4201.025391, 4185.641113, 4196.922852, 4218.461426, 4232.307617, 4218.974121, 4268.717773, 4285.641113, 3527.000000, 8220.000000, 8138.000000, 0.000000, 0.000000, 0.000000, 25899.000000, 366.153839, 4.000000, 4.000000, 4.000000, 4.000000, 4.000000, 4.000000, 4.000000, 4.000000, 4.000000, 4.000000, 4.000000, 4.000000, 4.000000, 4.000000, 4.000000, 4.000000
69.000000, 0.000000, 4245.641113, 4215.897461, 4215.897461, 4201.538574, 4200.000000, 4187.179199, 4206.153809, 4205.641113, 4204.615234, 4214.358887, 4229.743652, 4218.974121, 4261.025391, 4281.025391, 3564.000000, 8220.000000, 8136.000000, 0.000000, 0.000000, 0.000000, 25899.000000, 373.846130, 4.000000, 4.000000, 4.000000, 4.000000, 4.000000, 4.000000, 4.000000, 4.000000, 4.000000, 4.000000, 4.000000, 4.000000, 4.000000, 4.000000, 4.000000, 4.000000
70.000000, 0.000000, 4249.230469, 4211.794922, 4214.358887, 4203.076660, 4197.948730, 4190.769043, 4201.025391, 4203.076660, 4205.641113, 4213.333008, 4225.641113, 4220.512695, 4258.461426, 4269.743652, 3503.000000, 8220.000000, 8136.000000, 0.000000, 0.000000, 0.000000, 25899.000000, 382.051270, 4.000000, 4.000000, 4.000000, 4.000000, 4.000000, 4.000000, 4.000000, 4.000000, 4.000000, 4.000000, 4.000000, 4.000000, 4.000000, 4.000000, 4.000000, 4.000000
71.000000, 0.000000, 4248.205078, 4221.538574, 4215.897461, 4208.717773, 4206.666504, 4193.333008, 4188.205078, 4183.589844, 4201.538574, 4215.897461, 4227.179199, 4216.922852, 4256.410156, 4263.589844, 3510.000000, 8214.000000, 8124.000000, 0.000000, 0.000000, 0.000000, 25899.000000, 389.743591, 4.000000, 4.000000, 4.000000, 4.000000, 4.000000, 4.000000, 4.000000, 4.000000, 4.000000, 4.000000, 4.000000, 4.000000, 4.000000, 4.000000, 4.000000, 4.000000
72.000000, 0.000000, 4240.512695, 4221.025391, 4218.974121, 4207.179199, 4216.410156, 4186.666504, 4181.538574, 4187.179199, 4210.256348, 4218.461426, 4231.281738, 4215.897461, 4252.820313, 4267.179199, 3356.000000, 8214.000000, 8124.000000, 0.000000, 0.000000, 0.000000, 25899.000000, 397.948700, 4.000000, 4.000000, 4.000000, 4.000000, 4.000000, 4.000000, 4.000000, 4.000000, 4.000000, 4.000000, 4.000000, 4.000000, 4.000000, 4.000000, 4.000000, 4.000000
73.000000, 0.000000, 4229.230469, 4203.076660, 4208.205078, 4206.153809, 4211.281738, 4181.538574, 4185.127930, 4208.205078, 4215.897461, 4215.897461, 4226.666504, 4216.922852, 4245.641113, 4260.512695, 3529.000000, 8211.000000, 8125.000000, 0.000000, 0.000000, 0.000000, 25899.000000, 405.641022, 4.000000, 4.000000, 4.000000, 4.000000, 4.000000, 4.000000, 4.000000, 4.000000, 4.000000, 4.000000, 4.000000, 4.000000, 4.000000, 4.000000, 4.000000, 4.000000
74.000000, 0.000000, 4220.000000, 4198.974121, 4203.589844, 4204.102539, 4206.153809, 4185.641113, 4190.256348, 4222.563965, 4214.871582, 4220.000000, 4225.641113, 4214.871582, 4245.127930, 4250.256348, 3287.000000, 8211.000000, 8125.000000, 0.000000, 0.000000, 0.000000, 25899.000000, 413.846130, 4.000000, 4.000000, 4.000000, 4.000000, 4.000000, 4.000000, 4.000000, 4.000000, 4.000000, 4.000000, 4.000000, 4.000000, 4.000000, 4.000000, 4.000000, 4.000000
75.000000, 0.000000, 4224.615234, 4210.256348, 4216.410156, 4207.692383, 4211.794922, 4190.769043, 4190.769043, 4211.794922, 4216.410156, 4232.820313, 4234.871582, 4219.487305, 4251.794922, 4258.461426, 3565.000000, 8209.000000, 8116.000000, 0.000000, 0.000000, 0.000000, 25899.000000, 421.538452, 4.000000, 4.000000, 4.000000, 4.000000, 4.000000, 4.000000, 4.000000, 4.000000, 4.000000, 4.000000, 4.000000, 4.000000, 4.000000, 4.000000, 4.000000, 4.000000
76.000000, 0.000000, 4228.717773, 4204.615234, 4219.487305, 4212.307617, 4207.179199, 4188.205078, 4190.256348, 4190.256348, 4216.410156, 4232.820313, 4229.743652, 4220.512695, 4244.102539, 4256.410156, 3528.000000, 8209.000000, 8116.000000, 0.000000, 0.000000, 0.000000, 25899.000000, 429.743591, 4.000000, 4.000000, 4.000000, 4.000000, 4.000000, 4.000000, 4.000000, 4.000000, 4.000000, 4.000000, 4.000000, 4.000000, 4.000000, 4.000000, 4.000000, 4.000000
77.000000, 0.000000, 4218.461426, 4188.205078, 4212.307617, 4204.102539, 4199.487305, 4183.076660, 4186.666504, 4207.179199, 4218.461426, 4224.102539, 4215.384277, 4215.384277, 4230.769043, 4233.846191, 3473.000000, 8194.000000, 8111.000000, 0.000000, 0.000000, 0.000000, 25899.000000, 437.435883, 4.000000, 4.000000, 4.000000, 4.000000, 4.000000, 4.000000, 4.000000, 4.000000, 4.000000, 4.000000, 4.000000, 4.000000, 4.000000, 4.000000, 4.000000, 4.000000
78.000000, 0.000000, 4211.281738, 4184.102539, 4210.769043, 4205.127930, 4207.179199, 4186.666504, 4181.025391, 4225.127930, 4222.563965, 4224.102539, 4214.871582, 4215.897461, 4230.256348, 4228.205078, 3287.000000, 8194.000000, 8111.000000, 0.000000, 0.000000, 0.000000, 25899.000000, 445.641022, 4.000000, 4.000000, 4.000000, 4.000000, 4.000000, 4.000000, 4.000000, 4.000000, 4.000000, 4.000000, 4.000000, 4.000000, 4.000000, 4.000000, 4.000000, 4.000000
79.000000, 0.000000, 4211.794922, 4187.179199, 4206.153809, 4207.179199, 4213.333008, 4198.461426, 4187.692383, 4197.436035, 4212.307617, 4222.563965, 4217.436035, 4217.436035, 4231.281738, 4235.384277, 3565.000000, 8194.000000, 8108.000000, 0.000000, 0.000000, 0.000000, 25899.000000, 453.333313, 4.000000, 4.000000, 4.000000, 4.000000, 4.000000, 4.000000, 4.000000, 4.000000, 4.000000, 4.000000, 4.000000, 4.000000, 4.000000, 4.000000, 4.000000, 4.000000
80.000000, 0.000000, 4206.666504, 4183.589844, 4199.487305, 4201.025391, 4207.692383, 4203.076660, 4200.000000, 4183.589844, 4204.102539, 4214.871582, 4211.281738, 4214.871582, 4225.641113, 4231.281738, 3528.000000, 8194.000000, 8108.000000, 0.000000, 0.000000, 0.000000, 25899.000000, 461.538452, 4.000000, 4.000000, 4.000000, 4.000000, 4.000000, 4.000000, 4.000000, 4.000000, 4.000000, 4.000000, 4.000000, 4.000000, 4.000000, 4.000000, 4.000000, 4.000000
81.000000, 0.000000, 4196.410156, 4176.922852, 4200.512695, 4201.538574, 4203.076660, 4199.487305, 4198.974121, 4202.051270, 4212.820313, 4214.358887, 4211.281738, 4216.410156, 4222.051270, 4224.102539, 3473.000000, 8191.000000, 8102.000000, 0.000000, 0.000000, 0.000000, 25899.000000, 469.230743, 4.000000, 4.000000, 4.000000, 4.000000, 4.000000, 4.000000, 4.000000, 4.000000, 4.000000, 4.000000, 4.000000, 4.000000, 4.000000, 4.000000, 4.000000, 4.000000
82.000000, 0.000000, 4190.769043, 4171.794922, 4200.512695, 4200.000000, 4203.589844, 4199.487305, 4197.436035, 4213.333008, 4218.974121, 4219.487305, 4216.922852, 4217.948730, 4224.615234, 4222.051270, 3287.000000, 8191.000000, 8102.000000, 0.000000, 0.000000, 0.000000, 25899.000000, 477.435883, 4.000000, 4.000000, 4.000000, 4.000000, 4.000000, 4.000000, 4.000000, 4.000000, 4.000000, 4.000000, 4.000000, 4.000000, 4.000000, 4.000000, 4.000000, 4.000000
83.000000, 0.000000, 4191.794922, 4169.743652, 4198.461426, 4201.025391, 4200.512695, 4202.563965, 4205.641113, 4213.846191, 4216.410156, 4223.589844, 4215.897461, 4218.461426, 4225.127930, 4221.538574, 3565.000000, 8188.000000, 8106.000000, 0.000000, 0.000000, 0.000000, 25899.000000, 485.128204, 4.000000, 4.000000, 4.000000, 4.000000, 4.000000, 4.000000, 4.000000, 4.000000, 4.000000, 4.000000, 4.000000, 4.000000, 4.000000, 4.000000, 4.000000, 4.000000
84.000000, 0.000000, 4192.820313, 4169.743652, 4201.538574, 4200.512695, 4193.333008, 4195.384277, 4205.127930, 4209.743652, 4215.897461, 4228.205078, 4215.897461, 4222.051270, 4223.589844, 4223.589844, 3528.000000, 8188.000000, 8106.000000, 0.000000, 0.000000, 0.000000, 25899.000000, 492.820496, 4.000000, 4.000000, 4.000000, 4.000000, 4.000000, 4.000000, 4.000000, 4.000000, 4.000000, 4.000000, 4.000000, 4.000000, 4.000000, 4.000000, 4.000000, 4.000000
85.000000, 0.000000, 4187.692383, 4167.692383, 4198.461426, 4196.922852, 4192.820313, 4189.743652, 4198.461426, 4204.615234, 4214.871582, 4230.769043, 4217.948730, 4220.000000, 4222.051270, 4220.000000, 3473.000000, 8185.000000, 8107.000000, 0.000000, 0.000000, 0.000000, 25899.000000, 501.025635, 4.000000, 4.000000, 4.000000, 4.000000, 4.000000, 4.000000, 4.000000, 4.000000, 4.000000, 4.000000, 4.000000, 4.000000, 4.000000, 4.000000, 4.000000, 4.000000
86.000000, 0.000000, 4179.487305, 4166.153809, 4189.230469, 4200.512695, 4200.512695, 4197.948730, 4205.641113, 4209.743652, 4218.974121, 4230.256348, 4216.922852, 4216.922852, 4221.025391, 4212.307617, 3287.000000, 8185.000000, 8107.000000, 0.000000, 0.000000, 0.000000, 25899.000000, 509.230743, 4.000000, 4.000000, 4.000000, 4.000000, 4.000000, 4.000000, 4.000000, 4.000000, 4.000000, 4.000000, 4.000000, 4.000000, 4.000000, 4.000000, 4.000000, 4.000000
87.000000, 0.000000, 4178.974121, 4168.717773, 4188.717773, 4200.000000, 4205.127930, 4208.717773, 4217.436035, 4224.102539, 4231.794922, 4237.948730, 4222.563965, 4225.127930, 4227.179199, 4214.871582, 3565.000000, 8171.000000, 8125.000000, 0.000000, 0.000000, 0.000000, 25899.000000, 516.923035, 4.000000, 4.000000, 4.000000, 4.000000, 4.000000, 4.000000, 4.000000, 4.000000, 4.000000, 4.000000, 4.000000, 4.000000, 4.000000, 4.000000, 4.000000, 4.000000
88.000000, 0.000000, 4183.589844, 4172.307617, 4192.820313, 4200.512695, 4207.179199, 4209.743652, 4221.538574, 4228.717773, 4235.897461, 4248.717773, 4230.256348, 4230.256348, 4232.307617, 4220.512695, 3528.000000, 8171.000000, 8125.000000, 0.000000, 0.000000, 0.000000, 25899.000000, 524.615356, 4.000000, 4.000000, 4.000000, 4.000000, 4.000000, 4.000000, 4.000000, 4.000000, 4.000000, 4.000000, 4.000000, 4.000000, 4.000000, 4.000000, 4.000000, 4.000000
89.000000, 0.000000, 4180.512695, 4165.641113, 4188.717773, 4198.974121, 4209.230469, 4206.666504, 4217.436035, 4223.076660, 4224.102539, 4243.589844, 4221.538574, 4216.922852, 4225.127930, 4211.794922, 3473.000000, 8165.000000, 8133.000000, 0.000000, 0.000000, 0.000000, 25899.000000, 532.820496, 4.000000, 4.000000, 4.000000, 4.000000, 4.000000, 4.000000, 4.000000, 4.000000, 4.000000, 4.000000, 4.000000, 4.000000, 4.000000, 4.000000, 4.000000, 4.000000
90.000000, 0.000000, 4171.281738, 4155.384277, 4180.512695, 4192.820313, 4196.410156, 4197.436035, 4208.717773, 4215.384277, 4214.871582, 4230.256348, 4209.230469, 4200.000000, 4212.820313, 4198.461426, 3287.000000, 8165.000000, 8133.000000, 0.000000, 0.000000, 0.000000, 25899.000000, 541.025635, 4.000000, 4.000000, 4.000000, 4.000000, 4.000000, 4.000000, 4.000000, 4.000000, 4.000000, 4.000000, 4.000000, 4.000000, 4.000000, 4.000000, 4.000000, 4.000000
91.000000, 0.000000, 4172.820313, 4155.897461, 4183.076660, 4195.897461, 4181.538574, 4182.051270, 4204.102539, 4212.307617, 4216.922852, 4228.205078, 4209.743652, 4199.487305, 4211.281738, 4197.436035, 3565.000000, 8148.000000, 8145.000000, 0.000000, 0.000000, 0.000000, 25899.000000, 548.717957, 4.000000, 4.000000, 4.000000, 4.000000, 4.000000, 4.000000, 4.000000, 4.000000, 4.000000, 4.000000, 4.000000, 4.000000, 4.000000, 4.000000, 4.000000, 4.000000
92.000000, 0.000000, 4181.025391, 4163.076660, 4189.743652, 4196.922852, 4190.256348, 4172.820313, 4197.436035, 4210.769043, 4223.076660, 4229.743652, 4209.230469, 4205.127930, 4219.487305, 4203.589844, 3528.000000, 8148.000000, 8145.000000, 0.000000, 0.000000, 0.000000, 25899.000000, 556.410217, 4.000000, 4.000000, 4.000000, 4.000000, 4.000000, 4.000000, 4.000000, 4.000000, 4.000000, 4.000000, 4.000000, 4.000000, 4.000000, 4.000000, 4.000000, 4.000000
93.000000, 0.000000, 4179.487305, 4158.461426, 4190.256348, 4196.410156, 4198.974121, 4175.384277, 4186.666504, 4198.461426, 4215.897461, 4219.487305, 4202.051270, 4198.974121, 4215.897461, 4198.974121, 3473.000000, 8148.000000, 8158.000000, 0.000000, 0.000000, 0.000000, 25899.000000, 564.615356, 4.000000, 4.000000, 4.000000, 4.000000, 4.000000, 4.000000, 4.000000, 4.000000, 4.000000, 4.000000, 4.000000, 4.000000, 4.000000, 4.000000, 4.000000, 4.000000
94.000000, 0.000000, 4174.358887, 4153.846191, 4185.641113, 4194.358887, 4195.897461, 4182.051270, 4182.563965, 4192.307617, 4201.538574, 4209.743652, 4195.897461, 4189.230469, 4202.051270, 4187.692383, 3287.000000, 8148.000000, 8158.000000, 0.000000, 0.000000, 0.000000, 25899.000000, 572.307678, 4.000000, 4.000000, 4.000000, 4.000000, 4.000000, 4.000000, 4.000000, 4.000000, 4.000000, 4.000000, 4.000000, 4.000000, 4.000000, 4.000000, 4.000000, 4.000000
95.000000, 0.000000, 4174.358887, 4162.051270, 4184.615234, 4189.743652, 4198.461426, 4183.589844, 4186.153809, 4204.615234, 4205.641113, 4210.769043, 4194.358887, 4187.179199, 4198.974121, 4185.127930, 3565.000000, 8146.000000, 8181.000000, 0.000000, 0.000000, 0.000000, 25899.000000, 580.512817, 4.000000, 4.000000, 4.000000, 4.000000, 4.000000, 4.000000, 4.000000, 4.000000, 4.000000, 4.000000, 4.000000, 4.000000, 4.000000, 4.000000, 4.000000, 4.000000
96.000000, 0.000000, 4171.281738, 4165.127930, 4186.153809, 4192.820313, 4203.589844, 4187.179199, 4192.307617, 4215.897461, 4218.461426, 4213.846191, 4192.820313, 4188.717773, 4207.179199, 4186.666504, 3528.000000, 8146.000000, 8181.000000, 0.000000, 0.000000, 0.000000, 25899.000000, 588.205139, 4.000000, 4.000000, 4.000000, 4.000000, 4.000000, 4.000000, 4.000000, 4.000000, 4.000000, 4.000000, 4.000000, 4.000000, 4.000000, 4.000000, 4.000000, 4.000000
97.000000, 0.000000, 4168.717773, 4162.563965, 4180.512695, 4194.871582, 4204.102539, 4198.461426, 4197.948730, 4215.897461, 4217.436035, 4216.410156, 4194.358887, 4181.025391, 4211.794922, 4185.127930, 3473.000000, 8157.000000, 8184.000000, 0.000000, 0.000000, 0.000000, 25899.000000, 596.410217, 4.000000, 4.000000, 4.000000, 4.000000, 4.000000, 4.000000, 4.000000, 4.000000, 4.000000, 4.000000, 4.000000, 4.000000, 4.000000, 4.000000, 4.000000, 4.000000
98.000000, 0.000000, 4172.820313, 4167.692383, 4174.871582, 4196.922852, 4205.127930, 4202.563965, 4201.025391, 4217.436035, 4213.846191, 4219.487305, 4201.025391, 4172.820313, 4212.820313, 4186.153809, 3287.000000, 8157.000000, 8184.000000, 0.000000, 0.000000, 0.000000, 25899.000000, 604.102539, 4.000000, 4.000000, 4.000000, 4.000000, 4.000000, 4.000000, 4.000000, 4.000000, 4.000000, 4.000000, 4.000000, 4.000000, 4.000000, 4.000000, 4.000000, 4.000000
99.000000, 0.000000, 4171.281738, 4167.692383, 4174.358887, 4195.384277, 4201.538574, 4191.794922, 4204.102539, 4220.512695, 4215.897461, 4218.974121, 4200.512695, 4175.384277, 4211.794922, 4188.205078, 3565.000000, 8165.000000, 8182.000000, 0.000000, 0.000000, 0.000000, 25899.000000, 612.307678, 4.000000, 4.000000, 4.000000, 4.000000, 4.000000, 4.000000, 4.000000, 4.000000, 4.000000, 4.000000, 4.000000, 4.000000, 4.000000, 4.000000, 4.000000, 4.000000
100.000000, 0.000000, 4168.717773, 4161.025391, 4169.743652, 4185.641113, 4200.000000, 4187.179199, 4200.000000, 4204.615234, 4212.820313, 4215.384277, 4192.820313, 4180.000000, 4209.743652, 4184.615234, 3528.000000, 8165.000000, 8182.000000, 0.000000, 0.000000, 0.000000, 25899.000000, 620.000000, 4.000000, 4.000000, 4.000000, 4.000000, 4.000000, 4.000000, 4.000000, 4.000000, 4.000000, 4.000000, 4.000000, 4.000000, 4.000000, 4.000000, 4.000000, 4.000000
101.000000, 0.000000, 4173.333008, 4163.076660, 4167.692383, 4189.230469, 4205.127930, 4196.410156, 4187.692383, 4201.538574, 4214.358887, 4221.538574, 4196.922852, 4186.666504, 4214.871582, 4187.692383, 3473.000000, 8165.000000, 8186.000000, 0.000000, 0.000000, 0.000000, 25899.000000, 628.205139, 4.000000, 4.000000, 4.000000, 4.000000, 4.000000, 4.000000, 4.000000, 4.000000, 4.000000, 4.000000, 4.000000, 4.000000, 4.000000, 4.000000, 4.000000, 4.000000
102.000000, 0.000000, 4180.000000, 4172.820313, 4178.461426, 4194.358887, 4205.127930, 4202.051270, 4186.666504, 4220.000000, 4222.563965, 4235.384277, 4207.179199, 4195.384277, 4220.512695, 4199.487305, 3287.000000, 8165.000000, 8186.000000, 0.000000, 0.000000, 0.000000, 25899.000000, 635.897400, 4.000000, 4.000000, 4.000000, 4.000000, 4.000000, 4.000000, 4.000000, 4.000000, 4.000000, 4.000000, 4.000000, 4.000000, 4.000000, 4.000000, 4.000000, 4.000000
103.000000, 0.000000, 4181.025391, 4175.897461, 4186.666504, 4196.922852, 4206.666504, 4206.153809, 4201.025391, 4208.717773, 4216.922852, 4231.281738, 4204.615234, 4200.512695, 4217.948730, 4201.538574, 3565.000000, 8161.000000, 8193.000000, 0.000000, 0.000000, 0.000000, 25899.000000, 644.102539, 4.000000, 4.000000, 4.000000, 4.000000, 4.000000, 4.000000, 4.000000, 4.000000, 4.000000, 4.000000, 4.000000, 4.000000, 4.000000, 4.000000, 4.000000, 4.000000
104.000000, 0.000000, 4176.922852, 4173.846191, 4183.589844, 4200.512695, 4210.769043, 4216.410156, 4214.358887, 4190.256348, 4210.769043, 4217.436035, 4200.000000, 4200.000000, 4213.333008, 4195.384277, 3528.000000, 8161.000000, 8193.000000, 0.000000, 0.000000, 0.000000, 25899.000000, 651.794861, 4.000000, 4.000000, 4.000000, 4.000000, 4.000000, 4.000000, 4.000000, 4.000000, 4.000000, 4.000000, 4.000000, 4.000000, 4.000000, 4.000000, 4.000000, 4.000000
105.000000, 0.000000, 4177.436035, 4170.769043, 4185.641113, 4195.897461, 4202.563965, 4217.436035, 4220.512695, 4206.666504, 4214.871582, 4215.384277, 4203.589844, 4200.000000, 4214.358887, 4195.897461, 3473.000000, 8133.000000, 8190.000000, 0.000000, 0.000000, 0.000000, 25899.000000, 660.000000, 4.000000, 4.000000, 4.000000, 4.000000, 4.000000, 4.000000, 4.000000, 4.000000, 4.000000, 4.000000, 4.000000, 4.000000, 4.000000, 4.000000, 4.000000, 4.000000
106.000000, 0.000000, 4186.153809, 4172.307617, 4190.769043, 4196.922852, 4193.846191, 4203.589844, 4217.436035, 4219.487305, 4218.461426, 4219.487305, 4205.641113, 4203.076660, 4217.948730, 4202.563965, 3287.000000, 8133.000000, 8190.000000, 0.000000, 0.000000, 0.000000, 25899.000000, 668.205139, 4.000000, 4.000000, 4.000000, 4.000000, 4.000000, 4.000000, 4.000000, 4.000000, 4.000000, 4.000000, 4.000000, 4.000000, 4.000000, 4.000000, 4.000000, 4.000000
107.000000, 0.000000, 4182.563965, 4166.153809, 4186.666504, 4194.358887, 4199.487305, 4199.487305, 4210.256348, 4217.436035, 4227.179199, 4221.538574, 4202.563965, 4205.127930, 4207.692383, 4196.922852, 3565.000000, 8114.000000, 8182.000000, 0.000000, 0.000000, 0.000000, 25899.000000, 675.897400, 4.000000, 4.000000, 4.000000, 4.000000, 4.000000, 4.000000, 4.000000, 4.000000, 4.000000, 4.000000, 4.000000, 4.000000, 4.000000, 4.000000, 4.000000, 4.000000
108.000000, 0.000000, 4174.358887, 4160.000000, 4184.102539, 4190.769043, 4205.127930, 4204.615234, 4208.205078, 4221.538574, 4236.410156, 4230.769043, 4206.666504, 4208.717773, 4202.051270, 4190.256348, 3528.000000, 8114.000000, 8182.000000, 0.000000, 0.000000, 0.000000, 25899.000000, 683.589722, 4.000000, 4.000000, 4.000000, 4.000000, 4.000000, 4.000000, 4.000000, 4.000000, 4.000000, 4.000000, 4.000000, 4.000000, 4.000000, 4.000000, 4.000000, 4.000000
109.000000, 0.000000, 4184.102539, 4174.358887, 4190.769043, 4200.000000, 4204.102539, 4204.615234, 4205.127930, 4212.820313, 4233.333008, 4243.589844, 4222.051270, 4215.384277, 4224.615234, 4205.641113, 3473.000000, 8095.000000, 8175.000000, 0.000000, 0.000000, 0.000000, 25899.000000, 691.794861, 4.000000, 4.000000, 4.000000, 4.000000, 4.000000, 4.000000, 4.000000, 4.000000, 4.000000, 4.000000, 4.000000, 4.000000, 4.000000, 4.000000, 4.000000, 4.000000
110.000000, 0.000000, 4196.922852, 4184.615234, 4191.794922, 4201.538574, 4204.102539, 4202.051270, 4196.410156, 4194.871582, 4225.641113, 4238.974121, 4230.256348, 4214.358887, 4243.076660, 4223.076660, 3287.000000, 8095.000000, 8175.000000, 0.000000, 0.000000, 0.000000, 25899.000000, 700.000000, 4.000000, 4.000000, 4.000000, 4.000000, 4.000000, 4.000000, 4.000000, 4.000000, 4.000000, 4.000000, 4.000000, 4.000000, 4.000000, 4.000000, 4.000000, 4.000000
111.000000, 0.000000, 4190.256348, 4172.820313, 4188.205078, 4196.410156, 4202.563965, 4198.461426, 4193.846191, 4200.000000, 4223.589844, 4220.000000, 4221.538574, 4204.615234, 4234.358887, 4217.948730, 3565.000000, 8043.000000, 8155.000000, 0.000000, 0.000000, 0.000000, 25899.000000, 707.692261, 4.000000, 4.000000, 4.000000, 4.000000, 4.000000, 4.000000, 4.000000, 4.000000, 4.000000, 4.000000, 4.000000, 4.000000, 4.000000, 4.000000, 4.000000, 4.000000
112.000000, 0.000000, 4183.076660, 4164.102539, 4187.179199, 4189.743652, 4194.871582, 4200.000000, 4207.692383, 4212.820313, 4220.512695, 4210.769043, 4214.871582, 4200.512695, 4230.256348, 4210.769043, 3528.000000, 8043.000000, 8155.000000, 0.000000, 0.000000, 0.000000, 25899.000000, 715.384583, 4.000000, 4.000000, 4.000000, 4.000000, 4.000000, 4.000000, 4.000000, 4.000000, 4.000000, 4.000000, 4.000000, 4.000000, 4.000000, 4.000000, 4.000000, 4.000000
113.000000, 0.000000, 4188.717773, 4163.076660, 4186.153809, 4186.153809, 4194.358887, 4208.717773, 4225.641113, 4215.897461, 4217.436035, 4215.384277, 4218.461426, 4197.436035, 4239.487305, 4217.436035, 3473.000000, 8023.000000, 8149.000000, 0.000000, 0.000000, 0.000000, 25899.000000, 723.589722, 4.000000, 4.000000, 4.000000, 4.000000, 4.000000, 4.000000, 4.000000, 4.000000, 4.000000, 4.000000, 4.000000, 4.000000, 4.000000, 4.000000, 4.000000, 4.000000
114.000000, 0.000000, 4187.179199, 4156.922852, 4183.589844, 4187.692383, 4200.512695, 4207.179199, 4214.358887, 4216.410156, 4218.461426, 4212.307617, 4218.461426, 4188.717773, 4236.922852, 4215.897461, 3287.000000, 8023.000000, 8149.000000, 0.000000, 0.000000, 0.000000, 25899.000000, 731.794861, 4.000000, 4.000000, 4.000000, 4.000000, 4.000000, 4.000000, 4.000000, 4.000000, 4.000000, 4.000000, 4.000000, 4.000000, 4.000000, 4.000000, 4.000000, 4.000000
115.000000, 0.000000, 4181.025391, 4152.820313, 4182.563965, 4185.127930, 4190.769043, 4196.922852, 4189.743652, 4207.179199, 4215.897461, 4204.102539, 4209.230469, 4186.153809, 4229.230469, 4204.102539, 3565.000000, 7994.000000, 8135.000000, 0.000000, 0.000000, 0.000000, 25899.000000, 739.487183, 4.000000, 4.000000, 4.000000, 4.000000, 4.000000, 4.000000, 4.000000, 4.000000, 4.000000, 4.000000, 4.000000, 4.000000, 4.000000, 4.000000, 4.000000, 4.000000
116.000000, 0.000000, 4183.076660, 4155.384277, 4187.692383, 4190.769043, 4184.102539, 4199.487305, 4202.563965, 4198.461426, 4211.281738, 4208.717773, 4204.615234, 4196.410156, 4228.205078, 4203.589844, 3528.000000, 7994.000000, 8135.000000, 0.000000, 0.000000, 0.000000, 25899.000000, 747.179443, 4.000000, 4.000000, 4.000000, 4.000000, 4.000000, 4.000000, 4.000000, 4.000000, 4.000000, 4.000000, 4.000000, 4.000000, 4.000000, 4.000000, 4.000000, 4.000000
117.000000, 0.000000, 4186.666504, 4158.461426, 4193.333008, 4191.281738, 4197.948730, 4201.538574, 4222.563965, 4213.333008, 4217.436035, 4215.897461, 4210.769043, 4202.563965, 4232.820313, 4211.794922, 3473.000000, 7985.000000, 8125.000000, 0.000000, 0.000000, 0.000000, 25899.000000, 755.384583, 4.000000, 4.000000, 4.000000, 4.000000, 4.000000, 4.000000, 4.000000, 4.000000, 4.000000, 4.000000, 4.000000, 4.000000, 4.000000, 4.000000, 4.000000, 4.000000
118.000000, 0.000000, 4184.102539, 4157.948730, 4190.256348, 4184.615234, 4200.512695, 4187.179199, 4198.461426, 4229.230469, 4226.666504, 4214.358887, 4212.820313, 4195.897461, 4232.820313, 4210.256348, 3287.000000, 7985.000000, 8125.000000, 0.000000, 0.000000, 0.000000, 25899.000000, 763.589722, 4.000000, 4.000000, 4.000000, 4.000000, 4.000000, 4.000000, 4.000000, 4.000000, 4.000000, 4.000000, 4.000000, 4.000000, 4.000000, 4.000000, 4.000000, 4.000000
119.000000, 0.000000, 4177.948730, 4152.820313, 4183.589844, 4188.205078, 4188.205078, 4177.948730, 4175.384277, 4208.205078, 4216.410156, 4210.769043, 4204.102539, 4192.820313, 4227.179199, 4200.512695, 3565.000000, 7965.000000, 8113.000000, 0.000000, 0.000000, 0.000000, 25899.000000, 771.282043, 4.000000, 4.000000, 4.000000, 4.000000, 4.000000, 4.000000, 4.000000, 4.000000, 4.000000, 4.000000, 4.000000, 4.000000, 4.000000, 4.000000, 4.000000, 4.000000
120.000000, 0.000000, 4180.000000, 4156.410156, 4186.153809, 4188.205078, 4192.820313, 4189.743652, 4188.205078, 4176.922852, 4204.615234, 4213.333008, 4202.563965, 4196.922852, 4228.717773, 4201.538574, 3528.000000, 7965.000000, 8113.000000, 0.000000, 0.000000, 0.000000, 25899.000000, 779.487183, 4.000000, 4.000000, 4.000000, 4.000000, 4.000000, 4.000000, 4.000000, 4.000000, 4.000000, 4.000000, 4.000000, 4.000000, 4.000000, 4.000000, 4.000000, 4.000000
121.000000, 0.000000, 4183.076660, 4159.487305, 4188.717773, 4186.153809, 4198.974121, 4196.410156, 4196.922852, 4190.256348, 4210.769043, 4210.769043, 4205.127930, 4195.384277, 4228.205078, 4203.589844, 3473.000000, 7946.000000, 8111.000000, 0.000000, 0.000000, 0.000000, 25899.000000, 787.179443, 4.000000, 4.000000, 4.000000, 4.000000, 4.000000, 4.000000, 4.000000, 4.000000, 4.000000, 4.000000, 4.000000, 4.000000, 4.000000, 4.000000, 4.000000, 4.000000
122.000000, 0.000000, 4173.333008, 4151.794922, 4182.563965, 4184.615234, 4185.127930, 4188.717773, 4190.769043, 4221.025391, 4212.820313, 4202.563965, 4198.461426, 4189.230469, 4215.897461, 4193.846191, 3287.000000, 7946.000000, 8111.000000, 0.000000, 0.000000, 0.000000, 25899.000000, 795.384583, 4.000000, 4.000000, 4.000000, 4.000000, 4.000000, 4.000000, 4.000000, 4.000000, 4.000000, 4.000000, 4.000000, 4.000000, 4.000000, 4.000000, 4.000000, 4.000000
123.000000, 0.000000, 4173.333008, 4152.307617, 4182.563965, 4185.641113, 4180.000000, 4186.153809, 4190.256348, 4207.692383, 4203.589844, 4201.025391, 4196.922852, 4195.384277, 4212.820313, 4193.846191, 3565.000000, 7935.000000, 8109.000000, 0.000000, 0.000000, 0.000000, 25899.000000, 803.076904, 4.000000, 4.000000, 4.000000, 4.000000, 4.000000, 4.000000, 4.000000, 4.000000, 4.000000, 4.000000, 4.000000, 4.000000, 4.000000, 4.000000, 4.000000, 4.000000
124.000000, 0.000000, 4182.563965, 4159.487305, 4188.717773, 4192.820313, 4192.307617, 4187.692383, 4190.256348, 4175.897461, 4195.384277, 4202.051270, 4202.563965, 4203.076660, 4217.436035, 4202.563965, 3528.000000, 7935.000000, 8109.000000, 0.000000, 0.000000, 0.000000, 25899.000000, 811.282043, 4.000000, 4.000000, 4.000000, 4.000000, 4.000000, 4.000000, 4.000000, 4.000000, 4.000000, 4.000000, 4.000000, 4.000000, 4.000000, 4.000000, 4.000000, 4.000000
125.000000, 0.000000, 4177.436035, 4160.512695, 4187.179199, 4188.717773, 4201.538574, 4183.589844, 4192.307617, 4184.615234, 4192.820313, 4201.025391, 4202.563965, 4198.974121, 4215.897461, 4203.076660, 3473.000000, 7930.000000, 8117.000000, 0.000000, 0.000000, 0.000000, 25899.000000, 818.974365, 4.000000, 4.000000, 4.000000, 4.000000, 4.000000, 4.000000, 4.000000, 4.000000, 4.000000, 4.000000, 4.000000, 4.000000, 4.000000, 4.000000, 4.000000, 4.000000
126.000000, 0.000000, 4172.820313, 4155.384277, 4183.589844, 4187.179199, 4198.974121, 4188.717773, 4206.666504, 4204.102539, 4194.358887, 4200.000000, 4198.461426, 4197.948730, 4213.333008, 4196.410156, 3287.000000, 7930.000000, 8117.000000, 0.000000, 0.000000, 0.000000, 25899.000000, 827.179443, 4.000000, 4.000000, 4.000000, 4.000000, 4.000000, 4.000000, 4.000000, 4.000000, 4.000000, 4.000000, 4.000000, 4.000000, 4.000000, 4.000000, 4.000000, 4.000000
127.000000, 0.000000, 4177.436035, 4154.871582, 4184.615234, 4189.743652, 4196.410156, 4201.025391, 4207.692383, 4199.487305, 4199.487305, 4201.025391, 4201.025391, 4200.512695, 4214.358887, 4197.436035, 53.000000, 7934.000000, 8126.000000, 0.000000, 0.000000, 0.000000, 25899.000000, 834.871765, 4.000000, 4.000000, 4.000000, 4.000000, 4.000000, 4.000000, 4.000000, 4.000000, 4.000000, 4.000000, 4.000000, 4.000000, 4.000000, 4.000000, 4.000000, 4.000000
0.000000, 0.000000, 4179.487305, 4164.615234, 4187.692383, 4187.692383, 4201.538574, 4202.563965, 4198.461426, 4204.102539, 4202.563965, 4202.563965, 4204.102539, 4201.025391, 4214.871582, 4202.051270, 3493.000000, 7934.000000, 8126.000000, 0.000000, 0.000000, 0.000000, 25899.000000, 843.076904, 4.000000, 4.000000, 4.000000, 4.000000, 4.000000, 4.000000, 4.000000, 4.000000, 4.000000, 4.000000, 4.000000, 4.000000, 4.000000, 4.000000, 4.000000, 4.000000
1.000000, 0.000000, 4172.820313, 4171.281738, 4186.666504, 4191.794922, 4203.076660, 4204.102539, 4213.333008, 4214.871582, 4200.000000, 4200.000000, 4197.948730, 4201.538574, 4209.743652, 4198.461426, 2287.000000, 7944.000000, 8130.000000, 0.000000, 0.000000, 0.000000, 25899.000000, 850.769226, 4.000000, 4.000000, 4.000000, 4.000000, 4.000000, 4.000000, 4.000000, 4.000000, 4.000000, 4.000000, 4.000000, 4.000000, 4.000000, 4.000000, 4.000000, 4.000000
2.000000, 0.000000, 4173.333008, 4171.281738, 4186.666504, 4192.307617, 4201.025391, 4214.871582, 4224.615234, 4206.153809, 4199.487305, 4201.025391, 4196.410156, 4199.487305, 4207.692383, 4195.897461, 3127.000000, 7944.000000, 8130.000000, 0.000000, 0.000000, 0.000000, 25899.000000, 858.974365, 4.000000, 4.000000, 4.000000, 4.000000, 4.000000, 4.000000, 4.000000, 4.000000, 4.000000, 4.000000, 4.000000, 4.000000, 4.000000, 4.000000, 4.000000, 4.000000
3.000000, 0.000000, 4181.025391, 4176.922852, 4188.717773, 4191.794922, 4201.538574, 4214.358887, 4206.153809, 4203.076660, 4210.256348, 4218.461426, 4209.230469, 4202.051270, 4215.384277, 4204.102539, 3553.000000, 7950.000000, 8141.000000, 0.000000, 0.000000, 0.000000, 25899.000000, 866.666626, 4.000000, 4.000000, 4.000000, 4.000000, 4.000000, 4.000000, 4.000000, 4.000000, 4.000000, 4.000000, 4.000000, 4.000000, 4.000000, 4.000000, 4.000000, 4.000000
4.000000, 0.000000, 4182.051270, 4183.076660, 4188.205078, 4193.846191, 4203.589844, 4200.000000, 4194.871582, 4220.512695, 4225.641113, 4233.846191, 4217.948730, 4209.743652, 4221.538574, 4211.281738, 3532.000000, 7950.000000, 8141.000000, 0.000000, 0.000000, 0.000000, 25899.000000, 874.871765, 4.000000, 4.000000, 4.000000, 4.000000, 4.000000, 4.000000, 4.000000, 4.000000, 4.000000, 4.000000, 4.000000, 4.000000, 4.000000, 4.000000, 4.000000, 4.000000
5.000000, 0.000000, 4186.153809, 4187.179199, 4190.769043, 4194.871582, 4209.743652, 4197.436035, 4209.743652, 4233.846191, 4232.820313, 4234.871582, 4217.436035, 4213.846191, 4225.127930, 4211.794922, 3565.000000, 7964.000000, 8150.000000, 0.000000, 0.000000, 0.000000, 25899.000000, 882.564087, 4.000000, 4.000000, 4.000000, 4.000000, 4.000000, 4.000000, 4.000000, 4.000000, 4.000000, 4.000000, 4.000000, 4.000000, 4.000000, 4.000000, 4.000000, 4.000000
6.000000, 0.000000, 4194.871582, 4196.410156, 4200.512695, 4203.076660, 4215.384277, 4208.205078, 4220.000000, 4234.358887, 4236.922852, 4240.512695, 4223.076660, 4218.461426, 4230.769043, 4215.897461, 3498.000000, 7964.000000, 8150.000000, 0.000000, 0.000000, 0.000000, 25899.000000, 890.769226, 4.000000, 4.000000, 4.000000, 4.000000, 4.000000, 4.000000, 4.000000, 4.000000, 4.000000, 4.000000, 4.000000, 4.000000, 4.000000, 4.000000, 4.000000, 4.000000
7.000000, 0.000000, 4198.974121, 4204.615234, 4206.666504, 4203.589844, 4216.922852, 4215.384277, 4214.358887, 4229.230469, 4240.512695, 4252.307617, 4234.358887, 4225.127930, 4235.384277, 4223.076660, 3498.000000, 7996.000000, 8171.000000, 0.000000, 0.000000, 0.000000, 25899.000000, 898.461487, 4.000000, 4.000000, 4.000000, 4.000000, 4.000000, 4.000000, 4.000000, 4.000000, 4.000000, 4.000000, 4.000000, 4.000000, 4.000000, 4.000000, 4.000000, 4.000000
8.000000, 0.000000, 4194.871582, 4203.076660, 4205.127930, 4197.948730, 4216.410156, 4216.410156, 4214.358887, 4227.692383, 4234.871582, 4250.256348, 4230.769043, 4224.102539, 4234.358887, 4222.563965, 3352.000000, 7996.000000, 8171.000000, 0.000000, 0.000000, 0.000000, 25899.000000, 906.666626, 4.000000, 4.000000, 4.000000, 4.000000, 4.000000, 4.000000, 4.000000, 4.000000, 4.000000, 4.000000, 4.000000, 4.000000, 4.000000, 4.000000, 4.000000, 4.000000
9.000000, 0.000000, 4191.281738, 4195.897461, 4196.922852, 4197.948730, 4210.256348, 4214.871582, 4220.512695, 4231.794922, 4230.769043, 4233.333008, 4217.948730, 4220.000000, 4230.256348, 4214.871582, 3533.000000, 8008.000000, 8180.000000, 0.000000, 0.000000, 0.000000, 25899.000000, 914.358948, 4.000000, 4.000000, 4.000000, 4.000000, 4.000000, 4.000000, 4.000000, 4.000000, 4.000000, 4.000000, 4.000000, 4.000000, 4.000000, 4.000000, 4.000000, 4.000000
10.000000, 0.000000, 4189.743652, 4188.717773, 4188.717773, 4194.358887, 4200.000000, 4208.717773, 4214.358887, 4227.179199, 4232.820313, 4224.102539, 4215.384277, 4213.333008, 4222.051270, 4207.179199, 3287.000000, 8008.000000, 8180.000000, 0.000000, 0.000000, 0.000000, 25899.000000, 922.564087, 4.000000, 4.000000, 4.000000, 4.000000, 4.000000, 4.000000, 4.000000, 4.000000, 4.000000, 4.000000, 4.000000, 4.000000, 4.000000, 4.000000, 4.000000, 4.000000
11.000000, 0.000000, 4184.615234, 4187.179199, 4186.153809, 4193.846191, 4196.922852, 4200.000000, 4196.410156, 4211.794922, 4221.538574, 4222.563965, 4212.307617, 4203.589844, 4215.897461, 4200.000000, 3573.000000, 8051.000000, 8212.000000, 0.000000, 0.000000, 0.000000, 25899.000000, 930.256409, 4.000000, 4.000000, 4.000000, 4.000000, 4.000000, 4.000000, 4.000000, 4.000000, 4.000000, 4.000000, 4.000000, 4.000000, 4.000000, 4.000000, 4.000000, 4.000000
12.000000, 0.000000, 4184.102539, 4191.794922, 4187.179199, 4191.281738, 4203.589844, 4200.512695, 4193.333008, 4207.179199, 4213.333008, 4226.153809, 4208.717773, 4207.179199, 4216.922852, 4200.512695, 3517.000000, 8051.000000, 8212.000000, 0.000000, 0.000000, 0.000000, 25899.000000, 938.461487, 4.000000, 4.000000, 4.000000, 4.000000, 4.000000, 4.000000, 4.000000, 4.000000, 4.000000, 4.000000, 4.000000, 4.000000, 4.000000, 4.000000, 4.000000, 4.000000
13.000000, 0.000000, 4187.692383, 4196.922852, 4188.205078, 4189.230469, 4209.230469, 4208.205078, 4212.820313, 4220.512695, 4225.641113, 4232.820313, 4213.333008, 4215.384277, 4217.948730, 4202.563965, 3474.000000, 8069.000000, 8217.000000, 0.000000, 0.000000, 0.000000, 25899.000000, 946.153809, 4.000000, 4.000000, 4.000000, 4.000000, 4.000000, 4.000000, 4.000000, 4.000000, 4.000000, 4.000000, 4.000000, 4.000000, 4.000000, 4.000000, 4.000000, 4.000000
14.000000, 0.000000, 4185.641113, 4195.897461, 4188.717773, 4192.307617, 4209.743652, 4211.281738, 4218.461426, 4221.538574, 4230.769043, 4231.794922, 4214.871582, 4211.794922, 4218.461426, 4202.563965, 3287.000000, 8069.000000, 8217.000000, 0.000000, 0.000000, 0.000000, 25899.000000, 954.358948, 4.000000, 4.000000, 4.000000, 4.000000, 4.000000, 4.000000, 4.000000, 4.000000, 4.000000, 4.000000, 4.000000, 4.000000, 4.000000, 4.000000, 4.000000, 4.000000
15.000000, 0.000000, 4181.538574, 4192.820313, 4184.615234, 4189.230469, 4214.871582, 4212.820313, 4208.205078, 4204.102539, 4220.512695, 4225.641113, 4207.692383, 4200.512695, 4215.897461, 4202.051270, 3573.000000, 8093.000000, 8225.000000, 0.000000, 0.000000, 0.000000, 25899.000000, 962.051270, 4.000000, 4.000000, 4.000000, 4.000000, 4.000000, 4.000000, 4.000000, 4.000000, 4.000000, 4.000000, 4.000000, 4.000000, 4.000000, 4.000000, 4.000000, 4.000000
16.000000, 0.000000, 4173.333008, 4184.102539, 4172.307617, 4187.179199, 4214.358887, 4217.948730, 4209.230469, 4206.666504, 4215.384277, 4213.333008, 4194.871582, 4191.281738, 4198.461426, 4187.692383, 0.000000, 8093.000000, 8225.000000, 0.000000, 0.000000, 0.000000, 25899.000000, 970.256409, 4.000000, 4.000000, 4.000000, 4.000000, 4.000000, 4.000000, 4.000000, 4.000000, 4.000000, 4.000000, 4.000000, 4.000000, 4.000000, 4.000000, 4.000000, 4.000000
17.000000, 0.000000, 4159.487305, 4173.846191, 4159.487305, 4180.512695, 4205.127930, 4220.512695, 4219.487305, 4231.281738, 4218.974121, 4198.461426, 4177.948730, 4182.051270, 4179.487305, 4166.153809, 0.000000, 8134.000000, 8240.000000, 0.000000, 0.000000, 0.000000, 25899.000000, 977.948669, 4.000000, 4.000000, 4.000000, 4.000000, 4.000000, 4.000000, 4.000000, 4.000000, 4.000000, 4.000000, 4.000000, 4.000000, 4.000000, 4.000000, 4.000000, 4.000000
18.000000, 0.000000, 4158.974121, 4173.333008, 4157.948730, 4174.871582, 4206.666504, 4218.974121, 4215.897461, 4233.333008, 4225.127930, 4198.974121, 4174.358887, 4182.563965, 4184.102539, 4166.153809, 0.000000, 8134.000000, 8240.000000, 0.000000, 0.000000, 0.000000, 25899.000000, 986.153809, 4.000000, 4.000000, 4.000000, 4.000000, 4.000000, 4.000000, 4.000000, 4.000000, 4.000000, 4.000000, 4.000000, 4.000000, 4.000000, 4.000000, 4.000000, 4.000000
19.000000, 0.000000, 4168.717773, 4182.051270, 4165.641113, 4180.000000, 4212.820313, 4217.948730, 4202.051270, 4207.692383, 4226.153809, 4214.358887, 4188.717773, 4193.333008, 4197.948730, 4180.512695, 0.000000, 8154.000000, 8243.000000, 0.000000, 0.000000, 0.000000, 25899.000000, 993.846130, 4.000000, 4.000000, 4.000000, 4.000000, 4.000000, 4.000000, 4.000000, 4.000000, 4.000000, 4.000000, 4.000000, 4.000000, 4.000000, 4.000000, 4.000000, 4.000000
20.000000, 0.000000, 4174.871582, 4190.769043, 4175.897461, 4182.051270, 4209.743652, 4210.769043, 4196.922852, 4198.974121, 4221.025391, 4220.512695, 4198.461426, 4198.974121, 4204.102539, 4187.179199, 0.000000, 8154.000000, 8243.000000, 0.000000, 0.000000, 0.000000, 25900.000000, 2.051282, 4.000000, 4.000000, 4.000000, 4.000000, 4.000000, 4.000000, 4.000000, 4.000000, 4.000000, 4.000000, 4.000000, 4.000000, 4.000000, 4.000000, 4.000000, 4.000000
21.000000, 0.000000, 4180.512695, 4196.410156, 4183.589844, 4188.205078, 4204.102539, 4202.563965, 4197.948730, 4209.230469, 4217.436035, 4215.897461, 4200.512695, 4203.589844, 4211.281738, 4193.333008, 0.000000, 8178.000000, 8246.000000, 0.000000, 0.000000, 0.000000, 25900.000000, 9.743589, 4.000000, 4.000000, 4.000000, 4.000000, 4.000000, 4.000000, 4.000000, 4.000000, 4.000000, 4.000000, 4.000000, 4.000000, 4.000000, 4.000000, 4.000000, 4.000000
22.000000, 0.000000, 4186.153809, 4202.051270, 4186.666504, 4192.307617, 4204.615234, 4202.051270, 4195.897461, 4208.717773, 4212.307617, 4214.871582, 4205.641113, 4209.743652, 4218.461426, 4204.102539, 0.000000, 8178.000000, 8246.000000, 0.000000, 0.000000, 0.000000, 25900.000000, 17.948717, 4.000000, 4.000000, 4.000000, 4.000000, 4.000000, 4.000000, 4.000000, 4.000000, 4.000000, 4.000000, 4.000000, 4.000000, 4.000000, 4.000000, 4.000000, 4.000000
23.000000, 0.000000, 4189.743652, 4202.051270, 4185.641113, 4188.717773, 4204.615234, 4202.051270, 4193.846191, 4197.436035, 4205.127930, 4209.230469, 4206.153809, 4204.615234, 4217.436035, 4202.563965, 0.000000, 8177.000000, 8253.000000, 0.000000, 0.000000, 0.000000, 25900.000000, 25.641026, 4.000000, 4.000000, 4.000000, 4.000000, 4.000000, 4.000000, 4.000000, 4.000000, 4.000000, 4.000000, 4.000000, 4.000000, 4.000000, 4.000000, 4.000000, 4.000000
24.000000, 0.000000, 4192.307617, 4198.974121, 4185.641113, 4192.820313, 4203.076660, 4202.563965, 4199.487305, 4198.974121, 4207.179199, 4201.025391, 4202.563965, 4203.076660, 4212.820313, 4197.948730, 0.000000, 8177.000000, 8253.000000, 0.000000, 0.000000, 0.000000, 25900.000000, 33.846153, 4.000000, 4.000000, 4.000000, 4.000000, 4.000000, 4.000000, 4.000000, 4.000000, 4.000000, 4.000000, 4.000000, 4.000000, 4.000000, 4.000000, 4.000000, 4.000000
25.000000, 0.000000, 4192.307617, 4202.051270, 4187.179199, 4193.333008, 4196.922852, 4203.589844, 4202.563965, 4203.076660, 4210.769043, 4202.051270, 4201.538574, 4209.230469, 4210.769043, 4202.563965, 0.000000, 8175.000000, 8249.000000, 0.000000, 0.000000, 0.000000, 25900.000000, 42.051281, 4.000000, 4.000000, 4.000000, 4.000000, 4.000000, 4.000000, 4.000000, 4.000000, 4.000000, 4.000000, 4.000000, 4.000000, 4.000000, 4.000000, 4.000000, 4.000000
26.000000, 0.000000, 4187.692383, 4198.974121, 4183.589844, 4191.281738, 4192.820313, 4199.487305, 4196.922852, 4193.333008, 4201.538574, 4200.000000, 4198.461426, 4208.205078, 4203.589844, 4198.461426, 0.000000, 8175.000000, 8249.000000, 0.000000, 0.000000, 0.000000, 25900.000000, 49.743587, 4.000000, 4.000000, 4.000000, 4.000000, 4.000000, 4.000000, 4.000000, 4.000000, 4.000000, 4.000000, 4.000000, 4.000000, 4.000000, 4.000000, 4.000000, 4.000000
27.000000, 0.000000, 4181.538574, 4187.692383, 4180.000000, 4187.692383, 4200.000000, 4196.410156, 4195.384277, 4187.692383, 4197.436035, 4192.307617, 4194.358887, 4204.615234, 4195.384277, 4187.179199, 0.000000, 8174.000000, 8245.000000, 0.000000, 0.000000, 0.000000, 25900.000000, 57.435898, 4.000000, 4.000000, 4.000000, 4.000000, 4.000000, 4.000000, 4.000000, 4.000000, 4.000000, 4.000000, 4.000000, 4.000000, 4.000000, 4.000000, 4.000000, 4.000000
28.000000, 0.000000, 4184.615234, 4188.205078, 4181.538574, 4187.179199, 4204.615234, 4200.000000, 4197.436035, 4205.127930, 4209.230469, 4201.025391, 4199.487305, 4211.794922, 4205.127930, 4193.846191, 0.000000, 8174.000000, 8245.000000, 0.000000, 0.000000, 0.000000, 25900.000000, 65.641022, 4.000000, 4.000000, 4.000000, 4.000000, 4.000000, 4.000000, 4.000000, 4.000000, 4.000000, 4.000000, 4.000000, 4.000000, 4.000000, 4.000000, 4.000000, 4.000000
29.000000, 0.000000, 4193.333008, 4202.051270, 4188.205078, 4194.358887, 4203.589844, 4201.538574, 4195.897461, 4219.487305, 4220.000000, 4215.897461, 4209.743652, 4219.487305, 4218.974121, 4209.743652, 0.000000, 8178.000000, 8244.000000, 0.000000, 0.000000, 0.000000, 25900.000000, 73.846153, 4.000000, 4.000000, 4.000000, 4.000000, 4.000000, 4.000000, 4.000000, 4.000000, 4.000000, 4.000000, 4.000000, 4.000000, 4.000000, 4.000000, 4.000000, 4.000000
30.000000, 0.000000, 4187.179199, 4200.000000, 4193.333008, 4191.281738, 4204.615234, 4200.512695, 4199.487305, 4209.743652, 4219.487305, 4209.230469, 4204.615234, 4215.897461, 4203.589844, 4198.974121, 0.000000, 8178.000000, 8244.000000, 0.000000, 0.000000, 0.000000, 25900.000000, 81.538460, 4.000000, 4.000000, 4.000000, 4.000000, 4.000000, 4.000000, 4.000000, 4.000000, 4.000000, 4.000000, 4.000000, 4.000000, 4.000000, 4.000000, 4.000000, 4.000000
31.000000, 0.000000, 4181.025391, 4190.769043, 4197.948730, 4192.307617, 4201.538574, 4203.589844, 4206.666504, 4203.589844, 4212.307617, 4196.922852, 4195.897461, 4215.384277, 4188.717773, 4185.127930, 0.000000, 8176.000000, 8251.000000, 0.000000, 0.000000, 0.000000, 25900.000000, 89.743591, 4.000000, 4.000000, 4.000000, 4.000000, 4.000000, 4.000000, 4.000000, 4.000000, 4.000000, 4.000000, 4.000000, 4.000000, 4.000000, 4.000000, 4.000000, 4.000000
32.000000, 0.000000, 4192.307617, 4202.051270, 4197.436035, 4196.922852, 4201.025391, 4205.127930, 4204.615234, 4213.846191, 4215.897461, 4198.974121, 4202.051270, 4217.436035, 4208.717773, 4201.025391, 0.000000, 8176.000000, 8251.000000, 0.000000, 0.000000, 0.000000, 25900.000000, 97.435898, 4.000000, 4.000000, 4.000000, 4.000000, 4.000000, 4.000000, 4.000000, 4.000000, 4.000000, 4.000000, 4.000000, 4.000000, 4.000000, 4.000000, 4.000000, 4.000000
33.000000, 0.000000, 4199.487305, 4206.153809, 4189.743652, 4190.769043, 4203.076660, 4202.051270, 4201.025391, 4214.871582, 4219.487305, 4194.871582, 4208.717773, 4212.820313, 4222.563965, 4215.897461, 0.000000, 8179.000000, 8255.000000, 0.000000, 0.000000, 0.000000, 25900.000000, 105.641022, 4.000000, 4.000000, 4.000000, 4.000000, 4.000000, 4.000000, 4.000000, 4.000000, 4.000000, 4.000000, 4.000000, 4.000000, 4.000000, 4.000000, 4.000000, 4.000000
34.000000, 0.000000, 4192.307617, 4188.717773, 4189.230469, 4190.256348, 4195.384277, 4200.000000, 4201.025391, 4194.871582, 4203.076660, 4180.000000, 4205.127930, 4209.743652, 4211.794922, 4212.820313, 0.000000, 8179.000000, 8255.000000, 0.000000, 0.000000, 0.000000, 25900.000000, 113.333328, 4.000000, 4.000000, 4.000000, 4.000000, 4.000000, 4.000000, 4.000000, 4.000000, 4.000000, 4.000000, 4.000000, 4.000000, 4.000000, 4.000000, 4.000000, 4.000000
35.000000, 0.000000, 4195.897461, 4186.666504, 4198.461426, 4189.743652, 4195.384277, 4204.102539, 4200.000000, 4188.717773, 4196.922852, 4183.589844, 4212.307617, 4216.922852, 4215.897461, 4217.948730, 0.000000, 8204.000000, 8235.000000, 0.000000, 0.000000, 0.000000, 25900.000000, 121.538460, 4.000000, 4.000000, 4.000000, 4.000000, 4.000000, 4.000000, 4.000000, 4.000000, 4.000000, 4.000000, 4.000000, 4.000000, 4.000000, 4.000000, 4.000000, 4.000000
36.000000, 0.000000, 4210.256348, 4196.922852, 4203.589844, 4191.281738, 4208.205078, 4208.717773, 4198.461426, 4203.589844, 4220.512695, 4198.974121, 4224.615234, 4229.743652, 4230.256348, 4230.256348, 0.000000, 8204.000000, 8235.000000, 0.000000, 0.000000, 0.000000, 25900.000000, 129.230759, 4.000000, 4.000000, 4.000000, 4.000000, 4.000000, 4.000000, 4.000000, 4.000000, 4.000000, 4.000000, 4.000000, 4.000000, 4.000000, 4.000000, 4.000000, 4.000000
37.000000, 0.000000, 4211.281738, 4190.256348, 4200.512695, 4192.820313, 4206.666504, 4199.487305, 4197.436035, 4207.179199, 4232.307617, 4201.538574, 4222.563965, 4232.307617, 4224.102539, 4229.743652, 0.000000, 8212.000000, 8229.000000, 0.000000, 0.000000, 0.000000, 25900.000000, 136.923080, 4.000000, 4.000000, 4.000000, 4.000000, 4.000000, 4.000000, 4.000000, 4.000000, 4.000000, 4.000000, 4.000000, 4.000000, 4.000000, 4.000000, 4.000000, 4.000000
38.000000, 0.000000, 4206.666504, 4184.615234, 4203.076660, 4190.769043, 4196.922852, 4194.871582, 4203.076660, 4201.538574, 4220.000000, 4201.025391, 4218.461426, 4227.179199, 4216.410156, 4228.205078, 0.000000, 8212.000000, 8229.000000, 0.000000, 0.000000, 0.000000, 25900.000000, 145.128204, 4.000000, 4.000000, 4.000000, 4.000000, 4.000000, 4.000000, 4.000000, 4.000000, 4.000000, 4.000000, 4.000000, 4.000000, 4.000000, 4.000000, 4.000000, 4.000000
39.000000, 0.000000, 4205.127930, 4184.102539, 4203.076660, 4192.820313, 4196.922852, 4203.076660, 4204.102539, 4201.538574, 4216.410156, 4201.025391, 4217.436035, 4218.461426, 4215.897461, 4224.102539, 0.000000, 8226.000000, 8223.000000, 0.000000, 0.000000, 0.000000, 25900.000000, 152.820511, 4.000000, 4.000000, 4.000000, 4.000000, 4.000000, 4.000000, 4.000000, 4.000000, 4.000000, 4.000000, 4.000000, 4.000000, 4.000000, 4.000000, 4.000000, 4.000000
40.000000, 0.000000, 4196.922852, 4169.230469, 4185.641113, 4183.589844, 4194.871582, 4198.974121, 4190.256348, 4203.076660, 4221.025391, 4192.820313, 4209.230469, 4204.615234, 4208.717773, 4208.205078, 0.000000, 8226.000000, 8223.000000, 0.000000, 0.000000, 0.000000, 25900.000000, 161.025635, 4.000000, 4.000000, 4.000000, 4.000000, 4.000000, 4.000000, 4.000000, 4.000000, 4.000000, 4.000000, 4.000000, 4.000000, 4.000000, 4.000000, 4.000000, 4.000000
41.000000, 0.000000, 4185.641113, 4160.512695, 4174.358887, 4175.897461, 4184.102539, 4186.666504, 4182.563965, 4195.897461, 4213.846191, 4181.538574, 4198.461426, 4194.871582, 4196.410156, 4196.922852, 0.000000, 8243.000000, 8214.000000, 0.000000, 0.000000, 0.000000, 25900.000000, 168.717941, 4.000000, 4.000000, 4.000000, 4.000000, 4.000000, 4.000000, 4.000000, 4.000000, 4.000000, 4.000000, 4.000000, 4.000000, 4.000000, 4.000000, 4.000000, 4.000000
42.000000, 0.000000, 4186.666504, 4169.743652, 4181.025391, 4183.589844, 4185.641113, 4194.871582, 4195.384277, 4195.384277, 4213.846191, 4184.615234, 4198.461426, 4203.589844, 4195.384277, 4199.487305, 0.000000, 8243.000000, 8214.000000, 0.000000, 0.000000, 0.000000, 25900.000000, 176.923065, 4.000000, 4.000000, 4.000000, 4.000000, 4.000000, 4.000000, 4.000000, 4.000000, 4.000000, 4.000000, 4.000000, 4.000000, 4.000000, 4.000000, 4.000000, 4.000000
43.000000, 0.000000, 4201.538574, 4172.820313, 4188.717773, 4188.717773, 4199.487305, 4206.153809, 4204.102539, 4206.153809, 4225.127930, 4192.307617, 4204.615234, 4210.769043, 4204.102539, 4208.205078, 0.000000, 8248.000000, 8203.000000, 0.000000, 0.000000, 0.000000, 25900.000000, 184.615387, 4.000000, 4.000000, 4.000000, 4.000000, 4.000000, 4.000000, 4.000000, 4.000000, 4.000000, 4.000000, 4.000000, 4.000000, 4.000000, 4.000000, 4.000000, 4.000000
44.000000, 0.000000, 4201.538574, 4168.205078, 4192.307617, 4190.256348, 4205.127930, 4200.512695, 4201.025391, 4204.615234, 4223.076660, 4187.692383, 4202.563965, 4205.127930, 4201.025391, 4206.666504, 0.000000, 8248.000000, 8203.000000, 0.000000, 0.000000, 0.000000, 25900.000000, 192.820511, 4.000000, 4.000000, 4.000000, 4.000000, 4.000000, 4.000000, 4.000000, 4.000000, 4.000000, 4.000000, 4.000000, 4.000000, 4.000000, 4.000000, 4.000000, 4.000000
45.000000, 0.000000, 4193.846191, 4173.333008, 4195.897461, 4186.666504, 4203.076660, 4199.487305, 4203.589844, 4193.333008, 4211.794922, 4182.051270, 4199.487305, 4202.563965, 4195.384277, 4205.127930, 0.000000, 8261.000000, 8189.000000, 0.000000, 0.000000, 0.000000, 25900.000000, 200.512817, 4.000000, 4.000000, 4.000000, 4.000000, 4.000000, 4.000000, 4.000000, 4.000000, 4.000000, 4.000000, 4.000000, 4.000000, 4.000000, 4.000000, 4.000000, 4.000000
46.000000, 0.000000, 4200.512695, 4178.974121, 4194.358887, 4188.717773, 4202.051270, 4206.153809, 4203.589844, 4205.127930, 4216.922852, 4187.179199, 4202.563965, 4207.179199, 4201.538574, 4209.743652, 0.000000, 8261.000000, 8189.000000, 0.000000, 0.000000, 0.000000, 25900.000000, 208.717941, 4.000000, 4.000000, 4.000000, 4.000000, 4.000000, 4.000000, 4.000000, 4.000000, 4.000000, 4.000000, 4.000000, 4.000000, 4.000000, 4.000000, 4.000000, 4.000000
47.000000, 0.000000, 4198.461426, 4171.281738, 4186.153809, 4192.307617, 4203.076660, 4203.076660, 4196.410156, 4217.436035, 4220.512695, 4188.205078, 4203.589844, 4206.153809, 4201.025391, 4207.179199, 0.000000, 8261.000000, 8180.000000, 0.000000, 0.000000, 0.000000, 25900.000000, 216.410248, 4.000000, 4.000000, 4.000000, 4.000000, 4.000000, 4.000000, 4.000000, 4.000000, 4.000000, 4.000000, 4.000000, 4.000000, 4.000000, 4.000000, 4.000000, 4.000000
48.000000, 0.000000, 4186.666504, 4161.538574, 4182.051270, 4182.563965, 4205.127930, 4197.436035, 4197.436035, 4197.436035, 4205.641113, 4175.897461, 4200.000000, 4200.000000, 4189.743652, 4197.436035, 0.000000, 8261.000000, 8180.000000, 0.000000, 0.000000, 0.000000, 25900.000000, 224.615372, 4.000000, 4.000000, 4.000000, 4.000000, 4.000000, 4.000000, 4.000000, 4.000000, 4.000000, 4.000000, 4.000000, 4.000000, 4.000000, 4.000000, 4.000000, 4.000000
49.000000, 0.000000, 4186.153809, 4160.512695, 4183.076660, 4182.563965, 4196.410156, 4199.487305, 4200.000000, 4189.743652, 4195.384277, 4167.179199, 4196.410156, 4200.512695, 4188.205078, 4196.922852, 0.000000, 8264.000000, 8168.000000, 0.000000, 0.000000, 0.000000, 25900.000000, 232.820511, 4.000000, 4.000000, 4.000000, 4.000000, 4.000000, 4.000000, 4.000000, 4.000000, 4.000000, 4.000000, 4.000000, 4.000000, 4.000000, 4.000000, 4.000000, 4.000000
50.000000, 0.000000, 4192.820313, 4167.179199, 4185.641113, 4186.666504, 4186.666504, 4202.563965, 4199.487305, 4200.512695, 4202.051270, 4168.205078, 4196.922852, 4202.563965, 4192.307617, 4205.127930, 0.000000, 8264.000000, 8168.000000, 0.000000, 0.000000, 0.000000, 25900.000000, 240.512817, 4.000000, 4.000000, 4.000000, 4.000000, 4.000000, 4.000000, 4.000000, 4.000000, 4.000000, 4.000000, 4.000000, 4.000000, 4.000000, 4.000000, 4.000000, 4.000000
51.000000, 0.000000, 4189.743652, 4170.256348, 4190.256348, 4184.615234, 4194.358887, 4201.025391, 4197.436035, 4190.256348, 4209.743652, 4174.358887, 4198.461426, 4198.461426, 4189.230469, 4204.102539, 0.000000, 8273.000000, 8173.000000, 0.000000, 0.000000, 0.000000, 25900.000000, 248.205124, 4.000000, 4.000000, 4.000000, 4.000000, 4.000000, 4.000000, 4.000000, 4.000000, 4.000000, 4.000000, 4.000000, 4.000000, 4.000000, 4.000000, 4.000000, 4.000000
52.000000, 0.000000, 4183.076660, 4162.563965, 4182.563965, 4180.512695, 4199.487305, 4193.846191, 4192.307617, 4185.641113, 4214.358887, 4181.025391, 4194.871582, 4192.820313, 4185.127930, 4194.871582, 0.000000, 8273.000000, 8173.000000, 0.000000, 0.000000, 0.000000, 25900.000000, 256.410248, 4.000000, 4.000000, 4.000000, 4.000000, 4.000000, 4.000000, 4.000000, 4.000000, 4.000000, 4.000000, 4.000000, 4.000000, 4.000000, 4.000000, 4.000000, 4.000000
53.000000, 0.000000, 4183.076660, 4155.897461, 4170.769043, 4173.333008, 4185.641113, 4190.256348, 4192.820313, 4208.717773, 4225.127930, 4186.153809, 4190.256348, 4193.333008, 4185.641113, 4194.358887, 0.000000, 8281.000000, 8177.000000, 0.000000, 0.000000, 0.000000, 25900.000000, 264.102570, 4.000000, 4.000000, 4.000000, 4.000000, 4.000000, 4.000000, 4.000000, 4.000000, 4.000000, 4.000000, 4.000000, 4.000000, 4.000000, 4.000000, 4.000000, 4.000000
54.000000, 0.000000, 4185.127930, 4158.461426, 4177.948730, 4179.487305, 4182.051270, 4197.948730, 4199.487305, 4220.000000, 4234.871582, 4192.820313, 4197.948730, 4201.538574, 4190.769043, 4202.051270, 0.000000, 8281.000000, 8177.000000, 0.000000, 0.000000, 0.000000, 25900.000000, 271.794861, 4.000000, 4.000000, 4.000000, 4.000000, 4.000000, 4.000000, 4.000000, 4.000000, 4.000000, 4.000000, 4.000000, 4.000000, 4.000000, 4.000000, 4.000000, 4.000000
55.000000, 0.000000, 4184.102539, 4159.487305, 4186.153809, 4181.538574, 4190.769043, 4201.538574, 4208.717773, 4214.871582, 4236.410156, 4203.589844, 4205.641113, 4203.076660, 4192.820313, 4202.051270, 0.000000, 8292.000000, 8179.000000, 0.000000, 0.000000, 0.000000, 25900.000000, 280.000000, 4.000000, 4.000000, 4.000000, 4.000000, 4.000000, 4.000000, 4.000000, 4.000000, 4.000000, 4.000000, 4.000000, 4.000000, 4.000000, 4.000000, 4.000000, 4.000000
56.000000, 0.000000, 4182.563965, 4153.846191, 4178.461426, 4173.333008, 4186.153809, 4189.230469, 4208.205078, 4209.743652, 4232.307617, 4201.025391, 4201.538574, 4200.000000, 4186.666504, 4196.410156, 0.000000, 8292.000000, 8179.000000, 0.000000, 0.000000, 0.000000, 25900.000000, 287.692291, 4.000000, 4.000000, 4.000000, 4.000000, 4.000000, 4.000000, 4.000000, 4.000000, 4.000000, 4.000000, 4.000000, 4.000000, 4.000000, 4.000000, 4.000000, 4.000000
57.000000, 0.000000, 4182.563965, 4150.256348, 4175.897461, 4176.410156, 4177.948730, 4183.076660, 4191.794922, 4190.256348, 4221.538574, 4186.666504, 4192.820313, 4201.538574, 4182.563965, 4194.871582, 0.000000, 8287.000000, 8182.000000, 0.000000, 0.000000, 0.000000, 25900.000000, 295.897430, 4.000000, 4.000000, 4.000000, 4.000000, 4.000000, 4.000000, 4.000000, 4.000000, 4.000000, 4.000000, 4.000000, 4.000000, 4.000000, 4.000000, 4.000000, 4.000000
58.000000, 0.000000, 4181.025391, 4153.333008, 4177.948730, 4174.871582, 4184.102539, 4192.820313, 4182.563965, 4177.948730, 4215.897461, 4187.179199, 4191.281738, 4195.384277, 4185.641113, 4190.769043, 0.000000, 8287.000000, 8182.000000, 0.000000, 0.000000, 0.000000, 25900.000000, 304.102570, 4.000000, 4.000000, 4.000000, 4.000000, 4.000000, 4.000000, 4.000000, 4.000000, 4.000000, 4.000000, 4.000000, 4.000000, 4.000000, 4.000000, 4.000000, 4.000000
