title:neutral-4, recorded:15.05.18 09.21.31, timestamp started:2018-05-12T20:28:52.032863+02:00            , sampling:128, subject:Noé, labels:COUNTER INTERPOLATED AF3 F7 F3 FC5 T7 P7 O1 O2 P8 T8 FC6 F4 F8 AF4 RAW_CQ GYROX GYROY MARKER MARKER_HARDWARE SYNC TIME_STAMP_s TIME_STAMP_ms CQ_AF3 CQ_F7 CQ_F3 CQ_FC5 CQ_T7 CQ_P7 CQ_O1 CQ_O2 CQ_P8 CQ_T8 CQ_FC6 CQ_F4 CQ_F8 CQ_AF4 CQ_CMS CQ_DRL, chan:40, samples:7406, units:emotiv
106.000000, 0.000000, 4194.871582, 4146.153809, 4179.487305, 4187.692383, 4204.102539, 4203.589844, 4191.794922, 4202.051270, 4199.487305, 4197.436035, 4194.358887, 4193.333008, 4240.000000, 4122.563965, 2603.000000, 8248.000000, 8139.000000, 0.000000, 0.000000, 0.000000, 22552.000000, 251.794861, 4.000000, 4.000000, 4.000000, 4.000000, 4.000000, 4.000000, 4.000000, 4.000000, 4.000000, 4.000000, 4.000000, 4.000000, 4.000000, 4.000000, 4.000000, 4.000000
107.000000, 0.000000, 4193.333008, 4154.358887, 4182.563965, 4189.743652, 4203.076660, 4203.589844, 4191.281738, 4201.538574, 4200.000000, 4190.256348, 4187.179199, 4193.333008, 4235.897461, 4122.563965, 3081.000000, 8245.000000, 8154.000000, 0.000000, 0.000000, 0.000000, 22552.000000, 259.487183, 4.000000, 4.000000, 4.000000, 4.000000, 4.000000, 4.000000, 4.000000, 4.000000, 4.000000, 4.000000, 4.000000, 4.000000, 4.000000, 4.000000, 4.000000, 4.000000
108.000000, 0.000000, 4193.333008, 4152.820313, 4185.127930, 4187.692383, 4202.051270, 4201.538574, 4186.666504, 4201.025391, 4186.153809, 4187.179199, 4182.051270, 4190.256348, 4232.820313, 4120.512695, 3510.000000, 8245.000000, 8154.000000, 0.000000, 0.000000, 0.000000, 22552.000000, 267.692291, 4.000000, 4.000000, 4.000000, 4.000000, 4.000000, 4.000000, 4.000000, 4.000000, 4.000000, 4.000000, 4.000000, 4.000000, 4.000000, 4.000000, 4.000000, 4.000000
109.000000, 0.000000, 4193.846191, 4152.820313, 4181.538574, 4187.179199, 4202.563965, 4197.436035, 4178.974121, 4200.512695, 4168.717773, 4183.076660, 4180.000000, 4188.205078, 4230.769043, 4120.512695, 3482.000000, 8240.000000, 8156.000000, 0.000000, 0.000000, 0.000000, 22552.000000, 275.897430, 4.000000, 4.000000, 4.000000, 4.000000, 4.000000, 4.000000, 4.000000, 4.000000, 4.000000, 4.000000, 4.000000, 4.000000, 4.000000, 4.000000, 4.000000, 4.000000
110.000000, 0.000000, 4193.333008, 4152.307617, 4174.871582, 4184.102539, 4185.127930, 4189.230469, 4180.000000, 4201.025391, 4170.256348, 4178.974121, 4185.127930, 4189.743652, 4233.846191, 4120.000000, 2603.000000, 8240.000000, 8156.000000, 0.000000, 0.000000, 0.000000, 22552.000000, 283.589722, 4.000000, 4.000000, 4.000000, 4.000000, 4.000000, 4.000000, 4.000000, 4.000000, 4.000000, 4.000000, 4.000000, 4.000000, 4.000000, 4.000000, 4.000000, 4.000000
111.000000, 0.000000, 4196.922852, 4154.871582, 4180.000000, 4183.589844, 4178.461426, 4186.666504, 4184.615234, 4201.025391, 4190.769043, 4195.384277, 4201.025391, 4198.974121, 4244.615234, 4122.051270, 3081.000000, 8224.000000, 8165.000000, 0.000000, 0.000000, 0.000000, 22552.000000, 291.794861, 4.000000, 4.000000, 4.000000, 4.000000, 4.000000, 4.000000, 4.000000, 4.000000, 4.000000, 4.000000, 4.000000, 4.000000, 4.000000, 4.000000, 4.000000, 4.000000
112.000000, 0.000000, 4204.102539, 4166.666504, 4195.384277, 4194.871582, 4205.127930, 4193.846191, 4188.717773, 4201.025391, 4209.743652, 4220.000000, 4217.436035, 4213.846191, 4252.307617, 4131.794922, 3510.000000, 8224.000000, 8165.000000, 0.000000, 0.000000, 0.000000, 22552.000000, 299.487183, 4.000000, 4.000000, 4.000000, 4.000000, 4.000000, 4.000000, 4.000000, 4.000000, 4.000000, 4.000000, 4.000000, 4.000000, 4.000000, 4.000000, 4.000000, 4.000000
113.000000, 0.000000, 4198.974121, 4172.307617, 4201.025391, 4203.589844, 4218.461426, 4202.051270, 4194.358887, 4203.076660, 4218.461426, 4221.025391, 4220.000000, 4217.948730, 4257.948730, 4138.461426, 3482.000000, 8212.000000, 8172.000000, 0.000000, 0.000000, 0.000000, 22552.000000, 307.692291, 4.000000, 4.000000, 4.000000, 4.000000, 4.000000, 4.000000, 4.000000, 4.000000, 4.000000, 4.000000, 4.000000, 4.000000, 4.000000, 4.000000, 4.000000, 4.000000
114.000000, 0.000000, 4191.794922, 4169.743652, 4198.461426, 4201.025391, 4205.641113, 4201.025391, 4196.410156, 4203.076660, 4214.871582, 4212.820313, 4216.922852, 4216.922852, 4260.512695, 4137.436035, 2603.000000, 8212.000000, 8172.000000, 0.000000, 0.000000, 0.000000, 22552.000000, 315.384613, 4.000000, 4.000000, 4.000000, 4.000000, 4.000000, 4.000000, 4.000000, 4.000000, 4.000000, 4.000000, 4.000000, 4.000000, 4.000000, 4.000000, 4.000000, 4.000000
115.000000, 0.000000, 4198.461426, 4170.256348, 4198.974121, 4201.538574, 4200.000000, 4191.281738, 4187.692383, 4202.051270, 4205.127930, 4206.666504, 4220.512695, 4219.487305, 4255.897461, 4140.000000, 3081.000000, 8205.000000, 8178.000000, 0.000000, 0.000000, 0.000000, 22552.000000, 323.589722, 4.000000, 4.000000, 4.000000, 4.000000, 4.000000, 4.000000, 4.000000, 4.000000, 4.000000, 4.000000, 4.000000, 4.000000, 4.000000, 4.000000, 4.000000, 4.000000
116.000000, 0.000000, 4197.436035, 4161.538574, 4197.948730, 4195.897461, 4201.538574, 4185.127930, 4183.076660, 4200.000000, 4197.436035, 4194.871582, 4215.384277, 4217.436035, 4243.076660, 4138.974121, 3510.000000, 8205.000000, 8178.000000, 0.000000, 0.000000, 0.000000, 22552.000000, 331.282043, 4.000000, 4.000000, 4.000000, 4.000000, 4.000000, 4.000000, 4.000000, 4.000000, 4.000000, 4.000000, 4.000000, 4.000000, 4.000000, 4.000000, 4.000000, 4.000000
117.000000, 0.000000, 4189.230469, 4148.205078, 4196.410156, 4182.051270, 4190.769043, 4186.666504, 4186.153809, 4198.974121, 4190.256348, 4185.641113, 4202.051270, 4212.307617, 4235.384277, 4130.256348, 3482.000000, 8179.000000, 8179.000000, 0.000000, 0.000000, 0.000000, 22552.000000, 339.487183, 4.000000, 4.000000, 4.000000, 4.000000, 4.000000, 4.000000, 4.000000, 4.000000, 4.000000, 4.000000, 4.000000, 4.000000, 4.000000, 4.000000, 4.000000, 4.000000
118.000000, 0.000000, 4197.436035, 4161.025391, 4197.948730, 4189.230469, 4178.974121, 4186.153809, 4184.102539, 4201.025391, 4186.153809, 4187.179199, 4204.615234, 4213.846191, 4241.538574, 4131.794922, 2603.000000, 8179.000000, 8179.000000, 0.000000, 0.000000, 0.000000, 22552.000000, 347.692291, 4.000000, 4.000000, 4.000000, 4.000000, 4.000000, 4.000000, 4.000000, 4.000000, 4.000000, 4.000000, 4.000000, 4.000000, 4.000000, 4.000000, 4.000000, 4.000000
119.000000, 0.000000, 4205.641113, 4171.794922, 4198.461426, 4202.563965, 4185.127930, 4184.615234, 4180.512695, 4204.102539, 4195.384277, 4196.410156, 4219.487305, 4220.000000, 4248.717773, 4141.025391, 3081.000000, 8172.000000, 8187.000000, 0.000000, 0.000000, 0.000000, 22552.000000, 355.384613, 4.000000, 4.000000, 4.000000, 4.000000, 4.000000, 4.000000, 4.000000, 4.000000, 4.000000, 4.000000, 4.000000, 4.000000, 4.000000, 4.000000, 4.000000, 4.000000
120.000000, 0.000000, 4195.384277, 4150.256348, 4190.256348, 4189.230469, 4199.487305, 4189.230469, 4185.641113, 4205.127930, 4210.769043, 4210.256348, 4221.538574, 4222.563965, 4246.153809, 4136.922852, 3510.000000, 8172.000000, 8187.000000, 0.000000, 0.000000, 0.000000, 22552.000000, 363.589722, 4.000000, 4.000000, 4.000000, 4.000000, 4.000000, 4.000000, 4.000000, 4.000000, 4.000000, 4.000000, 4.000000, 4.000000, 4.000000, 4.000000, 4.000000, 4.000000
121.000000, 0.000000, 4189.230469, 4147.692383, 4186.666504, 4178.461426, 4202.051270, 4193.846191, 4192.820313, 4202.563965, 4217.436035, 4215.384277, 4214.871582, 4218.974121, 4245.127930, 4132.307617, 3482.000000, 8162.000000, 8200.000000, 0.000000, 0.000000, 0.000000, 22552.000000, 371.282043, 4.000000, 4.000000, 4.000000, 4.000000, 4.000000, 4.000000, 4.000000, 4.000000, 4.000000, 4.000000, 4.000000, 4.000000, 4.000000, 4.000000, 4.000000, 4.000000
122.000000, 0.000000, 4203.589844, 4170.769043, 4197.948730, 4195.897461, 4198.461426, 4194.358887, 4191.281738, 4201.538574, 4215.897461, 4208.717773, 4218.461426, 4217.436035, 4253.333008, 4146.153809, 2603.000000, 8162.000000, 8200.000000, 0.000000, 0.000000, 0.000000, 22552.000000, 379.487183, 4.000000, 4.000000, 4.000000, 4.000000, 4.000000, 4.000000, 4.000000, 4.000000, 4.000000, 4.000000, 4.000000, 4.000000, 4.000000, 4.000000, 4.000000, 4.000000
123.000000, 0.000000, 4212.820313, 4180.000000, 4205.127930, 4208.717773, 4200.512695, 4194.871582, 4185.641113, 4201.538574, 4208.717773, 4201.538574, 4222.051270, 4224.102539, 4252.307617, 4156.922852, 3081.000000, 8156.000000, 8202.000000, 0.000000, 0.000000, 0.000000, 22552.000000, 387.179474, 4.000000, 4.000000, 4.000000, 4.000000, 4.000000, 4.000000, 4.000000, 4.000000, 4.000000, 4.000000, 4.000000, 4.000000, 4.000000, 4.000000, 4.000000, 4.000000
124.000000, 0.000000, 4207.692383, 4190.256348, 4201.538574, 4204.615234, 4201.538574, 4194.871582, 4185.127930, 4200.000000, 4199.487305, 4201.538574, 4218.461426, 4228.205078, 4248.205078, 4156.922852, 3510.000000, 8156.000000, 8202.000000, 0.000000, 0.000000, 0.000000, 22552.000000, 395.384613, 4.000000, 4.000000, 4.000000, 4.000000, 4.000000, 4.000000, 4.000000, 4.000000, 4.000000, 4.000000, 4.000000, 4.000000, 4.000000, 4.000000, 4.000000, 4.000000
125.000000, 0.000000, 4210.769043, 4218.461426, 4202.563965, 4208.717773, 4198.974121, 4191.281738, 4187.692383, 4200.000000, 4197.948730, 4202.563965, 4217.948730, 4224.615234, 4258.461426, 4164.102539, 3482.000000, 8159.000000, 8213.000000, 0.000000, 0.000000, 0.000000, 22552.000000, 403.076904, 4.000000, 4.000000, 4.000000, 4.000000, 4.000000, 4.000000, 4.000000, 4.000000, 4.000000, 4.000000, 4.000000, 4.000000, 4.000000, 4.000000, 4.000000, 4.000000
126.000000, 0.000000, 4212.820313, 4229.743652, 4205.127930, 4216.410156, 4194.358887, 4187.179199, 4186.153809, 4201.538574, 4198.461426, 4191.794922, 4216.922852, 4221.538574, 4264.615234, 4173.846191, 2603.000000, 8159.000000, 8213.000000, 0.000000, 0.000000, 0.000000, 22552.000000, 411.282043, 4.000000, 4.000000, 4.000000, 4.000000, 4.000000, 4.000000, 4.000000, 4.000000, 4.000000, 4.000000, 4.000000, 4.000000, 4.000000, 4.000000, 4.000000, 4.000000
127.000000, 0.000000, 4210.256348, 4230.256348, 4204.615234, 4217.436035, 4190.256348, 4186.666504, 4185.641113, 4203.589844, 4198.974121, 4188.205078, 4213.333008, 4219.487305, 4262.051270, 4174.358887, 56.000000, 8164.000000, 8217.000000, 0.000000, 0.000000, 0.000000, 22552.000000, 418.974335, 4.000000, 4.000000, 4.000000, 4.000000, 4.000000, 4.000000, 4.000000, 4.000000, 4.000000, 4.000000, 4.000000, 4.000000, 4.000000, 4.000000, 4.000000, 4.000000
0.000000, 0.000000, 4211.281738, 4241.538574, 4207.179199, 4219.487305, 4190.769043, 4186.666504, 4184.615234, 4202.051270, 4200.512695, 4196.922852, 4207.179199, 4215.384277, 4263.076660, 4170.256348, 3549.000000, 8164.000000, 8217.000000, 0.000000, 0.000000, 0.000000, 22552.000000, 427.179474, 4.000000, 4.000000, 4.000000, 4.000000, 4.000000, 4.000000, 4.000000, 4.000000, 4.000000, 4.000000, 4.000000, 4.000000, 4.000000, 4.000000, 4.000000, 4.000000
1.000000, 0.000000, 4208.205078, 4241.538574, 4206.153809, 4220.000000, 4190.769043, 4185.641113, 4176.922852, 4200.000000, 4195.384277, 4192.307617, 4199.487305, 4213.333008, 4260.512695, 4163.076660, 3546.000000, 8159.000000, 8214.000000, 0.000000, 0.000000, 0.000000, 22552.000000, 434.871796, 4.000000, 4.000000, 4.000000, 4.000000, 4.000000, 4.000000, 4.000000, 4.000000, 4.000000, 4.000000, 4.000000, 4.000000, 4.000000, 4.000000, 4.000000, 4.000000
2.000000, 0.000000, 4205.641113, 4237.948730, 4202.563965, 4216.410156, 4185.641113, 4184.102539, 4170.769043, 4201.025391, 4192.820313, 4184.102539, 4197.436035, 4213.333008, 4250.769043, 4158.974121, 2092.000000, 8159.000000, 8214.000000, 0.000000, 0.000000, 0.000000, 22552.000000, 442.564087, 4.000000, 4.000000, 4.000000, 4.000000, 4.000000, 4.000000, 4.000000, 4.000000, 4.000000, 4.000000, 4.000000, 4.000000, 4.000000, 4.000000, 4.000000, 4.000000
3.000000, 0.000000, 4203.589844, 4241.025391, 4204.102539, 4216.922852, 4184.615234, 4183.589844, 4172.820313, 4201.538574, 4196.922852, 4189.743652, 4203.076660, 4210.256348, 4252.307617, 4159.487305, 3570.000000, 8166.000000, 8207.000000, 0.000000, 0.000000, 0.000000, 22552.000000, 450.769226, 4.000000, 4.000000, 4.000000, 4.000000, 4.000000, 4.000000, 4.000000, 4.000000, 4.000000, 4.000000, 4.000000, 4.000000, 4.000000, 4.000000, 4.000000, 4.000000
4.000000, 0.000000, 4198.974121, 4231.794922, 4200.000000, 4213.333008, 4186.666504, 4184.102539, 4175.384277, 4198.461426, 4191.794922, 4186.153809, 4198.461426, 4203.076660, 4261.025391, 4155.384277, 3475.000000, 8166.000000, 8207.000000, 0.000000, 0.000000, 0.000000, 22552.000000, 458.461517, 4.000000, 4.000000, 4.000000, 4.000000, 4.000000, 4.000000, 4.000000, 4.000000, 4.000000, 4.000000, 4.000000, 4.000000, 4.000000, 4.000000, 4.000000, 4.000000
5.000000, 0.000000, 4194.358887, 4219.487305, 4192.307617, 4202.051270, 4182.051270, 4184.102539, 4175.384277, 4197.948730, 4181.025391, 4177.436035, 4187.179199, 4198.974121, 4256.410156, 4156.410156, 3580.000000, 8169.000000, 8207.000000, 0.000000, 0.000000, 0.000000, 22552.000000, 466.666656, 4.000000, 4.000000, 4.000000, 4.000000, 4.000000, 4.000000, 4.000000, 4.000000, 4.000000, 4.000000, 4.000000, 4.000000, 4.000000, 4.000000, 4.000000, 4.000000
6.000000, 0.000000, 4197.436035, 4219.487305, 4195.897461, 4205.127930, 4184.102539, 4185.641113, 4181.025391, 4201.025391, 4184.102539, 4185.127930, 4187.179199, 4200.512695, 4254.871582, 4166.153809, 2357.000000, 8169.000000, 8207.000000, 0.000000, 0.000000, 0.000000, 22552.000000, 474.358948, 4.000000, 4.000000, 4.000000, 4.000000, 4.000000, 4.000000, 4.000000, 4.000000, 4.000000, 4.000000, 4.000000, 4.000000, 4.000000, 4.000000, 4.000000, 4.000000
7.000000, 0.000000, 4206.153809, 4221.025391, 4202.563965, 4218.461426, 4197.948730, 4189.230469, 4186.153809, 4201.538574, 4189.230469, 4185.641113, 4190.769043, 4199.487305, 4263.076660, 4167.692383, 784.000000, 8184.000000, 8209.000000, 0.000000, 0.000000, 0.000000, 22552.000000, 482.051270, 4.000000, 4.000000, 4.000000, 4.000000, 4.000000, 4.000000, 4.000000, 4.000000, 4.000000, 4.000000, 4.000000, 4.000000, 4.000000, 4.000000, 4.000000, 4.000000
8.000000, 0.000000, 4204.615234, 4216.410156, 4196.922852, 4218.974121, 4194.871582, 4188.717773, 4182.051270, 4200.512695, 4184.102539, 4176.410156, 4185.127930, 4195.384277, 4262.051270, 4159.487305, 3538.000000, 8184.000000, 8209.000000, 0.000000, 0.000000, 0.000000, 22552.000000, 490.256409, 4.000000, 4.000000, 4.000000, 4.000000, 4.000000, 4.000000, 4.000000, 4.000000, 4.000000, 4.000000, 4.000000, 4.000000, 4.000000, 4.000000, 4.000000, 4.000000
9.000000, 0.000000, 4198.974121, 4212.820313, 4191.794922, 4213.846191, 4178.461426, 4185.127930, 4181.538574, 4200.512695, 4180.512695, 4180.512695, 4181.025391, 4193.846191, 4256.410156, 4156.410156, 3541.000000, 8184.000000, 8203.000000, 0.000000, 0.000000, 0.000000, 22552.000000, 497.948700, 4.000000, 4.000000, 4.000000, 4.000000, 4.000000, 4.000000, 4.000000, 4.000000, 4.000000, 4.000000, 4.000000, 4.000000, 4.000000, 4.000000, 4.000000, 4.000000
10.000000, 0.000000, 4201.538574, 4218.974121, 4199.487305, 4216.410156, 4187.692383, 4186.153809, 4184.615234, 4201.538574, 4184.615234, 4188.717773, 4186.153809, 4200.000000, 4261.538574, 4160.512695, 2603.000000, 8184.000000, 8203.000000, 0.000000, 0.000000, 0.000000, 22552.000000, 505.641022, 4.000000, 4.000000, 4.000000, 4.000000, 4.000000, 4.000000, 4.000000, 4.000000, 4.000000, 4.000000, 4.000000, 4.000000, 4.000000, 4.000000, 4.000000, 4.000000
11.000000, 0.000000, 4202.051270, 4220.512695, 4202.051270, 4217.948730, 4199.487305, 4187.692383, 4186.666504, 4201.538574, 4188.205078, 4188.717773, 4191.281738, 4208.205078, 4264.615234, 4166.666504, 3081.000000, 8188.000000, 8205.000000, 0.000000, 0.000000, 0.000000, 22552.000000, 513.846130, 4.000000, 4.000000, 4.000000, 4.000000, 4.000000, 4.000000, 4.000000, 4.000000, 4.000000, 4.000000, 4.000000, 4.000000, 4.000000, 4.000000, 4.000000, 4.000000
12.000000, 0.000000, 4198.461426, 4205.127930, 4190.769043, 4214.871582, 4185.127930, 4184.102539, 4189.230469, 4201.025391, 4185.641113, 4184.615234, 4188.717773, 4207.692383, 4260.512695, 4169.743652, 3510.000000, 8188.000000, 8205.000000, 0.000000, 0.000000, 0.000000, 22552.000000, 521.538452, 4.000000, 4.000000, 4.000000, 4.000000, 4.000000, 4.000000, 4.000000, 4.000000, 4.000000, 4.000000, 4.000000, 4.000000, 4.000000, 4.000000, 4.000000, 4.000000
13.000000, 0.000000, 4198.461426, 4202.051270, 4184.102539, 4210.769043, 4185.127930, 4184.102539, 4185.641113, 4200.000000, 4181.538574, 4181.025391, 4185.127930, 4206.153809, 4260.000000, 4168.717773, 3482.000000, 8197.000000, 8188.000000, 0.000000, 0.000000, 0.000000, 22552.000000, 529.743591, 4.000000, 4.000000, 4.000000, 4.000000, 4.000000, 4.000000, 4.000000, 4.000000, 4.000000, 4.000000, 4.000000, 4.000000, 4.000000, 4.000000, 4.000000, 4.000000
14.000000, 0.000000, 4200.512695, 4215.384277, 4188.205078, 4206.666504, 4202.051270, 4192.307617, 4182.051270, 4202.051270, 4187.692383, 4183.589844, 4191.794922, 4214.871582, 4264.615234, 4173.846191, 2603.000000, 8197.000000, 8188.000000, 0.000000, 0.000000, 0.000000, 22552.000000, 537.435913, 4.000000, 4.000000, 4.000000, 4.000000, 4.000000, 4.000000, 4.000000, 4.000000, 4.000000, 4.000000, 4.000000, 4.000000, 4.000000, 4.000000, 4.000000, 4.000000
15.000000, 0.000000, 4202.563965, 4220.000000, 4192.307617, 4212.307617, 4201.538574, 4201.538574, 4192.820313, 4205.127930, 4200.512695, 4195.384277, 4205.127930, 4227.179199, 4272.307617, 4183.076660, 3081.000000, 8204.000000, 8184.000000, 0.000000, 0.000000, 0.000000, 22552.000000, 545.640991, 4.000000, 4.000000, 4.000000, 4.000000, 4.000000, 4.000000, 4.000000, 4.000000, 4.000000, 4.000000, 4.000000, 4.000000, 4.000000, 4.000000, 4.000000, 4.000000
16.000000, 0.000000, 4201.538574, 4214.358887, 4191.281738, 4216.410156, 4200.512695, 4205.127930, 4198.974121, 4203.589844, 4205.127930, 4204.615234, 4210.256348, 4229.230469, 4276.922852, 4182.563965, 0.000000, 8204.000000, 8184.000000, 0.000000, 0.000000, 0.000000, 22552.000000, 553.333313, 4.000000, 4.000000, 4.000000, 4.000000, 4.000000, 4.000000, 4.000000, 4.000000, 4.000000, 4.000000, 4.000000, 4.000000, 4.000000, 4.000000, 4.000000, 4.000000
17.000000, 0.000000, 4201.538574, 4215.384277, 4185.127930, 4207.179199, 4198.461426, 4202.051270, 4190.256348, 4201.538574, 4207.692383, 4205.127930, 4205.127930, 4222.051270, 4275.384277, 4180.000000, 0.000000, 8219.000000, 8180.000000, 0.000000, 0.000000, 0.000000, 22552.000000, 561.538452, 4.000000, 4.000000, 4.000000, 4.000000, 4.000000, 4.000000, 4.000000, 4.000000, 4.000000, 4.000000, 4.000000, 4.000000, 4.000000, 4.000000, 4.000000, 4.000000
18.000000, 0.000000, 4201.025391, 4215.897461, 4183.589844, 4203.076660, 4185.641113, 4198.974121, 4185.127930, 4201.025391, 4213.846191, 4204.615234, 4201.538574, 4213.333008, 4274.871582, 4180.000000, 0.000000, 8219.000000, 8180.000000, 0.000000, 0.000000, 0.000000, 22552.000000, 569.230774, 4.000000, 4.000000, 4.000000, 4.000000, 4.000000, 4.000000, 4.000000, 4.000000, 4.000000, 4.000000, 4.000000, 4.000000, 4.000000, 4.000000, 4.000000, 4.000000
19.000000, 0.000000, 4201.025391, 4218.461426, 4188.717773, 4214.358887, 4190.256348, 4200.000000, 4186.153809, 4201.538574, 4211.281738, 4205.641113, 4202.051270, 4206.666504, 4277.436035, 4176.922852, 0.000000, 8220.000000, 8185.000000, 0.000000, 0.000000, 0.000000, 22552.000000, 576.923035, 4.000000, 4.000000, 4.000000, 4.000000, 4.000000, 4.000000, 4.000000, 4.000000, 4.000000, 4.000000, 4.000000, 4.000000, 4.000000, 4.000000, 4.000000, 4.000000
20.000000, 0.000000, 4202.051270, 4222.563965, 4189.743652, 4217.948730, 4201.538574, 4202.051270, 4190.256348, 4201.538574, 4198.974121, 4202.051270, 4197.436035, 4203.589844, 4275.897461, 4169.230469, 0.000000, 8220.000000, 8185.000000, 0.000000, 0.000000, 0.000000, 22552.000000, 584.615356, 4.000000, 4.000000, 4.000000, 4.000000, 4.000000, 4.000000, 4.000000, 4.000000, 4.000000, 4.000000, 4.000000, 4.000000, 4.000000, 4.000000, 4.000000, 4.000000
21.000000, 0.000000, 4193.333008, 4198.461426, 4184.615234, 4203.589844, 4191.281738, 4203.589844, 4195.384277, 4201.538574, 4191.281738, 4187.179199, 4185.127930, 4198.461426, 4264.102539, 4155.897461, 0.000000, 8229.000000, 8200.000000, 0.000000, 0.000000, 0.000000, 22552.000000, 592.820496, 4.000000, 4.000000, 4.000000, 4.000000, 4.000000, 4.000000, 4.000000, 4.000000, 4.000000, 4.000000, 4.000000, 4.000000, 4.000000, 4.000000, 4.000000, 4.000000
22.000000, 0.000000, 4190.769043, 4182.051270, 4183.076660, 4194.358887, 4181.538574, 4203.076660, 4190.769043, 4201.025391, 4184.102539, 4166.666504, 4175.384277, 4191.794922, 4254.358887, 4145.641113, 0.000000, 8229.000000, 8200.000000, 0.000000, 0.000000, 0.000000, 22552.000000, 600.512817, 4.000000, 4.000000, 4.000000, 4.000000, 4.000000, 4.000000, 4.000000, 4.000000, 4.000000, 4.000000, 4.000000, 4.000000, 4.000000, 4.000000, 4.000000, 4.000000
23.000000, 0.000000, 4201.538574, 4210.256348, 4184.102539, 4206.153809, 4188.717773, 4196.922852, 4181.538574, 4199.487305, 4174.358887, 4160.000000, 4172.307617, 4188.717773, 4258.461426, 4147.692383, 0.000000, 8231.000000, 8198.000000, 0.000000, 0.000000, 0.000000, 22552.000000, 608.717957, 4.000000, 4.000000, 4.000000, 4.000000, 4.000000, 4.000000, 4.000000, 4.000000, 4.000000, 4.000000, 4.000000, 4.000000, 4.000000, 4.000000, 4.000000, 4.000000
24.000000, 0.000000, 4207.179199, 4236.410156, 4185.127930, 4218.461426, 4193.333008, 4195.384277, 4184.102539, 4199.487305, 4177.436035, 4168.717773, 4173.333008, 4191.281738, 4265.127930, 4153.333008, 0.000000, 8231.000000, 8198.000000, 0.000000, 0.000000, 0.000000, 22552.000000, 616.410217, 4.000000, 4.000000, 4.000000, 4.000000, 4.000000, 4.000000, 4.000000, 4.000000, 4.000000, 4.000000, 4.000000, 4.000000, 4.000000, 4.000000, 4.000000, 4.000000
25.000000, 0.000000, 4206.153809, 4232.307617, 4194.358887, 4218.461426, 4196.922852, 4199.487305, 4187.179199, 4200.512695, 4187.692383, 4177.948730, 4180.512695, 4196.410156, 4262.563965, 4153.846191, 0.000000, 8229.000000, 8191.000000, 0.000000, 0.000000, 0.000000, 22552.000000, 624.102539, 4.000000, 4.000000, 4.000000, 4.000000, 4.000000, 4.000000, 4.000000, 4.000000, 4.000000, 4.000000, 4.000000, 4.000000, 4.000000, 4.000000, 4.000000, 4.000000
26.000000, 0.000000, 4205.127930, 4229.743652, 4200.000000, 4217.948730, 4201.538574, 4202.051270, 4183.589844, 4201.538574, 4190.769043, 4182.563965, 4184.102539, 4196.922852, 4256.410156, 4152.307617, 0.000000, 8229.000000, 8191.000000, 0.000000, 0.000000, 0.000000, 22552.000000, 631.794861, 4.000000, 4.000000, 4.000000, 4.000000, 4.000000, 4.000000, 4.000000, 4.000000, 4.000000, 4.000000, 4.000000, 4.000000, 4.000000, 4.000000, 4.000000, 4.000000
27.000000, 0.000000, 4202.051270, 4230.256348, 4191.794922, 4217.436035, 4194.358887, 4200.512695, 4184.615234, 4202.051270, 4187.179199, 4186.153809, 4178.461426, 4192.820313, 4253.333008, 4143.589844, 0.000000, 8224.000000, 8189.000000, 0.000000, 0.000000, 0.000000, 22552.000000, 640.000000, 4.000000, 4.000000, 4.000000, 4.000000, 4.000000, 4.000000, 4.000000, 4.000000, 4.000000, 4.000000, 4.000000, 4.000000, 4.000000, 4.000000, 4.000000, 4.000000
28.000000, 0.000000, 4197.948730, 4219.487305, 4186.153809, 4208.205078, 4181.025391, 4193.846191, 4182.563965, 4201.025391, 4186.153809, 4183.589844, 4172.307617, 4191.794922, 4251.281738, 4134.871582, 0.000000, 8224.000000, 8189.000000, 0.000000, 0.000000, 0.000000, 22552.000000, 647.692322, 4.000000, 4.000000, 4.000000, 4.000000, 4.000000, 4.000000, 4.000000, 4.000000, 4.000000, 4.000000, 4.000000, 4.000000, 4.000000, 4.000000, 4.000000, 4.000000
29.000000, 0.000000, 4198.461426, 4210.256348, 4189.743652, 4201.538574, 4180.512695, 4185.641113, 4178.461426, 4200.000000, 4186.153809, 4175.897461, 4171.794922, 4195.897461, 4248.717773, 4145.127930, 0.000000, 8222.000000, 8183.000000, 0.000000, 0.000000, 0.000000, 22552.000000, 655.897400, 4.000000, 4.000000, 4.000000, 4.000000, 4.000000, 4.000000, 4.000000, 4.000000, 4.000000, 4.000000, 4.000000, 4.000000, 4.000000, 4.000000, 4.000000, 4.000000
30.000000, 0.000000, 4198.461426, 4209.230469, 4186.666504, 4202.563965, 4192.307617, 4185.641113, 4182.051270, 4202.051270, 4178.461426, 4164.102539, 4171.794922, 4197.948730, 4246.153809, 4154.358887, 0.000000, 8222.000000, 8183.000000, 0.000000, 0.000000, 0.000000, 22552.000000, 663.589722, 4.000000, 4.000000, 4.000000, 4.000000, 4.000000, 4.000000, 4.000000, 4.000000, 4.000000, 4.000000, 4.000000, 4.000000, 4.000000, 4.000000, 4.000000, 4.000000
31.000000, 0.000000, 4194.358887, 4211.794922, 4183.076660, 4204.615234, 4199.487305, 4192.307617, 4180.512695, 4202.051270, 4168.717773, 4152.820313, 4171.281738, 4197.948730, 4243.076660, 4151.281738, 0.000000, 8223.000000, 8174.000000, 0.000000, 0.000000, 0.000000, 22552.000000, 671.282043, 4.000000, 4.000000, 4.000000, 4.000000, 4.000000, 4.000000, 4.000000, 4.000000, 4.000000, 4.000000, 4.000000, 4.000000, 4.000000, 4.000000, 4.000000, 4.000000
32.000000, 0.000000, 4195.897461, 4215.897461, 4189.230469, 4206.666504, 4194.871582, 4198.461426, 4177.948730, 4198.974121, 4166.153809, 4156.922852, 4171.281738, 4203.076660, 4241.025391, 4160.000000, 0.000000, 8223.000000, 8174.000000, 0.000000, 0.000000, 0.000000, 22552.000000, 678.974365, 4.000000, 4.000000, 4.000000, 4.000000, 4.000000, 4.000000, 4.000000, 4.000000, 4.000000, 4.000000, 4.000000, 4.000000, 4.000000, 4.000000, 4.000000, 4.000000
33.000000, 0.000000, 4196.410156, 4215.384277, 4190.769043, 4204.615234, 4190.769043, 4201.538574, 4183.589844, 4199.487305, 4171.794922, 4165.641113, 4176.410156, 4204.102539, 4242.051270, 4172.307617, 0.000000, 8223.000000, 8173.000000, 0.000000, 0.000000, 0.000000, 22552.000000, 687.179443, 4.000000, 4.000000, 4.000000, 4.000000, 4.000000, 4.000000, 4.000000, 4.000000, 4.000000, 4.000000, 4.000000, 4.000000, 4.000000, 4.000000, 4.000000, 4.000000
34.000000, 0.000000, 4194.358887, 4210.256348, 4187.692383, 4204.615234, 4188.717773, 4197.948730, 4183.589844, 4202.051270, 4176.922852, 4169.230469, 4182.051270, 4201.538574, 4244.102539, 4166.153809, 0.000000, 8223.000000, 8173.000000, 0.000000, 0.000000, 0.000000, 22552.000000, 694.871765, 4.000000, 4.000000, 4.000000, 4.000000, 4.000000, 4.000000, 4.000000, 4.000000, 4.000000, 4.000000, 4.000000, 4.000000, 4.000000, 4.000000, 4.000000, 4.000000
35.000000, 0.000000, 4202.051270, 4211.281738, 4194.358887, 4212.307617, 4185.641113, 4195.384277, 4178.974121, 4201.538574, 4182.051270, 4177.948730, 4185.641113, 4209.230469, 4246.153809, 4167.179199, 0.000000, 8221.000000, 8173.000000, 0.000000, 0.000000, 0.000000, 22552.000000, 702.564087, 4.000000, 4.000000, 4.000000, 4.000000, 4.000000, 4.000000, 4.000000, 4.000000, 4.000000, 4.000000, 4.000000, 4.000000, 4.000000, 4.000000, 4.000000, 4.000000
36.000000, 0.000000, 4207.692383, 4224.102539, 4204.102539, 4217.948730, 4193.846191, 4200.512695, 4184.102539, 4200.512695, 4185.641113, 4188.205078, 4194.871582, 4218.974121, 4249.230469, 4185.127930, 0.000000, 8221.000000, 8173.000000, 0.000000, 0.000000, 0.000000, 22552.000000, 710.769226, 4.000000, 4.000000, 4.000000, 4.000000, 4.000000, 4.000000, 4.000000, 4.000000, 4.000000, 4.000000, 4.000000, 4.000000, 4.000000, 4.000000, 4.000000, 4.000000
37.000000, 0.000000, 4203.076660, 4230.769043, 4204.102539, 4218.461426, 4204.615234, 4202.563965, 4190.256348, 4201.538574, 4187.179199, 4187.179199, 4198.974121, 4215.384277, 4249.230469, 4179.487305, 0.000000, 8217.000000, 8178.000000, 0.000000, 0.000000, 0.000000, 22552.000000, 718.461548, 4.000000, 4.000000, 4.000000, 4.000000, 4.000000, 4.000000, 4.000000, 4.000000, 4.000000, 4.000000, 4.000000, 4.000000, 4.000000, 4.000000, 4.000000, 4.000000
38.000000, 0.000000, 4198.461426, 4219.487305, 4201.538574, 4217.948730, 4200.000000, 4200.512695, 4188.717773, 4201.538574, 4190.769043, 4185.127930, 4194.871582, 4207.179199, 4248.205078, 4164.102539, 0.000000, 8217.000000, 8178.000000, 0.000000, 0.000000, 0.000000, 22552.000000, 726.153809, 4.000000, 4.000000, 4.000000, 4.000000, 4.000000, 4.000000, 4.000000, 4.000000, 4.000000, 4.000000, 4.000000, 4.000000, 4.000000, 4.000000, 4.000000, 4.000000
39.000000, 0.000000, 4195.897461, 4214.358887, 4202.051270, 4217.948730, 4196.922852, 4202.051270, 4185.641113, 4197.948730, 4189.743652, 4187.179199, 4196.410156, 4205.641113, 4245.127930, 4176.922852, 0.000000, 8214.000000, 8174.000000, 0.000000, 0.000000, 0.000000, 22552.000000, 734.358948, 4.000000, 4.000000, 4.000000, 4.000000, 4.000000, 4.000000, 4.000000, 4.000000, 4.000000, 4.000000, 4.000000, 4.000000, 4.000000, 4.000000, 4.000000, 4.000000
40.000000, 0.000000, 4195.384277, 4221.025391, 4201.025391, 4216.410156, 4204.102539, 4202.563965, 4190.256348, 4200.000000, 4183.589844, 4184.102539, 4200.512695, 4202.563965, 4236.922852, 4192.307617, 0.000000, 8214.000000, 8174.000000, 0.000000, 0.000000, 0.000000, 22552.000000, 742.051270, 4.000000, 4.000000, 4.000000, 4.000000, 4.000000, 4.000000, 4.000000, 4.000000, 4.000000, 4.000000, 4.000000, 4.000000, 4.000000, 4.000000, 4.000000, 4.000000
41.000000, 0.000000, 4198.461426, 4222.563965, 4208.717773, 4217.436035, 4205.641113, 4202.051270, 4193.846191, 4200.000000, 4183.589844, 4183.076660, 4197.436035, 4201.538574, 4234.871582, 4188.717773, 0.000000, 8204.000000, 8178.000000, 0.000000, 0.000000, 0.000000, 22552.000000, 750.256409, 4.000000, 4.000000, 4.000000, 4.000000, 4.000000, 4.000000, 4.000000, 4.000000, 4.000000, 4.000000, 4.000000, 4.000000, 4.000000, 4.000000, 4.000000, 4.000000
42.000000, 0.000000, 4203.076660, 4217.436035, 4214.871582, 4217.436035, 4199.487305, 4204.615234, 4195.384277, 4190.769043, 4186.153809, 4183.589844, 4194.358887, 4208.717773, 4232.820313, 4180.512695, 0.000000, 8204.000000, 8178.000000, 0.000000, 0.000000, 0.000000, 22552.000000, 757.948669, 4.000000, 4.000000, 4.000000, 4.000000, 4.000000, 4.000000, 4.000000, 4.000000, 4.000000, 4.000000, 4.000000, 4.000000, 4.000000, 4.000000, 4.000000, 4.000000
43.000000, 0.000000, 4198.461426, 4209.743652, 4206.153809, 4214.358887, 4198.974121, 4205.641113, 4196.410156, 4189.743652, 4184.615234, 4182.051270, 4196.922852, 4209.230469, 4225.127930, 4166.153809, 0.000000, 8205.000000, 8176.000000, 0.000000, 0.000000, 0.000000, 22552.000000, 766.153809, 4.000000, 4.000000, 4.000000, 4.000000, 4.000000, 4.000000, 4.000000, 4.000000, 4.000000, 4.000000, 4.000000, 4.000000, 4.000000, 4.000000, 4.000000, 4.000000
44.000000, 0.000000, 4195.384277, 4213.846191, 4201.025391, 4214.871582, 4202.051270, 4203.076660, 4193.846191, 4192.307617, 4186.666504, 4186.153809, 4200.000000, 4203.589844, 4222.563965, 4154.358887, 0.000000, 8205.000000, 8176.000000, 0.000000, 0.000000, 0.000000, 22552.000000, 773.846130, 4.000000, 4.000000, 4.000000, 4.000000, 4.000000, 4.000000, 4.000000, 4.000000, 4.000000, 4.000000, 4.000000, 4.000000, 4.000000, 4.000000, 4.000000, 4.000000
45.000000, 0.000000, 4201.538574, 4226.666504, 4199.487305, 4216.410156, 4205.127930, 4200.512695, 4190.256348, 4190.769043, 4190.256348, 4188.717773, 4198.974121, 4200.000000, 4222.563965, 4155.384277, 0.000000, 8198.000000, 8167.000000, 0.000000, 0.000000, 0.000000, 22552.000000, 781.538452, 4.000000, 4.000000, 4.000000, 4.000000, 4.000000, 4.000000, 4.000000, 4.000000, 4.000000, 4.000000, 4.000000, 4.000000, 4.000000, 4.000000, 4.000000, 4.000000
46.000000, 0.000000, 4198.974121, 4222.563965, 4191.794922, 4212.820313, 4205.641113, 4201.025391, 4185.641113, 4189.743652, 4186.153809, 4183.589844, 4190.256348, 4195.897461, 4215.384277, 4154.358887, 0.000000, 8198.000000, 8167.000000, 0.000000, 0.000000, 0.000000, 22552.000000, 789.230774, 4.000000, 4.000000, 4.000000, 4.000000, 4.000000, 4.000000, 4.000000, 4.000000, 4.000000, 4.000000, 4.000000, 4.000000, 4.000000, 4.000000, 4.000000, 4.000000
47.000000, 0.000000, 4196.922852, 4213.846191, 4191.794922, 4212.307617, 4202.051270, 4198.461426, 4177.436035, 4188.717773, 4181.025391, 4182.051270, 4189.230469, 4192.820313, 4213.333008, 4149.743652, 0.000000, 8191.000000, 8153.000000, 0.000000, 0.000000, 0.000000, 22552.000000, 797.435852, 4.000000, 4.000000, 4.000000, 4.000000, 4.000000, 4.000000, 4.000000, 4.000000, 4.000000, 4.000000, 4.000000, 4.000000, 4.000000, 4.000000, 4.000000, 4.000000
48.000000, 0.000000, 4203.076660, 4219.487305, 4203.076660, 4218.974121, 4200.000000, 4192.307617, 4175.384277, 4191.794922, 4182.563965, 4183.076660, 4198.974121, 4198.461426, 4222.563965, 4152.307617, 0.000000, 8191.000000, 8153.000000, 0.000000, 0.000000, 0.000000, 22552.000000, 805.128174, 4.000000, 4.000000, 4.000000, 4.000000, 4.000000, 4.000000, 4.000000, 4.000000, 4.000000, 4.000000, 4.000000, 4.000000, 4.000000, 4.000000, 4.000000, 4.000000
49.000000, 0.000000, 4203.589844, 4221.538574, 4211.794922, 4221.538574, 4202.051270, 4192.307617, 4182.051270, 4197.436035, 4188.717773, 4186.666504, 4202.051270, 4211.281738, 4229.743652, 4156.410156, 0.000000, 8185.000000, 8156.000000, 0.000000, 0.000000, 0.000000, 22552.000000, 813.333313, 4.000000, 4.000000, 4.000000, 4.000000, 4.000000, 4.000000, 4.000000, 4.000000, 4.000000, 4.000000, 4.000000, 4.000000, 4.000000, 4.000000, 4.000000, 4.000000
50.000000, 0.000000, 4203.589844, 4216.922852, 4213.333008, 4219.487305, 4199.487305, 4198.974121, 4187.179199, 4199.487305, 4194.871582, 4196.922852, 4202.051270, 4214.871582, 4230.256348, 4154.358887, 0.000000, 8185.000000, 8156.000000, 0.000000, 0.000000, 0.000000, 22552.000000, 821.025635, 4.000000, 4.000000, 4.000000, 4.000000, 4.000000, 4.000000, 4.000000, 4.000000, 4.000000, 4.000000, 4.000000, 4.000000, 4.000000, 4.000000, 4.000000, 4.000000
51.000000, 0.000000, 4204.102539, 4223.589844, 4206.666504, 4218.461426, 4192.820313, 4202.563965, 4184.102539, 4196.922852, 4196.922852, 4201.538574, 4206.666504, 4210.256348, 4228.717773, 4149.230469, 0.000000, 8197.000000, 8149.000000, 0.000000, 0.000000, 0.000000, 22552.000000, 828.717957, 4.000000, 4.000000, 4.000000, 4.000000, 4.000000, 4.000000, 4.000000, 4.000000, 4.000000, 4.000000, 4.000000, 4.000000, 4.000000, 4.000000, 4.000000, 4.000000
52.000000, 0.000000, 4201.025391, 4228.717773, 4201.025391, 4218.974121, 4199.487305, 4202.051270, 4185.127930, 4194.871582, 4198.974121, 4197.948730, 4208.717773, 4212.307617, 4227.692383, 4148.717773, 0.000000, 8197.000000, 8149.000000, 0.000000, 0.000000, 0.000000, 22552.000000, 836.923035, 4.000000, 4.000000, 4.000000, 4.000000, 4.000000, 4.000000, 4.000000, 4.000000, 4.000000, 4.000000, 4.000000, 4.000000, 4.000000, 4.000000, 4.000000, 4.000000
53.000000, 0.000000, 4200.512695, 4222.563965, 4203.076660, 4215.384277, 4210.256348, 4202.563965, 4186.666504, 4191.794922, 4201.025391, 4202.563965, 4205.641113, 4216.922852, 4224.102539, 4152.307617, 0.000000, 8201.000000, 8146.000000, 0.000000, 0.000000, 0.000000, 22552.000000, 844.615356, 4.000000, 4.000000, 4.000000, 4.000000, 4.000000, 4.000000, 4.000000, 4.000000, 4.000000, 4.000000, 4.000000, 4.000000, 4.000000, 4.000000, 4.000000, 4.000000
54.000000, 0.000000, 4200.512695, 4212.820313, 4203.589844, 4209.743652, 4196.922852, 4202.563965, 4181.025391, 4188.717773, 4193.333008, 4201.025391, 4200.512695, 4214.358887, 4215.897461, 4150.256348, 0.000000, 8201.000000, 8146.000000, 0.000000, 0.000000, 0.000000, 22552.000000, 852.820496, 4.000000, 4.000000, 4.000000, 4.000000, 4.000000, 4.000000, 4.000000, 4.000000, 4.000000, 4.000000, 4.000000, 4.000000, 4.000000, 4.000000, 4.000000, 4.000000
55.000000, 0.000000, 4202.051270, 4204.615234, 4203.076660, 4210.769043, 4183.589844, 4200.000000, 4176.922852, 4189.743652, 4183.589844, 4188.717773, 4197.436035, 4210.256348, 4214.871582, 4142.563965, 0.000000, 8211.000000, 8151.000000, 0.000000, 0.000000, 0.000000, 22552.000000, 860.512817, 4.000000, 4.000000, 4.000000, 4.000000, 4.000000, 4.000000, 4.000000, 4.000000, 4.000000, 4.000000, 4.000000, 4.000000, 4.000000, 4.000000, 4.000000, 4.000000
56.000000, 0.000000, 4207.692383, 4206.153809, 4204.615234, 4215.897461, 4201.538574, 4203.589844, 4180.512695, 4192.307617, 4189.230469, 4190.256348, 4198.974121, 4205.127930, 4216.922852, 4139.487305, 0.000000, 8211.000000, 8151.000000, 0.000000, 0.000000, 0.000000, 22552.000000, 868.717957, 4.000000, 4.000000, 4.000000, 4.000000, 4.000000, 4.000000, 4.000000, 4.000000, 4.000000, 4.000000, 4.000000, 4.000000, 4.000000, 4.000000, 4.000000, 4.000000
57.000000, 0.000000, 4204.615234, 4218.461426, 4202.563965, 4216.922852, 4220.000000, 4213.333008, 4186.666504, 4197.436035, 4201.538574, 4200.512695, 4202.563965, 4200.512695, 4215.897461, 4142.563965, 0.000000, 8209.000000, 8154.000000, 0.000000, 0.000000, 0.000000, 22552.000000, 876.410217, 4.000000, 4.000000, 4.000000, 4.000000, 4.000000, 4.000000, 4.000000, 4.000000, 4.000000, 4.000000, 4.000000, 4.000000, 4.000000, 4.000000, 4.000000, 4.000000
58.000000, 0.000000, 4198.974121, 4229.743652, 4199.487305, 4217.436035, 4216.922852, 4219.487305, 4188.717773, 4198.974121, 4204.102539, 4208.717773, 4207.692383, 4206.153809, 4222.051270, 4150.256348, 0.000000, 8209.000000, 8154.000000, 0.000000, 0.000000, 0.000000, 22552.000000, 884.102539, 4.000000, 4.000000, 4.000000, 4.000000, 4.000000, 4.000000, 4.000000, 4.000000, 4.000000, 4.000000, 4.000000, 4.000000, 4.000000, 4.000000, 4.000000, 4.000000
59.000000, 0.000000, 4202.051270, 4229.743652, 4198.974121, 4218.461426, 4213.846191, 4216.922852, 4186.153809, 4192.820313, 4202.051270, 4214.871582, 4216.410156, 4213.846191, 4228.717773, 4156.410156, 0.000000, 8213.000000, 8158.000000, 0.000000, 0.000000, 0.000000, 22552.000000, 892.307678, 4.000000, 4.000000, 4.000000, 4.000000, 4.000000, 4.000000, 4.000000, 4.000000, 4.000000, 4.000000, 4.000000, 4.000000, 4.000000, 4.000000, 4.000000, 4.000000
60.000000, 0.000000, 4206.153809, 4223.076660, 4200.000000, 4215.384277, 4216.410156, 4206.153809, 4185.641113, 4192.307617, 4202.051270, 4208.717773, 4216.410156, 4213.846191, 4223.589844, 4153.846191, 0.000000, 8213.000000, 8158.000000, 0.000000, 0.000000, 0.000000, 22552.000000, 900.000000, 4.000000, 4.000000, 4.000000, 4.000000, 4.000000, 4.000000, 4.000000, 4.000000, 4.000000, 4.000000, 4.000000, 4.000000, 4.000000, 4.000000, 4.000000, 4.000000
61.000000, 0.000000, 4203.076660, 4218.461426, 4201.025391, 4214.871582, 4213.333008, 4203.589844, 4184.615234, 4196.922852, 4200.512695, 4200.000000, 4206.666504, 4213.846191, 4214.871582, 4150.769043, 0.000000, 8218.000000, 8163.000000, 0.000000, 0.000000, 0.000000, 22552.000000, 908.205078, 4.000000, 4.000000, 4.000000, 4.000000, 4.000000, 4.000000, 4.000000, 4.000000, 4.000000, 4.000000, 4.000000, 4.000000, 4.000000, 4.000000, 4.000000, 4.000000
62.000000, 0.000000, 4197.436035, 4217.436035, 4202.051270, 4216.922852, 4211.794922, 4213.333008, 4183.589844, 4199.487305, 4199.487305, 4202.051270, 4200.512695, 4214.871582, 4214.871582, 4154.871582, 0.000000, 8218.000000, 8163.000000, 0.000000, 0.000000, 0.000000, 22552.000000, 915.897400, 4.000000, 4.000000, 4.000000, 4.000000, 4.000000, 4.000000, 4.000000, 4.000000, 4.000000, 4.000000, 4.000000, 4.000000, 4.000000, 4.000000, 4.000000, 4.000000
63.000000, 0.000000, 4200.000000, 4211.794922, 4203.589844, 4214.358887, 4209.743652, 4218.461426, 4190.769043, 4198.461426, 4207.692383, 4200.512695, 4202.051270, 4211.794922, 4213.846191, 4155.384277, 0.000000, 8215.000000, 8161.000000, 0.000000, 0.000000, 0.000000, 22552.000000, 923.589722, 4.000000, 4.000000, 4.000000, 4.000000, 4.000000, 4.000000, 4.000000, 4.000000, 4.000000, 4.000000, 4.000000, 4.000000, 4.000000, 4.000000, 4.000000, 4.000000
64.000000, 0.000000, 4204.102539, 4205.127930, 4205.127930, 4212.307617, 4204.615234, 4217.948730, 4197.436035, 4197.436035, 4215.384277, 4200.512695, 4207.179199, 4212.307617, 4212.307617, 4153.333008, 3552.000000, 8215.000000, 8161.000000, 0.000000, 0.000000, 0.000000, 22552.000000, 931.794861, 4.000000, 4.000000, 4.000000, 4.000000, 4.000000, 4.000000, 4.000000, 4.000000, 4.000000, 4.000000, 4.000000, 4.000000, 4.000000, 4.000000, 4.000000, 4.000000
65.000000, 0.000000, 4205.127930, 4213.846191, 4203.589844, 4216.922852, 4206.153809, 4214.871582, 4191.794922, 4199.487305, 4217.436035, 4213.333008, 4216.410156, 4216.410156, 4222.051270, 4159.487305, 3548.000000, 8214.000000, 8163.000000, 0.000000, 0.000000, 0.000000, 22552.000000, 939.487183, 4.000000, 4.000000, 4.000000, 4.000000, 4.000000, 4.000000, 4.000000, 4.000000, 4.000000, 4.000000, 4.000000, 4.000000, 4.000000, 4.000000, 4.000000, 4.000000
66.000000, 0.000000, 4205.641113, 4227.179199, 4202.563965, 4220.000000, 4211.794922, 4206.153809, 4182.563965, 4199.487305, 4214.871582, 4220.000000, 4221.025391, 4219.487305, 4232.307617, 4170.256348, 2093.000000, 8214.000000, 8163.000000, 0.000000, 0.000000, 0.000000, 22552.000000, 947.692261, 4.000000, 4.000000, 4.000000, 4.000000, 4.000000, 4.000000, 4.000000, 4.000000, 4.000000, 4.000000, 4.000000, 4.000000, 4.000000, 4.000000, 4.000000, 4.000000
67.000000, 0.000000, 4204.102539, 4224.615234, 4208.717773, 4216.410156, 4209.743652, 4198.974121, 4182.563965, 4195.384277, 4209.743652, 4215.384277, 4218.461426, 4217.948730, 4231.281738, 4170.256348, 3566.000000, 8215.000000, 8167.000000, 0.000000, 0.000000, 0.000000, 22552.000000, 955.384583, 4.000000, 4.000000, 4.000000, 4.000000, 4.000000, 4.000000, 4.000000, 4.000000, 4.000000, 4.000000, 4.000000, 4.000000, 4.000000, 4.000000, 4.000000, 4.000000
68.000000, 0.000000, 4207.179199, 4215.897461, 4215.384277, 4215.897461, 4204.615234, 4201.538574, 4185.641113, 4195.384277, 4205.641113, 4210.256348, 4217.436035, 4216.922852, 4225.641113, 4165.127930, 3475.000000, 8215.000000, 8167.000000, 0.000000, 0.000000, 0.000000, 22552.000000, 963.076904, 4.000000, 4.000000, 4.000000, 4.000000, 4.000000, 4.000000, 4.000000, 4.000000, 4.000000, 4.000000, 4.000000, 4.000000, 4.000000, 4.000000, 4.000000, 4.000000
69.000000, 0.000000, 4207.692383, 4217.948730, 4217.948730, 4218.974121, 4202.563965, 4201.538574, 4184.102539, 4197.436035, 4205.127930, 4205.641113, 4218.461426, 4220.512695, 4221.538574, 4168.717773, 3581.000000, 8219.000000, 8160.000000, 0.000000, 0.000000, 0.000000, 22552.000000, 971.282043, 4.000000, 4.000000, 4.000000, 4.000000, 4.000000, 4.000000, 4.000000, 4.000000, 4.000000, 4.000000, 4.000000, 4.000000, 4.000000, 4.000000, 4.000000, 4.000000
70.000000, 0.000000, 4200.000000, 4221.025391, 4212.820313, 4218.974121, 4197.436035, 4197.948730, 4183.076660, 4194.358887, 4200.512695, 4200.000000, 4211.281738, 4216.922852, 4218.974121, 4167.692383, 2356.000000, 8219.000000, 8160.000000, 0.000000, 0.000000, 0.000000, 22552.000000, 978.974365, 4.000000, 4.000000, 4.000000, 4.000000, 4.000000, 4.000000, 4.000000, 4.000000, 4.000000, 4.000000, 4.000000, 4.000000, 4.000000, 4.000000, 4.000000, 4.000000
71.000000, 0.000000, 4195.384277, 4211.794922, 4205.641113, 4213.846191, 4195.384277, 4197.436035, 4182.563965, 4191.794922, 4196.922852, 4197.436035, 4205.127930, 4209.230469, 4218.461426, 4158.461426, 784.000000, 8211.000000, 8153.000000, 0.000000, 0.000000, 0.000000, 22552.000000, 986.666626, 4.000000, 4.000000, 4.000000, 4.000000, 4.000000, 4.000000, 4.000000, 4.000000, 4.000000, 4.000000, 4.000000, 4.000000, 4.000000, 4.000000, 4.000000, 4.000000
72.000000, 0.000000, 4196.410156, 4206.153809, 4200.512695, 4208.205078, 4195.897461, 4192.820313, 4177.948730, 4193.846191, 4196.922852, 4198.974121, 4209.743652, 4208.717773, 4218.461426, 4156.922852, 3536.000000, 8211.000000, 8153.000000, 0.000000, 0.000000, 0.000000, 22552.000000, 994.871765, 4.000000, 4.000000, 4.000000, 4.000000, 4.000000, 4.000000, 4.000000, 4.000000, 4.000000, 4.000000, 4.000000, 4.000000, 4.000000, 4.000000, 4.000000, 4.000000
73.000000, 0.000000, 4197.948730, 4207.692383, 4201.025391, 4208.717773, 4190.769043, 4188.717773, 4180.000000, 4193.333008, 4190.769043, 4198.461426, 4212.307617, 4210.256348, 4215.897461, 4159.487305, 3542.000000, 8214.000000, 8150.000000, 0.000000, 0.000000, 0.000000, 22553.000000, 3.076923, 4.000000, 4.000000, 4.000000, 4.000000, 4.000000, 4.000000, 4.000000, 4.000000, 4.000000, 4.000000, 4.000000, 4.000000, 4.000000, 4.000000, 4.000000, 4.000000
74.000000, 0.000000, 4198.974121, 4205.641113, 4206.666504, 4211.794922, 4192.307617, 4191.281738, 4183.076660, 4193.333008, 4180.512695, 4188.717773, 4201.538574, 4205.127930, 4212.820313, 4155.384277, 2603.000000, 8214.000000, 8150.000000, 0.000000, 0.000000, 0.000000, 22553.000000, 10.769231, 4.000000, 4.000000, 4.000000, 4.000000, 4.000000, 4.000000, 4.000000, 4.000000, 4.000000, 4.000000, 4.000000, 4.000000, 4.000000, 4.000000, 4.000000, 4.000000
75.000000, 0.000000, 4205.641113, 4208.717773, 4213.846191, 4217.948730, 4199.487305, 4195.897461, 4178.974121, 4198.974121, 4182.563965, 4183.076660, 4198.461426, 4202.051270, 4214.358887, 4152.820313, 3074.000000, 8213.000000, 8145.000000, 0.000000, 0.000000, 0.000000, 22553.000000, 18.461538, 4.000000, 4.000000, 4.000000, 4.000000, 4.000000, 4.000000, 4.000000, 4.000000, 4.000000, 4.000000, 4.000000, 4.000000, 4.000000, 4.000000, 4.000000, 4.000000
76.000000, 0.000000, 4206.153809, 4219.487305, 4219.487305, 4225.641113, 4202.563965, 4199.487305, 4178.461426, 4200.000000, 4192.307617, 4193.846191, 4208.205078, 4205.641113, 4224.102539, 4157.948730, 3508.000000, 8213.000000, 8145.000000, 0.000000, 0.000000, 0.000000, 22553.000000, 26.666666, 4.000000, 4.000000, 4.000000, 4.000000, 4.000000, 4.000000, 4.000000, 4.000000, 4.000000, 4.000000, 4.000000, 4.000000, 4.000000, 4.000000, 4.000000, 4.000000
77.000000, 0.000000, 4198.461426, 4222.051270, 4214.871582, 4224.102539, 4202.051270, 4198.461426, 4179.487305, 4196.410156, 4196.922852, 4201.538574, 4212.820313, 4207.692383, 4232.307617, 4160.000000, 3479.000000, 8217.000000, 8146.000000, 0.000000, 0.000000, 0.000000, 22553.000000, 34.358974, 4.000000, 4.000000, 4.000000, 4.000000, 4.000000, 4.000000, 4.000000, 4.000000, 4.000000, 4.000000, 4.000000, 4.000000, 4.000000, 4.000000, 4.000000, 4.000000
78.000000, 0.000000, 4200.000000, 4212.307617, 4208.205078, 4215.897461, 4197.436035, 4197.436035, 4181.025391, 4200.512695, 4197.436035, 4196.410156, 4207.692383, 4204.102539, 4228.205078, 4155.897461, 2603.000000, 8217.000000, 8146.000000, 0.000000, 0.000000, 0.000000, 22553.000000, 42.564102, 4.000000, 4.000000, 4.000000, 4.000000, 4.000000, 4.000000, 4.000000, 4.000000, 4.000000, 4.000000, 4.000000, 4.000000, 4.000000, 4.000000, 4.000000, 4.000000
79.000000, 0.000000, 4204.615234, 4210.769043, 4212.820313, 4215.897461, 4193.846191, 4202.563965, 4184.615234, 4200.512695, 4200.512695, 4198.461426, 4206.666504, 4203.076660, 4228.717773, 4155.897461, 3074.000000, 8212.000000, 8145.000000, 0.000000, 0.000000, 0.000000, 22553.000000, 50.256409, 4.000000, 4.000000, 4.000000, 4.000000, 4.000000, 4.000000, 4.000000, 4.000000, 4.000000, 4.000000, 4.000000, 4.000000, 4.000000, 4.000000, 4.000000, 4.000000
80.000000, 0.000000, 4202.563965, 4221.025391, 4214.358887, 4222.051270, 4198.461426, 4203.589844, 4182.563965, 4190.769043, 4202.563965, 4203.589844, 4209.743652, 4207.179199, 4236.410156, 4163.589844, 3508.000000, 8212.000000, 8145.000000, 0.000000, 0.000000, 0.000000, 22553.000000, 58.461536, 4.000000, 4.000000, 4.000000, 4.000000, 4.000000, 4.000000, 4.000000, 4.000000, 4.000000, 4.000000, 4.000000, 4.000000, 4.000000, 4.000000, 4.000000, 4.000000
81.000000, 0.000000, 4197.436035, 4215.897461, 4206.153809, 4220.000000, 4201.538574, 4197.436035, 4177.436035, 4190.769043, 4199.487305, 4193.846191, 4203.076660, 4206.153809, 4223.589844, 4166.666504, 3479.000000, 8207.000000, 8148.000000, 0.000000, 0.000000, 0.000000, 22553.000000, 66.666664, 4.000000, 4.000000, 4.000000, 4.000000, 4.000000, 4.000000, 4.000000, 4.000000, 4.000000, 4.000000, 4.000000, 4.000000, 4.000000, 4.000000, 4.000000, 4.000000
82.000000, 0.000000, 4195.897461, 4200.512695, 4206.666504, 4215.897461, 4197.948730, 4196.922852, 4182.051270, 4196.410156, 4200.512695, 4189.230469, 4198.461426, 4204.615234, 4213.846191, 4168.717773, 2603.000000, 8207.000000, 8148.000000, 0.000000, 0.000000, 0.000000, 22553.000000, 74.358971, 4.000000, 4.000000, 4.000000, 4.000000, 4.000000, 4.000000, 4.000000, 4.000000, 4.000000, 4.000000, 4.000000, 4.000000, 4.000000, 4.000000, 4.000000, 4.000000
83.000000, 0.000000, 4204.102539, 4202.051270, 4216.410156, 4222.563965, 4202.051270, 4201.538574, 4187.692383, 4194.358887, 4202.563965, 4199.487305, 4209.230469, 4210.769043, 4236.410156, 4178.461426, 3074.000000, 8205.000000, 8156.000000, 0.000000, 0.000000, 0.000000, 22553.000000, 82.564102, 4.000000, 4.000000, 4.000000, 4.000000, 4.000000, 4.000000, 4.000000, 4.000000, 4.000000, 4.000000, 4.000000, 4.000000, 4.000000, 4.000000, 4.000000, 4.000000
84.000000, 0.000000, 4209.743652, 4210.769043, 4217.436035, 4228.205078, 4206.666504, 4201.538574, 4182.563965, 4191.281738, 4200.512695, 4203.076660, 4220.512695, 4214.358887, 4254.871582, 4187.692383, 3508.000000, 8205.000000, 8156.000000, 0.000000, 0.000000, 0.000000, 22553.000000, 90.256409, 4.000000, 4.000000, 4.000000, 4.000000, 4.000000, 4.000000, 4.000000, 4.000000, 4.000000, 4.000000, 4.000000, 4.000000, 4.000000, 4.000000, 4.000000, 4.000000
85.000000, 0.000000, 4200.512695, 4200.512695, 4210.256348, 4222.051270, 4201.538574, 4201.538574, 4180.512695, 4191.281738, 4200.000000, 4198.974121, 4225.127930, 4212.820313, 4248.717773, 4195.384277, 3479.000000, 8195.000000, 8162.000000, 0.000000, 0.000000, 0.000000, 22553.000000, 98.461533, 4.000000, 4.000000, 4.000000, 4.000000, 4.000000, 4.000000, 4.000000, 4.000000, 4.000000, 4.000000, 4.000000, 4.000000, 4.000000, 4.000000, 4.000000, 4.000000
86.000000, 0.000000, 4195.384277, 4187.179199, 4204.615234, 4214.871582, 4198.461426, 4196.410156, 4183.076660, 4190.256348, 4198.461426, 4201.025391, 4228.205078, 4211.794922, 4249.743652, 4201.538574, 2603.000000, 8195.000000, 8162.000000, 0.000000, 0.000000, 0.000000, 22553.000000, 106.153847, 4.000000, 4.000000, 4.000000, 4.000000, 4.000000, 4.000000, 4.000000, 4.000000, 4.000000, 4.000000, 4.000000, 4.000000, 4.000000, 4.000000, 4.000000, 4.000000
87.000000, 0.000000, 4201.538574, 4181.025391, 4207.179199, 4216.410156, 4199.487305, 4191.794922, 4183.589844, 4194.358887, 4200.512695, 4210.769043, 4236.410156, 4212.307617, 4267.179199, 4202.051270, 3074.000000, 8190.000000, 8161.000000, 0.000000, 0.000000, 0.000000, 22553.000000, 114.358971, 4.000000, 4.000000, 4.000000, 4.000000, 4.000000, 4.000000, 4.000000, 4.000000, 4.000000, 4.000000, 4.000000, 4.000000, 4.000000, 4.000000, 4.000000, 4.000000
88.000000, 0.000000, 4206.666504, 4174.871582, 4217.436035, 4218.974121, 4200.512695, 4196.922852, 4186.666504, 4201.538574, 4212.307617, 4226.153809, 4251.794922, 4222.563965, 4280.512695, 4201.538574, 3508.000000, 8190.000000, 8161.000000, 0.000000, 0.000000, 0.000000, 22553.000000, 122.051277, 4.000000, 4.000000, 4.000000, 4.000000, 4.000000, 4.000000, 4.000000, 4.000000, 4.000000, 4.000000, 4.000000, 4.000000, 4.000000, 4.000000, 4.000000, 4.000000
89.000000, 0.000000, 4202.051270, 4174.871582, 4222.563965, 4219.487305, 4202.051270, 4203.589844, 4192.307617, 4201.025391, 4222.051270, 4234.871582, 4264.102539, 4238.461426, 4282.563965, 4207.692383, 3479.000000, 8180.000000, 8163.000000, 0.000000, 0.000000, 0.000000, 22553.000000, 130.256409, 4.000000, 4.000000, 4.000000, 4.000000, 4.000000, 4.000000, 4.000000, 4.000000, 4.000000, 4.000000, 4.000000, 4.000000, 4.000000, 4.000000, 4.000000, 4.000000
90.000000, 0.000000, 4190.769043, 4169.230469, 4215.384277, 4214.358887, 4197.948730, 4198.974121, 4192.820313, 4200.512695, 4220.000000, 4224.102539, 4252.307617, 4233.846191, 4269.230469, 4204.615234, 2603.000000, 8180.000000, 8163.000000, 0.000000, 0.000000, 0.000000, 22553.000000, 137.948715, 4.000000, 4.000000, 4.000000, 4.000000, 4.000000, 4.000000, 4.000000, 4.000000, 4.000000, 4.000000, 4.000000, 4.000000, 4.000000, 4.000000, 4.000000, 4.000000
91.000000, 0.000000, 4188.717773, 4153.333008, 4205.127930, 4200.512695, 4187.179199, 4189.743652, 4186.666504, 4200.512695, 4212.307617, 4210.256348, 4231.281738, 4216.410156, 4250.769043, 4192.307617, 3074.000000, 8174.000000, 8165.000000, 0.000000, 0.000000, 0.000000, 22553.000000, 146.153839, 4.000000, 4.000000, 4.000000, 4.000000, 4.000000, 4.000000, 4.000000, 4.000000, 4.000000, 4.000000, 4.000000, 4.000000, 4.000000, 4.000000, 4.000000, 4.000000
92.000000, 0.000000, 4192.307617, 4147.692383, 4201.025391, 4196.922852, 4183.076660, 4188.717773, 4183.076660, 4197.436035, 4205.641113, 4202.563965, 4228.205078, 4210.256348, 4247.692383, 4186.153809, 3508.000000, 8174.000000, 8165.000000, 0.000000, 0.000000, 0.000000, 22553.000000, 153.846146, 4.000000, 4.000000, 4.000000, 4.000000, 4.000000, 4.000000, 4.000000, 4.000000, 4.000000, 4.000000, 4.000000, 4.000000, 4.000000, 4.000000, 4.000000, 4.000000
93.000000, 0.000000, 4193.846191, 4154.358887, 4204.102539, 4201.538574, 4190.769043, 4191.281738, 4186.153809, 4199.487305, 4207.692383, 4199.487305, 4230.769043, 4214.871582, 4256.410156, 4185.641113, 3479.000000, 8172.000000, 8170.000000, 0.000000, 0.000000, 0.000000, 22553.000000, 162.051285, 4.000000, 4.000000, 4.000000, 4.000000, 4.000000, 4.000000, 4.000000, 4.000000, 4.000000, 4.000000, 4.000000, 4.000000, 4.000000, 4.000000, 4.000000, 4.000000
94.000000, 0.000000, 4195.384277, 4154.358887, 4204.615234, 4200.512695, 4190.769043, 4188.717773, 4185.127930, 4200.000000, 4213.846191, 4206.666504, 4232.307617, 4215.384277, 4257.436035, 4185.641113, 2603.000000, 8172.000000, 8170.000000, 0.000000, 0.000000, 0.000000, 22553.000000, 170.256409, 4.000000, 4.000000, 4.000000, 4.000000, 4.000000, 4.000000, 4.000000, 4.000000, 4.000000, 4.000000, 4.000000, 4.000000, 4.000000, 4.000000, 4.000000, 4.000000
95.000000, 0.000000, 4197.436035, 4153.333008, 4203.589844, 4198.461426, 4185.127930, 4187.179199, 4182.563965, 4198.974121, 4216.922852, 4215.384277, 4239.487305, 4215.897461, 4252.820313, 4188.205078, 3074.000000, 8179.000000, 8159.000000, 0.000000, 0.000000, 0.000000, 22553.000000, 177.948715, 4.000000, 4.000000, 4.000000, 4.000000, 4.000000, 4.000000, 4.000000, 4.000000, 4.000000, 4.000000, 4.000000, 4.000000, 4.000000, 4.000000, 4.000000, 4.000000
96.000000, 0.000000, 4200.000000, 4160.512695, 4209.230469, 4200.512695, 4191.281738, 4193.846191, 4188.717773, 4201.538574, 4226.153809, 4220.000000, 4249.743652, 4227.179199, 4260.512695, 4194.358887, 3508.000000, 8179.000000, 8159.000000, 0.000000, 0.000000, 0.000000, 22553.000000, 186.153839, 4.000000, 4.000000, 4.000000, 4.000000, 4.000000, 4.000000, 4.000000, 4.000000, 4.000000, 4.000000, 4.000000, 4.000000, 4.000000, 4.000000, 4.000000, 4.000000
97.000000, 0.000000, 4197.436035, 4163.076660, 4210.769043, 4203.076660, 4203.076660, 4200.000000, 4196.410156, 4201.025391, 4234.358887, 4224.615234, 4253.846191, 4233.846191, 4265.641113, 4193.333008, 3479.000000, 8181.000000, 8146.000000, 0.000000, 0.000000, 0.000000, 22553.000000, 193.846146, 4.000000, 4.000000, 4.000000, 4.000000, 4.000000, 4.000000, 4.000000, 4.000000, 4.000000, 4.000000, 4.000000, 4.000000, 4.000000, 4.000000, 4.000000, 4.000000
98.000000, 0.000000, 4193.333008, 4156.922852, 4202.563965, 4202.563965, 4198.974121, 4201.538574, 4200.000000, 4196.410156, 4226.153809, 4220.000000, 4246.153809, 4224.102539, 4252.820313, 4181.538574, 2603.000000, 8181.000000, 8146.000000, 0.000000, 0.000000, 0.000000, 22553.000000, 202.051270, 4.000000, 4.000000, 4.000000, 4.000000, 4.000000, 4.000000, 4.000000, 4.000000, 4.000000, 4.000000, 4.000000, 4.000000, 4.000000, 4.000000, 4.000000, 4.000000
99.000000, 0.000000, 4195.384277, 4154.871582, 4198.461426, 4196.410156, 4188.205078, 4202.051270, 4199.487305, 4194.358887, 4209.743652, 4206.153809, 4233.846191, 4210.769043, 4243.076660, 4170.769043, 3074.000000, 8190.000000, 8134.000000, 0.000000, 0.000000, 0.000000, 22553.000000, 209.743591, 4.000000, 4.000000, 4.000000, 4.000000, 4.000000, 4.000000, 4.000000, 4.000000, 4.000000, 4.000000, 4.000000, 4.000000, 4.000000, 4.000000, 4.000000, 4.000000
100.000000, 0.000000, 4197.948730, 4158.461426, 4198.974121, 4193.846191, 4193.846191, 4203.076660, 4196.410156, 4194.358887, 4201.538574, 4198.461426, 4229.230469, 4204.102539, 4247.692383, 4167.179199, 3508.000000, 8190.000000, 8134.000000, 0.000000, 0.000000, 0.000000, 22553.000000, 217.948715, 4.000000, 4.000000, 4.000000, 4.000000, 4.000000, 4.000000, 4.000000, 4.000000, 4.000000, 4.000000, 4.000000, 4.000000, 4.000000, 4.000000, 4.000000, 4.000000
101.000000, 0.000000, 4195.384277, 4158.461426, 4191.281738, 4194.358887, 4204.615234, 4210.256348, 4203.076660, 4193.846191, 4204.615234, 4200.000000, 4230.256348, 4200.512695, 4248.205078, 4166.666504, 3479.000000, 8184.000000, 8125.000000, 0.000000, 0.000000, 0.000000, 22553.000000, 225.641022, 4.000000, 4.000000, 4.000000, 4.000000, 4.000000, 4.000000, 4.000000, 4.000000, 4.000000, 4.000000, 4.000000, 4.000000, 4.000000, 4.000000, 4.000000, 4.000000
102.000000, 0.000000, 4192.307617, 4156.410156, 4183.076660, 4192.307617, 4202.563965, 4218.461426, 4209.743652, 4196.410156, 4216.922852, 4204.615234, 4231.281738, 4198.461426, 4244.615234, 4168.205078, 2603.000000, 8184.000000, 8125.000000, 0.000000, 0.000000, 0.000000, 22553.000000, 233.846146, 4.000000, 4.000000, 4.000000, 4.000000, 4.000000, 4.000000, 4.000000, 4.000000, 4.000000, 4.000000, 4.000000, 4.000000, 4.000000, 4.000000, 4.000000, 4.000000
103.000000, 0.000000, 4199.487305, 4164.102539, 4189.230469, 4193.846191, 4202.563965, 4218.461426, 4206.666504, 4200.000000, 4228.717773, 4215.384277, 4238.461426, 4201.538574, 4251.794922, 4181.025391, 3074.000000, 8190.000000, 8109.000000, 0.000000, 0.000000, 0.000000, 22553.000000, 241.538452, 4.000000, 4.000000, 4.000000, 4.000000, 4.000000, 4.000000, 4.000000, 4.000000, 4.000000, 4.000000, 4.000000, 4.000000, 4.000000, 4.000000, 4.000000, 4.000000
104.000000, 0.000000, 4208.205078, 4174.871582, 4202.051270, 4203.076660, 4210.769043, 4215.384277, 4208.717773, 4200.512695, 4235.384277, 4226.153809, 4249.743652, 4211.794922, 4265.127930, 4196.922852, 3508.000000, 8190.000000, 8109.000000, 0.000000, 0.000000, 0.000000, 22553.000000, 249.743576, 4.000000, 4.000000, 4.000000, 4.000000, 4.000000, 4.000000, 4.000000, 4.000000, 4.000000, 4.000000, 4.000000, 4.000000, 4.000000, 4.000000, 4.000000, 4.000000
105.000000, 0.000000, 4204.615234, 4176.922852, 4212.307617, 4206.666504, 4208.717773, 4214.358887, 4214.358887, 4200.000000, 4238.974121, 4226.666504, 4253.846191, 4224.102539, 4262.563965, 4197.436035, 3479.000000, 8205.000000, 8088.000000, 0.000000, 0.000000, 0.000000, 22553.000000, 257.435883, 4.000000, 4.000000, 4.000000, 4.000000, 4.000000, 4.000000, 4.000000, 4.000000, 4.000000, 4.000000, 4.000000, 4.000000, 4.000000, 4.000000, 4.000000, 4.000000
106.000000, 0.000000, 4200.512695, 4177.436035, 4220.512695, 4206.666504, 4200.512695, 4211.281738, 4205.641113, 4199.487305, 4236.922852, 4223.589844, 4253.333008, 4228.205078, 4254.871582, 4191.281738, 2603.000000, 8205.000000, 8088.000000, 0.000000, 0.000000, 0.000000, 22553.000000, 265.641022, 4.000000, 4.000000, 4.000000, 4.000000, 4.000000, 4.000000, 4.000000, 4.000000, 4.000000, 4.000000, 4.000000, 4.000000, 4.000000, 4.000000, 4.000000, 4.000000
107.000000, 0.000000, 4197.948730, 4168.717773, 4217.436035, 4200.512695, 4200.512695, 4207.179199, 4195.897461, 4196.922852, 4229.743652, 4215.897461, 4245.127930, 4222.563965, 4247.692383, 4187.692383, 3074.000000, 8216.000000, 8080.000000, 0.000000, 0.000000, 0.000000, 22553.000000, 273.333313, 4.000000, 4.000000, 4.000000, 4.000000, 4.000000, 4.000000, 4.000000, 4.000000, 4.000000, 4.000000, 4.000000, 4.000000, 4.000000, 4.000000, 4.000000, 4.000000
108.000000, 0.000000, 4193.846191, 4149.743652, 4206.666504, 4188.717773, 4201.025391, 4206.666504, 4202.051270, 4197.948730, 4221.538574, 4203.589844, 4230.769043, 4217.948730, 4235.897461, 4185.127930, 3508.000000, 8216.000000, 8080.000000, 0.000000, 0.000000, 0.000000, 22553.000000, 281.538452, 4.000000, 4.000000, 4.000000, 4.000000, 4.000000, 4.000000, 4.000000, 4.000000, 4.000000, 4.000000, 4.000000, 4.000000, 4.000000, 4.000000, 4.000000, 4.000000
109.000000, 0.000000, 4196.410156, 4153.846191, 4195.897461, 4188.717773, 4200.000000, 4203.076660, 4201.538574, 4198.461426, 4214.871582, 4200.000000, 4228.205078, 4212.820313, 4238.974121, 4193.846191, 3479.000000, 8235.000000, 8083.000000, 0.000000, 0.000000, 0.000000, 22553.000000, 289.743591, 4.000000, 4.000000, 4.000000, 4.000000, 4.000000, 4.000000, 4.000000, 4.000000, 4.000000, 4.000000, 4.000000, 4.000000, 4.000000, 4.000000, 4.000000, 4.000000
110.000000, 0.000000, 4197.948730, 4171.281738, 4186.666504, 4190.769043, 4199.487305, 4196.922852, 4190.256348, 4197.436035, 4214.358887, 4201.025391, 4228.717773, 4205.641113, 4245.641113, 4203.076660, 2603.000000, 8235.000000, 8083.000000, 0.000000, 0.000000, 0.000000, 22553.000000, 297.435883, 4.000000, 4.000000, 4.000000, 4.000000, 4.000000, 4.000000, 4.000000, 4.000000, 4.000000, 4.000000, 4.000000, 4.000000, 4.000000, 4.000000, 4.000000, 4.000000
111.000000, 0.000000, 4196.922852, 4169.743652, 4188.717773, 4187.692383, 4197.948730, 4196.410156, 4196.410156, 4198.461426, 4218.461426, 4202.051270, 4225.127930, 4205.127930, 4235.897461, 4200.512695, 3074.000000, 8241.000000, 8093.000000, 0.000000, 0.000000, 0.000000, 22553.000000, 305.128204, 4.000000, 4.000000, 4.000000, 4.000000, 4.000000, 4.000000, 4.000000, 4.000000, 4.000000, 4.000000, 4.000000, 4.000000, 4.000000, 4.000000, 4.000000, 4.000000
112.000000, 0.000000, 4195.897461, 4166.153809, 4202.051270, 4192.307617, 4200.000000, 4201.025391, 4205.641113, 4198.974121, 4220.000000, 4209.230469, 4228.205078, 4214.358887, 4235.897461, 4194.871582, 3508.000000, 8241.000000, 8093.000000, 0.000000, 0.000000, 0.000000, 22553.000000, 313.333313, 4.000000, 4.000000, 4.000000, 4.000000, 4.000000, 4.000000, 4.000000, 4.000000, 4.000000, 4.000000, 4.000000, 4.000000, 4.000000, 4.000000, 4.000000, 4.000000
113.000000, 0.000000, 4197.436035, 4166.153809, 4204.615234, 4192.820313, 4198.461426, 4204.102539, 4204.102539, 4198.461426, 4221.025391, 4219.487305, 4232.307617, 4217.948730, 4246.666504, 4192.307617, 3479.000000, 8245.000000, 8096.000000, 0.000000, 0.000000, 0.000000, 22553.000000, 321.025635, 4.000000, 4.000000, 4.000000, 4.000000, 4.000000, 4.000000, 4.000000, 4.000000, 4.000000, 4.000000, 4.000000, 4.000000, 4.000000, 4.000000, 4.000000, 4.000000
114.000000, 0.000000, 4196.922852, 4157.436035, 4196.922852, 4182.563965, 4183.589844, 4202.563965, 4203.589844, 4198.461426, 4224.102539, 4217.436035, 4227.179199, 4212.820313, 4238.974121, 4183.076660, 2603.000000, 8245.000000, 8096.000000, 0.000000, 0.000000, 0.000000, 22553.000000, 329.230774, 4.000000, 4.000000, 4.000000, 4.000000, 4.000000, 4.000000, 4.000000, 4.000000, 4.000000, 4.000000, 4.000000, 4.000000, 4.000000, 4.000000, 4.000000, 4.000000
115.000000, 0.000000, 4198.461426, 4161.538574, 4199.487305, 4187.179199, 4180.000000, 4202.051270, 4206.666504, 4199.487305, 4228.717773, 4215.897461, 4226.666504, 4213.333008, 4229.230469, 4174.358887, 3074.000000, 8242.000000, 8109.000000, 0.000000, 0.000000, 0.000000, 22553.000000, 336.923065, 4.000000, 4.000000, 4.000000, 4.000000, 4.000000, 4.000000, 4.000000, 4.000000, 4.000000, 4.000000, 4.000000, 4.000000, 4.000000, 4.000000, 4.000000, 4.000000
116.000000, 0.000000, 4204.615234, 4175.897461, 4202.563965, 4200.000000, 4198.461426, 4208.205078, 4208.205078, 4199.487305, 4233.846191, 4220.512695, 4233.333008, 4213.846191, 4235.384277, 4172.820313, 3508.000000, 8242.000000, 8109.000000, 0.000000, 0.000000, 0.000000, 22553.000000, 345.128204, 4.000000, 4.000000, 4.000000, 4.000000, 4.000000, 4.000000, 4.000000, 4.000000, 4.000000, 4.000000, 4.000000, 4.000000, 4.000000, 4.000000, 4.000000, 4.000000
117.000000, 0.000000, 4201.025391, 4172.820313, 4189.743652, 4190.256348, 4206.153809, 4215.897461, 4207.179199, 4198.974121, 4230.256348, 4216.922852, 4229.743652, 4210.256348, 4233.846191, 4168.717773, 3479.000000, 8235.000000, 8122.000000, 0.000000, 0.000000, 0.000000, 22553.000000, 352.820496, 4.000000, 4.000000, 4.000000, 4.000000, 4.000000, 4.000000, 4.000000, 4.000000, 4.000000, 4.000000, 4.000000, 4.000000, 4.000000, 4.000000, 4.000000, 4.000000
118.000000, 0.000000, 4195.897461, 4166.153809, 4184.615234, 4184.615234, 4204.102539, 4216.922852, 4204.615234, 4199.487305, 4223.589844, 4212.307617, 4228.717773, 4211.281738, 4231.281738, 4168.717773, 2603.000000, 8235.000000, 8122.000000, 0.000000, 0.000000, 0.000000, 22553.000000, 361.025635, 4.000000, 4.000000, 4.000000, 4.000000, 4.000000, 4.000000, 4.000000, 4.000000, 4.000000, 4.000000, 4.000000, 4.000000, 4.000000, 4.000000, 4.000000, 4.000000
119.000000, 0.000000, 4202.051270, 4171.794922, 4197.436035, 4196.410156, 4215.897461, 4216.410156, 4198.461426, 4200.000000, 4227.692383, 4217.436035, 4241.538574, 4218.974121, 4236.410156, 4174.358887, 3074.000000, 8217.000000, 8146.000000, 0.000000, 0.000000, 0.000000, 22553.000000, 368.717926, 4.000000, 4.000000, 4.000000, 4.000000, 4.000000, 4.000000, 4.000000, 4.000000, 4.000000, 4.000000, 4.000000, 4.000000, 4.000000, 4.000000, 4.000000, 4.000000
120.000000, 0.000000, 4202.051270, 4169.230469, 4203.076660, 4196.410156, 4219.487305, 4217.948730, 4196.922852, 4200.512695, 4236.410156, 4221.025391, 4244.102539, 4222.051270, 4236.410156, 4174.871582, 3508.000000, 8217.000000, 8146.000000, 0.000000, 0.000000, 0.000000, 22553.000000, 376.410248, 4.000000, 4.000000, 4.000000, 4.000000, 4.000000, 4.000000, 4.000000, 4.000000, 4.000000, 4.000000, 4.000000, 4.000000, 4.000000, 4.000000, 4.000000, 4.000000
121.000000, 0.000000, 4194.871582, 4159.487305, 4195.384277, 4185.641113, 4204.615234, 4216.410156, 4202.051270, 4199.487305, 4230.256348, 4218.461426, 4231.281738, 4213.846191, 4232.820313, 4173.333008, 3479.000000, 8206.000000, 8145.000000, 0.000000, 0.000000, 0.000000, 22553.000000, 384.615387, 4.000000, 4.000000, 4.000000, 4.000000, 4.000000, 4.000000, 4.000000, 4.000000, 4.000000, 4.000000, 4.000000, 4.000000, 4.000000, 4.000000, 4.000000, 4.000000
122.000000, 0.000000, 4194.871582, 4155.897461, 4191.281738, 4185.127930, 4198.461426, 4209.230469, 4200.512695, 4197.948730, 4218.461426, 4212.820313, 4225.127930, 4205.127930, 4231.281738, 4171.281738, 2603.000000, 8206.000000, 8145.000000, 0.000000, 0.000000, 0.000000, 22553.000000, 392.307678, 4.000000, 4.000000, 4.000000, 4.000000, 4.000000, 4.000000, 4.000000, 4.000000, 4.000000, 4.000000, 4.000000, 4.000000, 4.000000, 4.000000, 4.000000, 4.000000
123.000000, 0.000000, 4194.358887, 4153.846191, 4190.256348, 4185.127930, 4196.922852, 4204.102539, 4197.948730, 4198.974121, 4215.384277, 4204.615234, 4220.000000, 4197.436035, 4229.743652, 4158.974121, 3074.000000, 8187.000000, 8136.000000, 0.000000, 0.000000, 0.000000, 22553.000000, 400.512817, 4.000000, 4.000000, 4.000000, 4.000000, 4.000000, 4.000000, 4.000000, 4.000000, 4.000000, 4.000000, 4.000000, 4.000000, 4.000000, 4.000000, 4.000000, 4.000000
124.000000, 0.000000, 4193.333008, 4150.769043, 4187.179199, 4178.461426, 4186.666504, 4208.205078, 4207.692383, 4201.025391, 4216.922852, 4200.512695, 4210.769043, 4188.717773, 4228.717773, 4147.692383, 3508.000000, 8187.000000, 8136.000000, 0.000000, 0.000000, 0.000000, 22553.000000, 408.205109, 4.000000, 4.000000, 4.000000, 4.000000, 4.000000, 4.000000, 4.000000, 4.000000, 4.000000, 4.000000, 4.000000, 4.000000, 4.000000, 4.000000, 4.000000, 4.000000
125.000000, 0.000000, 4198.974121, 4153.333008, 4186.666504, 4180.512695, 4184.615234, 4216.410156, 4214.871582, 4200.512695, 4219.487305, 4205.127930, 4212.307617, 4186.153809, 4226.666504, 4155.384277, 3479.000000, 8180.000000, 8124.000000, 0.000000, 0.000000, 0.000000, 22553.000000, 416.410248, 4.000000, 4.000000, 4.000000, 4.000000, 4.000000, 4.000000, 4.000000, 4.000000, 4.000000, 4.000000, 4.000000, 4.000000, 4.000000, 4.000000, 4.000000, 4.000000
126.000000, 0.000000, 4201.538574, 4155.897461, 4185.641113, 4186.153809, 4193.333008, 4217.436035, 4208.205078, 4198.461426, 4217.948730, 4204.102539, 4220.000000, 4187.692383, 4225.127930, 4168.717773, 2603.000000, 8180.000000, 8124.000000, 0.000000, 0.000000, 0.000000, 22553.000000, 424.102539, 4.000000, 4.000000, 4.000000, 4.000000, 4.000000, 4.000000, 4.000000, 4.000000, 4.000000, 4.000000, 4.000000, 4.000000, 4.000000, 4.000000, 4.000000, 4.000000
127.000000, 0.000000, 4199.487305, 4158.461426, 4183.589844, 4184.102539, 4197.948730, 4215.384277, 4201.538574, 4197.948730, 4214.871582, 4198.974121, 4222.051270, 4186.666504, 4227.179199, 4169.230469, 56.000000, 8167.000000, 8115.000000, 0.000000, 0.000000, 0.000000, 22553.000000, 432.307678, 4.000000, 4.000000, 4.000000, 4.000000, 4.000000, 4.000000, 4.000000, 4.000000, 4.000000, 4.000000, 4.000000, 4.000000, 4.000000, 4.000000, 4.000000, 4.000000
0.000000, 0.000000, 4201.025391, 4169.230469, 4186.153809, 4185.641113, 4203.076660, 4218.974121, 4203.076660, 4196.410156, 4222.051270, 4203.076660, 4227.179199, 4191.794922, 4231.281738, 4167.692383, 3410.000000, 8167.000000, 8115.000000, 0.000000, 0.000000, 0.000000, 22553.000000, 440.000000, 4.000000, 4.000000, 4.000000, 4.000000, 4.000000, 4.000000, 4.000000, 4.000000, 4.000000, 4.000000, 4.000000, 4.000000, 4.000000, 4.000000, 4.000000, 4.000000
1.000000, 0.000000, 4206.666504, 4175.384277, 4188.717773, 4189.743652, 4205.641113, 4221.025391, 4202.051270, 4196.922852, 4230.769043, 4214.358887, 4240.512695, 4203.076660, 4236.922852, 4177.948730, 3548.000000, 8134.000000, 8090.000000, 0.000000, 0.000000, 0.000000, 22553.000000, 447.692291, 4.000000, 4.000000, 4.000000, 4.000000, 4.000000, 4.000000, 4.000000, 4.000000, 4.000000, 4.000000, 4.000000, 4.000000, 4.000000, 4.000000, 4.000000, 4.000000
2.000000, 0.000000, 4204.102539, 4170.256348, 4186.153809, 4188.717773, 4201.025391, 4216.410156, 4197.948730, 4200.000000, 4234.871582, 4223.076660, 4249.230469, 4207.179199, 4244.102539, 4186.666504, 2091.000000, 8134.000000, 8090.000000, 0.000000, 0.000000, 0.000000, 22553.000000, 455.384613, 4.000000, 4.000000, 4.000000, 4.000000, 4.000000, 4.000000, 4.000000, 4.000000, 4.000000, 4.000000, 4.000000, 4.000000, 4.000000, 4.000000, 4.000000, 4.000000
3.000000, 0.000000, 4203.076660, 4173.846191, 4189.743652, 4190.256348, 4205.127930, 4214.871582, 4197.948730, 4202.563965, 4238.461426, 4231.794922, 4253.333008, 4209.743652, 4248.205078, 4185.127930, 3569.000000, 8123.000000, 8092.000000, 0.000000, 0.000000, 0.000000, 22553.000000, 463.589722, 4.000000, 4.000000, 4.000000, 4.000000, 4.000000, 4.000000, 4.000000, 4.000000, 4.000000, 4.000000, 4.000000, 4.000000, 4.000000, 4.000000, 4.000000, 4.000000
4.000000, 0.000000, 4207.692383, 4184.102539, 4199.487305, 4199.487305, 4212.307617, 4218.461426, 4202.563965, 4203.076660, 4247.692383, 4241.025391, 4258.461426, 4216.922852, 4249.743652, 4184.615234, 3475.000000, 8123.000000, 8092.000000, 0.000000, 0.000000, 0.000000, 22553.000000, 471.794861, 4.000000, 4.000000, 4.000000, 4.000000, 4.000000, 4.000000, 4.000000, 4.000000, 4.000000, 4.000000, 4.000000, 4.000000, 4.000000, 4.000000, 4.000000, 4.000000
5.000000, 0.000000, 4204.615234, 4187.692383, 4203.589844, 4205.127930, 4207.692383, 4219.487305, 4211.794922, 4203.076660, 4260.000000, 4250.256348, 4266.153809, 4220.000000, 4251.794922, 4185.641113, 3582.000000, 8103.000000, 8086.000000, 0.000000, 0.000000, 0.000000, 22553.000000, 479.487183, 4.000000, 4.000000, 4.000000, 4.000000, 4.000000, 4.000000, 4.000000, 4.000000, 4.000000, 4.000000, 4.000000, 4.000000, 4.000000, 4.000000, 4.000000, 4.000000
6.000000, 0.000000, 4200.000000, 4178.974121, 4201.025391, 4199.487305, 4197.948730, 4219.487305, 4220.000000, 4202.563965, 4265.641113, 4251.794922, 4264.615234, 4217.948730, 4251.281738, 4185.641113, 2384.000000, 8103.000000, 8086.000000, 0.000000, 0.000000, 0.000000, 22553.000000, 487.179474, 4.000000, 4.000000, 4.000000, 4.000000, 4.000000, 4.000000, 4.000000, 4.000000, 4.000000, 4.000000, 4.000000, 4.000000, 4.000000, 4.000000, 4.000000, 4.000000
7.000000, 0.000000, 4202.563965, 4173.846191, 4198.974121, 4195.897461, 4192.820313, 4218.461426, 4218.461426, 4201.025391, 4263.076660, 4245.641113, 4255.897461, 4220.000000, 4255.897461, 4190.256348, 784.000000, 8096.000000, 8081.000000, 0.000000, 0.000000, 0.000000, 22553.000000, 495.384613, 4.000000, 4.000000, 4.000000, 4.000000, 4.000000, 4.000000, 4.000000, 4.000000, 4.000000, 4.000000, 4.000000, 4.000000, 4.000000, 4.000000, 4.000000, 4.000000
8.000000, 0.000000, 4205.641113, 4181.025391, 4201.538574, 4201.538574, 4188.717773, 4214.358887, 4217.436035, 4201.538574, 4261.025391, 4239.487305, 4252.820313, 4226.153809, 4260.000000, 4193.846191, 3528.000000, 8096.000000, 8081.000000, 0.000000, 0.000000, 0.000000, 22553.000000, 503.076904, 4.000000, 4.000000, 4.000000, 4.000000, 4.000000, 4.000000, 4.000000, 4.000000, 4.000000, 4.000000, 4.000000, 4.000000, 4.000000, 4.000000, 4.000000, 4.000000
9.000000, 0.000000, 4199.487305, 4173.846191, 4205.127930, 4198.461426, 4185.127930, 4212.307617, 4219.487305, 4202.051270, 4253.333008, 4231.281738, 4245.641113, 4221.025391, 4253.333008, 4181.538574, 3541.000000, 8086.000000, 8081.000000, 0.000000, 0.000000, 0.000000, 22553.000000, 511.282043, 4.000000, 4.000000, 4.000000, 4.000000, 4.000000, 4.000000, 4.000000, 4.000000, 4.000000, 4.000000, 4.000000, 4.000000, 4.000000, 4.000000, 4.000000, 4.000000
10.000000, 0.000000, 4194.358887, 4158.974121, 4198.461426, 4186.666504, 4190.256348, 4214.871582, 4215.897461, 4200.000000, 4238.461426, 4221.538574, 4234.871582, 4207.179199, 4252.820313, 4175.897461, 2603.000000, 8086.000000, 8081.000000, 0.000000, 0.000000, 0.000000, 22553.000000, 518.974365, 4.000000, 4.000000, 4.000000, 4.000000, 4.000000, 4.000000, 4.000000, 4.000000, 4.000000, 4.000000, 4.000000, 4.000000, 4.000000, 4.000000, 4.000000, 4.000000
11.000000, 0.000000, 4199.487305, 4168.717773, 4185.127930, 4186.666504, 4197.948730, 4216.410156, 4209.743652, 4198.461426, 4227.179199, 4215.897461, 4228.205078, 4198.974121, 4262.051270, 4186.666504, 3072.000000, 8066.000000, 8087.000000, 0.000000, 0.000000, 0.000000, 22553.000000, 527.179504, 4.000000, 4.000000, 4.000000, 4.000000, 4.000000, 4.000000, 4.000000, 4.000000, 4.000000, 4.000000, 4.000000, 4.000000, 4.000000, 4.000000, 4.000000, 4.000000
12.000000, 0.000000, 4203.076660, 4186.153809, 4185.641113, 4198.461426, 4201.025391, 4211.281738, 4206.153809, 4196.922852, 4214.358887, 4207.179199, 4224.102539, 4195.384277, 4266.153809, 4190.769043, 3508.000000, 8066.000000, 8087.000000, 0.000000, 0.000000, 0.000000, 22553.000000, 534.871765, 4.000000, 4.000000, 4.000000, 4.000000, 4.000000, 4.000000, 4.000000, 4.000000, 4.000000, 4.000000, 4.000000, 4.000000, 4.000000, 4.000000, 4.000000, 4.000000
13.000000, 0.000000, 4199.487305, 4183.076660, 4189.230469, 4201.025391, 4200.512695, 4203.076660, 4201.538574, 4197.948730, 4200.512695, 4198.461426, 4217.436035, 4187.179199, 4263.589844, 4183.589844, 3479.000000, 8058.000000, 8103.000000, 0.000000, 0.000000, 0.000000, 22553.000000, 543.076904, 4.000000, 4.000000, 4.000000, 4.000000, 4.000000, 4.000000, 4.000000, 4.000000, 4.000000, 4.000000, 4.000000, 4.000000, 4.000000, 4.000000, 4.000000, 4.000000
14.000000, 0.000000, 4196.410156, 4180.512695, 4184.615234, 4199.487305, 4202.051270, 4205.641113, 4199.487305, 4200.000000, 4203.589844, 4203.076660, 4213.333008, 4182.563965, 4265.127930, 4183.589844, 2603.000000, 8058.000000, 8103.000000, 0.000000, 0.000000, 0.000000, 22553.000000, 550.769226, 4.000000, 4.000000, 4.000000, 4.000000, 4.000000, 4.000000, 4.000000, 4.000000, 4.000000, 4.000000, 4.000000, 4.000000, 4.000000, 4.000000, 4.000000, 4.000000
15.000000, 0.000000, 4198.974121, 4187.692383, 4188.205078, 4203.589844, 4204.615234, 4215.897461, 4202.051270, 4200.512695, 4219.487305, 4216.922852, 4217.436035, 4186.153809, 4271.281738, 4192.307617, 3072.000000, 8056.000000, 8130.000000, 0.000000, 0.000000, 0.000000, 22553.000000, 558.974365, 4.000000, 4.000000, 4.000000, 4.000000, 4.000000, 4.000000, 4.000000, 4.000000, 4.000000, 4.000000, 4.000000, 4.000000, 4.000000, 4.000000, 4.000000, 4.000000
16.000000, 0.000000, 4203.589844, 4187.179199, 4195.897461, 4203.589844, 4202.051270, 4216.410156, 4203.589844, 4198.974121, 4222.563965, 4218.461426, 4216.922852, 4188.717773, 4270.769043, 4197.436035, 0.000000, 8056.000000, 8130.000000, 0.000000, 0.000000, 0.000000, 22553.000000, 566.666626, 4.000000, 4.000000, 4.000000, 4.000000, 4.000000, 4.000000, 4.000000, 4.000000, 4.000000, 4.000000, 4.000000, 4.000000, 4.000000, 4.000000, 4.000000, 4.000000
17.000000, 0.000000, 4201.025391, 4182.051270, 4195.897461, 4200.512695, 4200.512695, 4213.333008, 4200.512695, 4198.461426, 4216.410156, 4210.769043, 4210.769043, 4187.692383, 4266.666504, 4196.410156, 0.000000, 8062.000000, 8142.000000, 0.000000, 0.000000, 0.000000, 22553.000000, 574.358948, 4.000000, 4.000000, 4.000000, 4.000000, 4.000000, 4.000000, 4.000000, 4.000000, 4.000000, 4.000000, 4.000000, 4.000000, 4.000000, 4.000000, 4.000000, 4.000000
18.000000, 0.000000, 4196.410156, 4175.384277, 4197.948730, 4199.487305, 4199.487305, 4217.436035, 4201.538574, 4198.461426, 4214.871582, 4203.589844, 4202.051270, 4183.589844, 4269.743652, 4197.948730, 0.000000, 8062.000000, 8142.000000, 0.000000, 0.000000, 0.000000, 22553.000000, 582.564087, 4.000000, 4.000000, 4.000000, 4.000000, 4.000000, 4.000000, 4.000000, 4.000000, 4.000000, 4.000000, 4.000000, 4.000000, 4.000000, 4.000000, 4.000000, 4.000000
19.000000, 0.000000, 4196.922852, 4169.743652, 4205.127930, 4200.000000, 4199.487305, 4219.487305, 4210.256348, 4198.974121, 4214.871582, 4201.538574, 4193.333008, 4174.871582, 4275.384277, 4209.230469, 0.000000, 8091.000000, 8154.000000, 0.000000, 0.000000, 0.000000, 22553.000000, 590.256409, 4.000000, 4.000000, 4.000000, 4.000000, 4.000000, 4.000000, 4.000000, 4.000000, 4.000000, 4.000000, 4.000000, 4.000000, 4.000000, 4.000000, 4.000000, 4.000000
20.000000, 0.000000, 4198.974121, 4169.230469, 4201.025391, 4196.922852, 4198.461426, 4218.461426, 4211.794922, 4199.487305, 4208.205078, 4201.025391, 4189.743652, 4170.256348, 4273.846191, 4221.538574, 0.000000, 8091.000000, 8154.000000, 0.000000, 0.000000, 0.000000, 22553.000000, 598.461548, 4.000000, 4.000000, 4.000000, 4.000000, 4.000000, 4.000000, 4.000000, 4.000000, 4.000000, 4.000000, 4.000000, 4.000000, 4.000000, 4.000000, 4.000000, 4.000000
21.000000, 0.000000, 4204.102539, 4175.384277, 4191.281738, 4198.974121, 4197.948730, 4216.410156, 4206.153809, 4199.487305, 4202.051270, 4202.051270, 4195.384277, 4175.384277, 4278.974121, 4222.563965, 0.000000, 8117.000000, 8154.000000, 0.000000, 0.000000, 0.000000, 22553.000000, 606.153809, 4.000000, 4.000000, 4.000000, 4.000000, 4.000000, 4.000000, 4.000000, 4.000000, 4.000000, 4.000000, 4.000000, 4.000000, 4.000000, 4.000000, 4.000000, 4.000000
22.000000, 0.000000, 4207.179199, 4186.666504, 4189.743652, 4210.769043, 4204.102539, 4216.410156, 4206.153809, 4200.000000, 4208.717773, 4210.256348, 4209.230469, 4184.102539, 4293.846191, 4218.974121, 0.000000, 8117.000000, 8154.000000, 0.000000, 0.000000, 0.000000, 22553.000000, 613.846130, 4.000000, 4.000000, 4.000000, 4.000000, 4.000000, 4.000000, 4.000000, 4.000000, 4.000000, 4.000000, 4.000000, 4.000000, 4.000000, 4.000000, 4.000000, 4.000000
23.000000, 0.000000, 4204.615234, 4197.436035, 4189.743652, 4219.487305, 4213.846191, 4224.615234, 4209.230469, 4200.512695, 4216.922852, 4220.000000, 4214.871582, 4187.179199, 4302.563965, 4217.948730, 0.000000, 8141.000000, 8143.000000, 0.000000, 0.000000, 0.000000, 22553.000000, 622.051270, 4.000000, 4.000000, 4.000000, 4.000000, 4.000000, 4.000000, 4.000000, 4.000000, 4.000000, 4.000000, 4.000000, 4.000000, 4.000000, 4.000000, 4.000000, 4.000000
24.000000, 0.000000, 4204.102539, 4200.512695, 4185.641113, 4217.948730, 4215.897461, 4230.769043, 4210.769043, 4199.487305, 4216.410156, 4226.666504, 4214.358887, 4188.205078, 4307.692383, 4219.487305, 0.000000, 8141.000000, 8143.000000, 0.000000, 0.000000, 0.000000, 22553.000000, 629.743591, 4.000000, 4.000000, 4.000000, 4.000000, 4.000000, 4.000000, 4.000000, 4.000000, 4.000000, 4.000000, 4.000000, 4.000000, 4.000000, 4.000000, 4.000000, 4.000000
25.000000, 0.000000, 4206.153809, 4200.512695, 4184.102539, 4217.436035, 4209.743652, 4224.102539, 4209.230469, 4198.974121, 4217.436035, 4229.230469, 4217.436035, 4190.256348, 4309.743652, 4220.000000, 0.000000, 8193.000000, 8119.000000, 0.000000, 0.000000, 0.000000, 22553.000000, 637.948730, 4.000000, 4.000000, 4.000000, 4.000000, 4.000000, 4.000000, 4.000000, 4.000000, 4.000000, 4.000000, 4.000000, 4.000000, 4.000000, 4.000000, 4.000000, 4.000000
26.000000, 0.000000, 4206.153809, 4200.512695, 4190.769043, 4218.974121, 4203.589844, 4217.948730, 4206.666504, 4199.487305, 4218.974121, 4230.256348, 4218.461426, 4191.794922, 4307.692383, 4218.974121, 0.000000, 8193.000000, 8119.000000, 0.000000, 0.000000, 0.000000, 22553.000000, 645.640991, 4.000000, 4.000000, 4.000000, 4.000000, 4.000000, 4.000000, 4.000000, 4.000000, 4.000000, 4.000000, 4.000000, 4.000000, 4.000000, 4.000000, 4.000000, 4.000000
27.000000, 0.000000, 4205.127930, 4201.538574, 4200.000000, 4215.897461, 4201.538574, 4219.487305, 4205.127930, 4200.000000, 4216.922852, 4229.743652, 4216.922852, 4195.897461, 4307.179199, 4219.487305, 0.000000, 8216.000000, 8118.000000, 0.000000, 0.000000, 0.000000, 22553.000000, 653.333313, 4.000000, 4.000000, 4.000000, 4.000000, 4.000000, 4.000000, 4.000000, 4.000000, 4.000000, 4.000000, 4.000000, 4.000000, 4.000000, 4.000000, 4.000000, 4.000000
28.000000, 0.000000, 4203.589844, 4202.563965, 4212.307617, 4221.538574, 4202.051270, 4220.512695, 4205.641113, 4200.000000, 4219.487305, 4229.743652, 4224.102539, 4201.538574, 4307.179199, 4218.461426, 0.000000, 8216.000000, 8118.000000, 0.000000, 0.000000, 0.000000, 22553.000000, 661.538452, 4.000000, 4.000000, 4.000000, 4.000000, 4.000000, 4.000000, 4.000000, 4.000000, 4.000000, 4.000000, 4.000000, 4.000000, 4.000000, 4.000000, 4.000000, 4.000000
29.000000, 0.000000, 4207.179199, 4204.615234, 4223.589844, 4234.871582, 4205.127930, 4219.487305, 4203.589844, 4200.000000, 4226.153809, 4234.871582, 4228.717773, 4202.051270, 4308.205078, 4218.974121, 0.000000, 8262.000000, 8132.000000, 0.000000, 0.000000, 0.000000, 22553.000000, 669.230774, 4.000000, 4.000000, 4.000000, 4.000000, 4.000000, 4.000000, 4.000000, 4.000000, 4.000000, 4.000000, 4.000000, 4.000000, 4.000000, 4.000000, 4.000000, 4.000000
30.000000, 0.000000, 4206.153809, 4204.615234, 4223.589844, 4232.820313, 4202.563965, 4213.333008, 4198.461426, 4198.461426, 4220.512695, 4234.871582, 4220.512695, 4201.538574, 4307.179199, 4219.487305, 0.000000, 8262.000000, 8132.000000, 0.000000, 0.000000, 0.000000, 22553.000000, 677.435852, 4.000000, 4.000000, 4.000000, 4.000000, 4.000000, 4.000000, 4.000000, 4.000000, 4.000000, 4.000000, 4.000000, 4.000000, 4.000000, 4.000000, 4.000000, 4.000000
31.000000, 0.000000, 4197.948730, 4195.384277, 4211.794922, 4217.948730, 4189.230469, 4202.051270, 4198.461426, 4197.948730, 4206.153809, 4224.102539, 4215.897461, 4202.563965, 4300.000000, 4211.794922, 0.000000, 8272.000000, 8137.000000, 0.000000, 0.000000, 0.000000, 22553.000000, 685.128174, 4.000000, 4.000000, 4.000000, 4.000000, 4.000000, 4.000000, 4.000000, 4.000000, 4.000000, 4.000000, 4.000000, 4.000000, 4.000000, 4.000000, 4.000000, 4.000000
32.000000, 0.000000, 4197.948730, 4188.717773, 4201.025391, 4213.846191, 4186.153809, 4196.922852, 4196.922852, 4199.487305, 4203.076660, 4217.436035, 4216.922852, 4201.025391, 4293.333008, 4200.000000, 0.000000, 8272.000000, 8137.000000, 0.000000, 0.000000, 0.000000, 22553.000000, 692.820496, 4.000000, 4.000000, 4.000000, 4.000000, 4.000000, 4.000000, 4.000000, 4.000000, 4.000000, 4.000000, 4.000000, 4.000000, 4.000000, 4.000000, 4.000000, 4.000000
33.000000, 0.000000, 4201.538574, 4197.436035, 4195.897461, 4218.461426, 4197.948730, 4204.615234, 4197.436035, 4200.000000, 4214.358887, 4227.692383, 4217.436035, 4202.051270, 4295.384277, 4194.871582, 0.000000, 8281.000000, 8137.000000, 0.000000, 0.000000, 0.000000, 22553.000000, 701.025635, 4.000000, 4.000000, 4.000000, 4.000000, 4.000000, 4.000000, 4.000000, 4.000000, 4.000000, 4.000000, 4.000000, 4.000000, 4.000000, 4.000000, 4.000000, 4.000000
34.000000, 0.000000, 4200.000000, 4205.641113, 4193.846191, 4218.974121, 4203.589844, 4216.922852, 4204.102539, 4200.512695, 4218.974121, 4233.846191, 4218.974121, 4202.563965, 4296.922852, 4194.871582, 0.000000, 8281.000000, 8137.000000, 0.000000, 0.000000, 0.000000, 22553.000000, 708.717957, 4.000000, 4.000000, 4.000000, 4.000000, 4.000000, 4.000000, 4.000000, 4.000000, 4.000000, 4.000000, 4.000000, 4.000000, 4.000000, 4.000000, 4.000000, 4.000000
35.000000, 0.000000, 4193.846191, 4203.076660, 4194.358887, 4216.922852, 4200.000000, 4215.384277, 4201.538574, 4199.487305, 4209.743652, 4222.051270, 4218.461426, 4192.307617, 4290.256348, 4190.769043, 0.000000, 8285.000000, 8103.000000, 0.000000, 0.000000, 0.000000, 22553.000000, 716.923035, 4.000000, 4.000000, 4.000000, 4.000000, 4.000000, 4.000000, 4.000000, 4.000000, 4.000000, 4.000000, 4.000000, 4.000000, 4.000000, 4.000000, 4.000000, 4.000000
36.000000, 0.000000, 4193.846191, 4199.487305, 4196.922852, 4213.846191, 4198.461426, 4204.615234, 4191.794922, 4197.436035, 4202.051270, 4212.307617, 4213.846191, 4182.051270, 4287.692383, 4190.769043, 0.000000, 8285.000000, 8103.000000, 0.000000, 0.000000, 0.000000, 22553.000000, 724.615356, 4.000000, 4.000000, 4.000000, 4.000000, 4.000000, 4.000000, 4.000000, 4.000000, 4.000000, 4.000000, 4.000000, 4.000000, 4.000000, 4.000000, 4.000000, 4.000000
37.000000, 0.000000, 4196.922852, 4200.512695, 4201.025391, 4212.307617, 4200.000000, 4201.025391, 4190.769043, 4197.948730, 4203.076660, 4213.846191, 4214.871582, 4184.102539, 4292.307617, 4195.897461, 0.000000, 8287.000000, 8076.000000, 0.000000, 0.000000, 0.000000, 22553.000000, 732.307678, 4.000000, 4.000000, 4.000000, 4.000000, 4.000000, 4.000000, 4.000000, 4.000000, 4.000000, 4.000000, 4.000000, 4.000000, 4.000000, 4.000000, 4.000000, 4.000000
38.000000, 0.000000, 4196.410156, 4198.461426, 4202.563965, 4213.333008, 4200.000000, 4203.589844, 4195.897461, 4199.487305, 4201.025391, 4215.897461, 4222.051270, 4188.205078, 4294.358887, 4198.461426, 0.000000, 8287.000000, 8076.000000, 0.000000, 0.000000, 0.000000, 22553.000000, 740.512817, 4.000000, 4.000000, 4.000000, 4.000000, 4.000000, 4.000000, 4.000000, 4.000000, 4.000000, 4.000000, 4.000000, 4.000000, 4.000000, 4.000000, 4.000000, 4.000000
39.000000, 0.000000, 4199.487305, 4199.487305, 4203.589844, 4214.358887, 4202.563965, 4205.127930, 4195.897461, 4200.512695, 4196.410156, 4210.769043, 4230.769043, 4191.794922, 4294.871582, 4212.307617, 0.000000, 8282.000000, 8016.000000, 0.000000, 0.000000, 0.000000, 22553.000000, 748.205139, 4.000000, 4.000000, 4.000000, 4.000000, 4.000000, 4.000000, 4.000000, 4.000000, 4.000000, 4.000000, 4.000000, 4.000000, 4.000000, 4.000000, 4.000000, 4.000000
40.000000, 0.000000, 4198.974121, 4201.025391, 4204.102539, 4215.897461, 4205.641113, 4206.666504, 4197.436035, 4200.512695, 4197.948730, 4209.743652, 4234.871582, 4200.512695, 4296.410156, 4229.743652, 0.000000, 8282.000000, 8016.000000, 0.000000, 0.000000, 0.000000, 22553.000000, 755.897400, 4.000000, 4.000000, 4.000000, 4.000000, 4.000000, 4.000000, 4.000000, 4.000000, 4.000000, 4.000000, 4.000000, 4.000000, 4.000000, 4.000000, 4.000000, 4.000000
41.000000, 0.000000, 4194.871582, 4199.487305, 4202.563965, 4213.333008, 4203.076660, 4203.589844, 4202.051270, 4201.025391, 4200.512695, 4211.794922, 4233.333008, 4200.512695, 4297.436035, 4222.563965, 0.000000, 8277.000000, 7995.000000, 0.000000, 0.000000, 0.000000, 22553.000000, 764.102539, 4.000000, 4.000000, 4.000000, 4.000000, 4.000000, 4.000000, 4.000000, 4.000000, 4.000000, 4.000000, 4.000000, 4.000000, 4.000000, 4.000000, 4.000000, 4.000000
42.000000, 0.000000, 4197.948730, 4204.615234, 4202.563965, 4213.846191, 4202.563965, 4204.102539, 4201.025391, 4200.000000, 4204.102539, 4216.410156, 4237.948730, 4197.948730, 4300.000000, 4205.127930, 0.000000, 8277.000000, 7995.000000, 0.000000, 0.000000, 0.000000, 22553.000000, 771.794861, 4.000000, 4.000000, 4.000000, 4.000000, 4.000000, 4.000000, 4.000000, 4.000000, 4.000000, 4.000000, 4.000000, 4.000000, 4.000000, 4.000000, 4.000000, 4.000000
43.000000, 0.000000, 4206.666504, 4218.974121, 4214.871582, 4227.179199, 4213.333008, 4215.384277, 4201.538574, 4200.000000, 4217.948730, 4228.717773, 4251.794922, 4211.281738, 4311.281738, 4215.384277, 0.000000, 8252.000000, 7970.000000, 0.000000, 0.000000, 0.000000, 22553.000000, 780.000000, 4.000000, 4.000000, 4.000000, 4.000000, 4.000000, 4.000000, 4.000000, 4.000000, 4.000000, 4.000000, 4.000000, 4.000000, 4.000000, 4.000000, 4.000000, 4.000000
44.000000, 0.000000, 4208.717773, 4226.153809, 4227.692383, 4231.794922, 4217.436035, 4217.948730, 4206.153809, 4202.051270, 4228.717773, 4236.922852, 4254.358887, 4218.461426, 4314.358887, 4224.102539, 0.000000, 8252.000000, 7970.000000, 0.000000, 0.000000, 0.000000, 22553.000000, 787.692261, 4.000000, 4.000000, 4.000000, 4.000000, 4.000000, 4.000000, 4.000000, 4.000000, 4.000000, 4.000000, 4.000000, 4.000000, 4.000000, 4.000000, 4.000000, 4.000000
45.000000, 0.000000, 4200.512695, 4213.333008, 4227.179199, 4218.974121, 4204.615234, 4207.179199, 4203.076660, 4201.025391, 4220.512695, 4229.743652, 4247.179199, 4207.692383, 4302.051270, 4207.179199, 0.000000, 8241.000000, 7966.000000, 0.000000, 0.000000, 0.000000, 22553.000000, 795.897400, 4.000000, 4.000000, 4.000000, 4.000000, 4.000000, 4.000000, 4.000000, 4.000000, 4.000000, 4.000000, 4.000000, 4.000000, 4.000000, 4.000000, 4.000000, 4.000000
46.000000, 0.000000, 4197.436035, 4201.538574, 4230.256348, 4213.846191, 4200.000000, 4206.666504, 4200.000000, 4200.512695, 4214.871582, 4227.692383, 4247.692383, 4208.717773, 4294.871582, 4204.615234, 0.000000, 8241.000000, 7966.000000, 1.000000, 2.000000, 0.000000, 22553.000000, 803.589722, 4.000000, 4.000000, 4.000000, 4.000000, 4.000000, 4.000000, 4.000000, 4.000000, 4.000000, 4.000000, 4.000000, 4.000000, 4.000000, 4.000000, 4.000000, 4.000000
47.000000, 0.000000, 4200.512695, 4202.051270, 4233.333008, 4217.436035, 4207.692383, 4211.281738, 4200.512695, 4201.538574, 4217.948730, 4234.871582, 4250.769043, 4221.025391, 4300.512695, 4214.871582, 0.000000, 8233.000000, 7964.000000, 0.000000, 0.000000, 0.000000, 22553.000000, 811.282043, 4.000000, 4.000000, 4.000000, 4.000000, 4.000000, 4.000000, 4.000000, 4.000000, 4.000000, 4.000000, 4.000000, 4.000000, 4.000000, 4.000000, 4.000000, 4.000000
48.000000, 0.000000, 4194.871582, 4200.000000, 4223.076660, 4213.846191, 4211.794922, 4205.641113, 4196.410156, 4199.487305, 4209.230469, 4227.692383, 4246.666504, 4221.025391, 4295.897461, 4206.666504, 0.000000, 8233.000000, 7964.000000, 0.000000, 0.000000, 0.000000, 22553.000000, 819.487183, 4.000000, 4.000000, 4.000000, 4.000000, 4.000000, 4.000000, 4.000000, 4.000000, 4.000000, 4.000000, 4.000000, 4.000000, 4.000000, 4.000000, 4.000000, 4.000000
49.000000, 0.000000, 4194.871582, 4200.512695, 4216.410156, 4214.358887, 4215.897461, 4200.000000, 4194.358887, 4197.948730, 4200.000000, 4217.436035, 4244.615234, 4218.461426, 4283.076660, 4195.384277, 0.000000, 8215.000000, 7971.000000, 0.000000, 0.000000, 0.000000, 22553.000000, 827.179443, 4.000000, 4.000000, 4.000000, 4.000000, 4.000000, 4.000000, 4.000000, 4.000000, 4.000000, 4.000000, 4.000000, 4.000000, 4.000000, 4.000000, 4.000000, 4.000000
50.000000, 0.000000, 4198.461426, 4203.589844, 4215.384277, 4218.461426, 4220.000000, 4202.051270, 4196.410156, 4198.974121, 4198.461426, 4213.333008, 4239.487305, 4215.897461, 4275.384277, 4188.717773, 0.000000, 8215.000000, 7971.000000, 0.000000, 0.000000, 0.000000, 22553.000000, 834.871765, 4.000000, 4.000000, 4.000000, 4.000000, 4.000000, 4.000000, 4.000000, 4.000000, 4.000000, 4.000000, 4.000000, 4.000000, 4.000000, 4.000000, 4.000000, 4.000000
51.000000, 0.000000, 4191.794922, 4192.820313, 4204.102539, 4207.179199, 4217.436035, 4201.538574, 4193.846191, 4196.922852, 4193.333008, 4200.000000, 4222.051270, 4198.974121, 4269.230469, 4172.307617, 0.000000, 8205.000000, 7974.000000, 0.000000, 0.000000, 0.000000, 22553.000000, 843.076904, 4.000000, 4.000000, 4.000000, 4.000000, 4.000000, 4.000000, 4.000000, 4.000000, 4.000000, 4.000000, 4.000000, 4.000000, 4.000000, 4.000000, 4.000000, 4.000000
52.000000, 0.000000, 4189.230469, 4184.615234, 4197.948730, 4197.436035, 4215.897461, 4198.974121, 4194.358887, 4196.922852, 4197.436035, 4195.897461, 4211.794922, 4189.230469, 4269.230469, 4166.666504, 0.000000, 8205.000000, 7974.000000, 0.000000, 0.000000, 0.000000, 22553.000000, 851.282043, 4.000000, 4.000000, 4.000000, 4.000000, 4.000000, 4.000000, 4.000000, 4.000000, 4.000000, 4.000000, 4.000000, 4.000000, 4.000000, 4.000000, 4.000000, 4.000000
53.000000, 0.000000, 4199.487305, 4198.974121, 4216.410156, 4209.743652, 4220.000000, 4202.051270, 4200.000000, 4200.000000, 4218.974121, 4220.000000, 4227.179199, 4205.641113, 4278.461426, 4183.076660, 0.000000, 8215.000000, 8013.000000, 0.000000, 0.000000, 0.000000, 22553.000000, 858.974365, 4.000000, 4.000000, 4.000000, 4.000000, 4.000000, 4.000000, 4.000000, 4.000000, 4.000000, 4.000000, 4.000000, 4.000000, 4.000000, 4.000000, 4.000000, 4.000000
54.000000, 0.000000, 4206.666504, 4205.641113, 4229.743652, 4214.871582, 4220.512695, 4203.589844, 4203.076660, 4201.025391, 4225.127930, 4238.974121, 4241.025391, 4218.974121, 4282.051270, 4189.230469, 0.000000, 8215.000000, 8013.000000, 0.000000, 0.000000, 0.000000, 22553.000000, 866.666626, 4.000000, 4.000000, 4.000000, 4.000000, 4.000000, 4.000000, 4.000000, 4.000000, 4.000000, 4.000000, 4.000000, 4.000000, 4.000000, 4.000000, 4.000000, 4.000000
55.000000, 0.000000, 4201.025391, 4197.948730, 4222.051270, 4204.102539, 4216.922852, 4200.000000, 4196.410156, 4198.461426, 4212.307617, 4227.692383, 4235.897461, 4215.384277, 4277.436035, 4180.000000, 0.000000, 8231.000000, 8032.000000, 0.000000, 0.000000, 0.000000, 22553.000000, 874.871765, 4.000000, 4.000000, 4.000000, 4.000000, 4.000000, 4.000000, 4.000000, 4.000000, 4.000000, 4.000000, 4.000000, 4.000000, 4.000000, 4.000000, 4.000000, 4.000000
56.000000, 0.000000, 4194.871582, 4201.025391, 4216.922852, 4206.666504, 4217.948730, 4200.000000, 4190.769043, 4197.436035, 4208.717773, 4221.538574, 4229.230469, 4210.256348, 4275.384277, 4182.563965, 0.000000, 8231.000000, 8032.000000, 0.000000, 0.000000, 0.000000, 22553.000000, 882.564087, 4.000000, 4.000000, 4.000000, 4.000000, 4.000000, 4.000000, 4.000000, 4.000000, 4.000000, 4.000000, 4.000000, 4.000000, 4.000000, 4.000000, 4.000000, 4.000000
57.000000, 0.000000, 4195.897461, 4198.974121, 4212.820313, 4212.307617, 4218.974121, 4206.666504, 4194.871582, 4198.461426, 4209.743652, 4226.153809, 4224.615234, 4206.666504, 4272.820313, 4194.871582, 0.000000, 8249.000000, 8037.000000, 0.000000, 0.000000, 0.000000, 22553.000000, 890.769226, 4.000000, 4.000000, 4.000000, 4.000000, 4.000000, 4.000000, 4.000000, 4.000000, 4.000000, 4.000000, 4.000000, 4.000000, 4.000000, 4.000000, 4.000000, 4.000000
58.000000, 0.000000, 4194.358887, 4186.153809, 4203.076660, 4203.076660, 4217.436035, 4207.179199, 4195.897461, 4198.974121, 4202.563965, 4224.102539, 4216.410156, 4200.000000, 4266.153809, 4195.897461, 0.000000, 8249.000000, 8037.000000, 0.000000, 0.000000, 0.000000, 22553.000000, 898.461487, 4.000000, 4.000000, 4.000000, 4.000000, 4.000000, 4.000000, 4.000000, 4.000000, 4.000000, 4.000000, 4.000000, 4.000000, 4.000000, 4.000000, 4.000000, 4.000000
59.000000, 0.000000, 4195.384277, 4188.205078, 4203.589844, 4202.563965, 4212.820313, 4198.974121, 4192.307617, 4199.487305, 4197.436035, 4220.512695, 4211.794922, 4201.025391, 4261.538574, 4192.820313, 0.000000, 8288.000000, 7993.000000, 0.000000, 0.000000, 0.000000, 22553.000000, 906.153809, 4.000000, 4.000000, 4.000000, 4.000000, 4.000000, 4.000000, 4.000000, 4.000000, 4.000000, 4.000000, 4.000000, 4.000000, 4.000000, 4.000000, 4.000000, 4.000000
60.000000, 0.000000, 4198.461426, 4203.589844, 4215.897461, 4215.897461, 4209.743652, 4196.410156, 4191.281738, 4200.512695, 4201.538574, 4223.589844, 4215.897461, 4207.692383, 4256.410156, 4200.512695, 0.000000, 8288.000000, 7993.000000, 0.000000, 0.000000, 0.000000, 22553.000000, 913.846130, 4.000000, 4.000000, 4.000000, 4.000000, 4.000000, 4.000000, 4.000000, 4.000000, 4.000000, 4.000000, 4.000000, 4.000000, 4.000000, 4.000000, 4.000000, 4.000000
61.000000, 0.000000, 4196.922852, 4210.769043, 4220.512695, 4218.974121, 4211.794922, 4201.025391, 4191.794922, 4199.487305, 4198.974121, 4217.436035, 4216.922852, 4206.153809, 4248.717773, 4200.512695, 0.000000, 8297.000000, 7974.000000, 0.000000, 0.000000, 0.000000, 22553.000000, 922.051270, 4.000000, 4.000000, 4.000000, 4.000000, 4.000000, 4.000000, 4.000000, 4.000000, 4.000000, 4.000000, 4.000000, 4.000000, 4.000000, 4.000000, 4.000000, 4.000000
62.000000, 0.000000, 4194.871582, 4204.615234, 4214.871582, 4215.384277, 4214.358887, 4203.076660, 4194.358887, 4196.922852, 4185.127930, 4202.563965, 4207.692383, 4197.948730, 4235.897461, 4187.692383, 0.000000, 8297.000000, 7974.000000, 0.000000, 0.000000, 0.000000, 22553.000000, 929.743591, 4.000000, 4.000000, 4.000000, 4.000000, 4.000000, 4.000000, 4.000000, 4.000000, 4.000000, 4.000000, 4.000000, 4.000000, 4.000000, 4.000000, 4.000000, 4.000000
63.000000, 0.000000, 4194.871582, 4203.589844, 4214.358887, 4214.871582, 4215.384277, 4202.051270, 4195.897461, 4197.948730, 4181.538574, 4203.589844, 4206.666504, 4195.384277, 4233.333008, 4191.281738, 0.000000, 8324.000000, 7940.000000, 0.000000, 0.000000, 0.000000, 22553.000000, 937.948669, 4.000000, 4.000000, 4.000000, 4.000000, 4.000000, 4.000000, 4.000000, 4.000000, 4.000000, 4.000000, 4.000000, 4.000000, 4.000000, 4.000000, 4.000000, 4.000000
64.000000, 0.000000, 4193.333008, 4208.205078, 4210.769043, 4208.717773, 4214.871582, 4202.563965, 4194.871582, 4199.487305, 4188.717773, 4214.871582, 4217.436035, 4202.563965, 4242.051270, 4209.230469, 3528.000000, 8324.000000, 7940.000000, 0.000000, 0.000000, 0.000000, 22553.000000, 945.640991, 4.000000, 4.000000, 4.000000, 4.000000, 4.000000, 4.000000, 4.000000, 4.000000, 4.000000, 4.000000, 4.000000, 4.000000, 4.000000, 4.000000, 4.000000, 4.000000
65.000000, 0.000000, 4192.307617, 4206.666504, 4203.589844, 4202.051270, 4214.358887, 4203.076660, 4194.871582, 4198.974121, 4191.281738, 4220.512695, 4221.025391, 4208.717773, 4242.563965, 4216.410156, 3548.000000, 8328.000000, 7929.000000, 0.000000, 0.000000, 0.000000, 22553.000000, 953.333313, 4.000000, 4.000000, 4.000000, 4.000000, 4.000000, 4.000000, 4.000000, 4.000000, 4.000000, 4.000000, 4.000000, 4.000000, 4.000000, 4.000000, 4.000000, 4.000000
66.000000, 0.000000, 4192.820313, 4205.641113, 4205.127930, 4202.563965, 4215.384277, 4203.076660, 4196.410156, 4198.974121, 4193.846191, 4223.076660, 4218.974121, 4211.794922, 4236.410156, 4220.512695, 2091.000000, 8328.000000, 7929.000000, 0.000000, 0.000000, 0.000000, 22553.000000, 961.538452, 4.000000, 4.000000, 4.000000, 4.000000, 4.000000, 4.000000, 4.000000, 4.000000, 4.000000, 4.000000, 4.000000, 4.000000, 4.000000, 4.000000, 4.000000, 4.000000
67.000000, 0.000000, 4196.410156, 4213.846191, 4212.820313, 4207.179199, 4215.897461, 4206.153809, 4195.384277, 4201.025391, 4200.512695, 4232.307617, 4227.179199, 4214.358887, 4231.794922, 4230.256348, 3569.000000, 8327.000000, 7920.000000, 0.000000, 0.000000, 0.000000, 22553.000000, 969.230774, 4.000000, 4.000000, 4.000000, 4.000000, 4.000000, 4.000000, 4.000000, 4.000000, 4.000000, 4.000000, 4.000000, 4.000000, 4.000000, 4.000000, 4.000000, 4.000000
68.000000, 0.000000, 4197.948730, 4220.512695, 4223.589844, 4213.846191, 4214.358887, 4212.820313, 4196.922852, 4200.512695, 4205.127930, 4241.025391, 4233.846191, 4216.922852, 4225.127930, 4234.358887, 3476.000000, 8327.000000, 7920.000000, 0.000000, 0.000000, 0.000000, 22553.000000, 977.435852, 4.000000, 4.000000, 4.000000, 4.000000, 4.000000, 4.000000, 4.000000, 4.000000, 4.000000, 4.000000, 4.000000, 4.000000, 4.000000, 4.000000, 4.000000, 4.000000
69.000000, 0.000000, 4195.897461, 4218.974121, 4229.230469, 4216.410156, 4213.333008, 4216.410156, 4203.076660, 4200.512695, 4208.205078, 4242.051270, 4233.333008, 4221.025391, 4218.974121, 4233.846191, 3582.000000, 8322.000000, 7920.000000, 0.000000, 0.000000, 0.000000, 22553.000000, 985.128174, 4.000000, 4.000000, 4.000000, 4.000000, 4.000000, 4.000000, 4.000000, 4.000000, 4.000000, 4.000000, 4.000000, 4.000000, 4.000000, 4.000000, 4.000000, 4.000000
70.000000, 0.000000, 4194.358887, 4218.461426, 4223.589844, 4211.794922, 4214.358887, 4214.358887, 4201.538574, 4201.025391, 4203.076660, 4233.846191, 4225.641113, 4215.897461, 4207.179199, 4232.307617, 2458.000000, 8322.000000, 7920.000000, 0.000000, 0.000000, 0.000000, 22553.000000, 993.333313, 4.000000, 4.000000, 4.000000, 4.000000, 4.000000, 4.000000, 4.000000, 4.000000, 4.000000, 4.000000, 4.000000, 4.000000, 4.000000, 4.000000, 4.000000, 4.000000
71.000000, 0.000000, 4191.281738, 4210.256348, 4215.384277, 4205.127930, 4213.333008, 4208.717773, 4194.871582, 4194.871582, 4189.230469, 4221.025391, 4205.641113, 4202.563965, 4181.538574, 4221.538574, 784.000000, 8313.000000, 7926.000000, 0.000000, 0.000000, 0.000000, 22554.000000, 1.025641, 4.000000, 4.000000, 4.000000, 4.000000, 4.000000, 4.000000, 4.000000, 4.000000, 4.000000, 4.000000, 4.000000, 4.000000, 4.000000, 4.000000, 4.000000, 4.000000
72.000000, 0.000000, 4192.820313, 4204.615234, 4214.871582, 4201.538574, 4214.871582, 4203.589844, 4192.307617, 4192.307617, 4184.102539, 4223.076660, 4196.922852, 4199.487305, 4173.846191, 4211.794922, 3532.000000, 8313.000000, 7926.000000, 0.000000, 0.000000, 0.000000, 22554.000000, 8.717949, 4.000000, 4.000000, 4.000000, 4.000000, 4.000000, 4.000000, 4.000000, 4.000000, 4.000000, 4.000000, 4.000000, 4.000000, 4.000000, 4.000000, 4.000000, 4.000000
73.000000, 0.000000, 4195.897461, 4210.769043, 4216.410156, 4205.127930, 4225.127930, 4209.743652, 4196.410156, 4197.948730, 4189.743652, 4230.256348, 4209.743652, 4205.641113, 4182.563965, 4214.358887, 3541.000000, 8281.000000, 7949.000000, 0.000000, 0.000000, 0.000000, 22554.000000, 16.923077, 4.000000, 4.000000, 4.000000, 4.000000, 4.000000, 4.000000, 4.000000, 4.000000, 4.000000, 4.000000, 4.000000, 4.000000, 4.000000, 4.000000, 4.000000, 4.000000
74.000000, 0.000000, 4195.897461, 4213.333008, 4214.871582, 4211.281738, 4229.743652, 4215.384277, 4201.538574, 4200.000000, 4189.743652, 4223.589844, 4214.871582, 4204.615234, 4175.384277, 4214.871582, 2602.000000, 8281.000000, 7949.000000, 0.000000, 0.000000, 0.000000, 22554.000000, 24.615383, 4.000000, 4.000000, 4.000000, 4.000000, 4.000000, 4.000000, 4.000000, 4.000000, 4.000000, 4.000000, 4.000000, 4.000000, 4.000000, 4.000000, 4.000000, 4.000000
75.000000, 0.000000, 4194.871582, 4210.769043, 4214.358887, 4211.794922, 4219.487305, 4205.641113, 4198.974121, 4197.948730, 4186.153809, 4217.436035, 4208.717773, 4198.461426, 4166.666504, 4217.948730, 3072.000000, 8263.000000, 7952.000000, 0.000000, 0.000000, 0.000000, 22554.000000, 32.307690, 4.000000, 4.000000, 4.000000, 4.000000, 4.000000, 4.000000, 4.000000, 4.000000, 4.000000, 4.000000, 4.000000, 4.000000, 4.000000, 4.000000, 4.000000, 4.000000
76.000000, 0.000000, 4196.410156, 4213.333008, 4215.897461, 4211.794922, 4217.436035, 4203.076660, 4195.897461, 4198.461426, 4191.794922, 4224.615234, 4211.281738, 4200.000000, 4170.769043, 4240.512695, 3508.000000, 8263.000000, 7952.000000, 0.000000, 0.000000, 0.000000, 22554.000000, 40.000000, 4.000000, 4.000000, 4.000000, 4.000000, 4.000000, 4.000000, 4.000000, 4.000000, 4.000000, 4.000000, 4.000000, 4.000000, 4.000000, 4.000000, 4.000000, 4.000000
77.000000, 0.000000, 4202.563965, 4219.487305, 4225.127930, 4216.922852, 4228.717773, 4213.846191, 4200.000000, 4200.512695, 4202.563965, 4233.846191, 4218.461426, 4206.666504, 4170.769043, 4265.641113, 3479.000000, 8230.000000, 7941.000000, 0.000000, 0.000000, 0.000000, 22554.000000, 48.205128, 4.000000, 4.000000, 4.000000, 4.000000, 4.000000, 4.000000, 4.000000, 4.000000, 4.000000, 4.000000, 4.000000, 4.000000, 4.000000, 4.000000, 4.000000, 4.000000
78.000000, 0.000000, 4205.127930, 4225.127930, 4232.307617, 4223.589844, 4233.333008, 4218.461426, 4206.153809, 4200.000000, 4208.205078, 4235.384277, 4222.563965, 4211.794922, 4162.563965, 4270.769043, 2602.000000, 8230.000000, 7941.000000, 0.000000, 0.000000, 0.000000, 22554.000000, 55.897434, 4.000000, 4.000000, 4.000000, 4.000000, 4.000000, 4.000000, 4.000000, 4.000000, 4.000000, 4.000000, 4.000000, 4.000000, 4.000000, 4.000000, 4.000000, 4.000000
79.000000, 0.000000, 4203.589844, 4233.333008, 4232.820313, 4225.641113, 4231.281738, 4222.563965, 4211.281738, 4200.000000, 4207.692383, 4234.871582, 4228.205078, 4216.410156, 4160.512695, 4268.205078, 3072.000000, 8207.000000, 7939.000000, 0.000000, 0.000000, 0.000000, 22554.000000, 64.102562, 4.000000, 4.000000, 4.000000, 4.000000, 4.000000, 4.000000, 4.000000, 4.000000, 4.000000, 4.000000, 4.000000, 4.000000, 4.000000, 4.000000, 4.000000, 4.000000
80.000000, 0.000000, 4200.512695, 4234.871582, 4228.717773, 4222.563965, 4232.307617, 4226.666504, 4211.281738, 4200.000000, 4205.127930, 4234.871582, 4227.179199, 4214.871582, 4157.948730, 4266.666504, 3508.000000, 8207.000000, 7939.000000, 0.000000, 0.000000, 0.000000, 22554.000000, 71.794868, 4.000000, 4.000000, 4.000000, 4.000000, 4.000000, 4.000000, 4.000000, 4.000000, 4.000000, 4.000000, 4.000000, 4.000000, 4.000000, 4.000000, 4.000000, 4.000000
81.000000, 0.000000, 4198.461426, 4229.230469, 4221.538574, 4216.410156, 4230.769043, 4218.974121, 4204.615234, 4200.512695, 4202.051270, 4234.358887, 4220.512695, 4206.153809, 4154.358887, 4260.512695, 3479.000000, 8192.000000, 7944.000000, 0.000000, 0.000000, 0.000000, 22554.000000, 80.000000, 4.000000, 4.000000, 4.000000, 4.000000, 4.000000, 4.000000, 4.000000, 4.000000, 4.000000, 4.000000, 4.000000, 4.000000, 4.000000, 4.000000, 4.000000, 4.000000
82.000000, 0.000000, 4203.589844, 4233.333008, 4222.051270, 4215.384277, 4227.692383, 4213.333008, 4202.051270, 4200.000000, 4201.025391, 4232.820313, 4222.563965, 4206.153809, 4154.358887, 4265.641113, 2602.000000, 8192.000000, 7944.000000, 0.000000, 0.000000, 0.000000, 22554.000000, 87.692307, 4.000000, 4.000000, 4.000000, 4.000000, 4.000000, 4.000000, 4.000000, 4.000000, 4.000000, 4.000000, 4.000000, 4.000000, 4.000000, 4.000000, 4.000000, 4.000000
83.000000, 0.000000, 4208.717773, 4243.076660, 4230.256348, 4218.461426, 4229.743652, 4216.922852, 4204.102539, 4199.487305, 4202.051270, 4233.333008, 4226.153809, 4212.307617, 4154.358887, 4285.641113, 3072.000000, 8165.000000, 7977.000000, 0.000000, 0.000000, 0.000000, 22554.000000, 95.384613, 4.000000, 4.000000, 4.000000, 4.000000, 4.000000, 4.000000, 4.000000, 4.000000, 4.000000, 4.000000, 4.000000, 4.000000, 4.000000, 4.000000, 4.000000, 4.000000
84.000000, 0.000000, 4208.717773, 4245.641113, 4231.794922, 4217.948730, 4231.794922, 4214.871582, 4204.615234, 4201.025391, 4197.948730, 4231.794922, 4222.563965, 4212.307617, 4155.384277, 4296.410156, 3508.000000, 8165.000000, 7977.000000, 0.000000, 0.000000, 0.000000, 22554.000000, 103.589745, 4.000000, 4.000000, 4.000000, 4.000000, 4.000000, 4.000000, 4.000000, 4.000000, 4.000000, 4.000000, 4.000000, 4.000000, 4.000000, 4.000000, 4.000000, 4.000000
85.000000, 0.000000, 4211.281738, 4244.102539, 4233.846191, 4218.974121, 4231.794922, 4212.307617, 4201.025391, 4201.538574, 4194.358887, 4223.076660, 4217.436035, 4208.717773, 4155.384277, 4295.384277, 3479.000000, 8158.000000, 7987.000000, 0.000000, 0.000000, 0.000000, 22554.000000, 111.282051, 4.000000, 4.000000, 4.000000, 4.000000, 4.000000, 4.000000, 4.000000, 4.000000, 4.000000, 4.000000, 4.000000, 4.000000, 4.000000, 4.000000, 4.000000, 4.000000
86.000000, 0.000000, 4218.974121, 4252.307617, 4246.153809, 4225.641113, 4231.794922, 4215.897461, 4201.025391, 4200.000000, 4197.436035, 4216.410156, 4217.436035, 4213.846191, 4153.846191, 4302.051270, 2602.000000, 8158.000000, 7987.000000, 0.000000, 0.000000, 0.000000, 22554.000000, 118.974358, 4.000000, 4.000000, 4.000000, 4.000000, 4.000000, 4.000000, 4.000000, 4.000000, 4.000000, 4.000000, 4.000000, 4.000000, 4.000000, 4.000000, 4.000000, 4.000000
87.000000, 0.000000, 4225.641113, 4269.230469, 4256.410156, 4232.820313, 4231.281738, 4216.922852, 4206.666504, 4201.538574, 4199.487305, 4220.512695, 4223.076660, 4226.153809, 4153.846191, 4314.358887, 3072.000000, 8151.000000, 8016.000000, 0.000000, 0.000000, 0.000000, 22554.000000, 127.179482, 4.000000, 4.000000, 4.000000, 4.000000, 4.000000, 4.000000, 4.000000, 4.000000, 4.000000, 4.000000, 4.000000, 4.000000, 4.000000, 4.000000, 4.000000, 4.000000
88.000000, 0.000000, 4225.641113, 4284.102539, 4262.051270, 4238.461426, 4228.717773, 4212.307617, 4203.589844, 4201.025391, 4199.487305, 4228.717773, 4231.281738, 4230.256348, 4158.461426, 4311.281738, 3508.000000, 8151.000000, 8016.000000, 0.000000, 0.000000, 0.000000, 22554.000000, 134.871796, 4.000000, 4.000000, 4.000000, 4.000000, 4.000000, 4.000000, 4.000000, 4.000000, 4.000000, 4.000000, 4.000000, 4.000000, 4.000000, 4.000000, 4.000000, 4.000000
89.000000, 0.000000, 4226.153809, 4300.512695, 4261.538574, 4243.589844, 4226.666504, 4206.153809, 4196.922852, 4198.974121, 4202.563965, 4231.281738, 4235.897461, 4225.641113, 4160.000000, 4300.512695, 3479.000000, 8158.000000, 8032.000000, 0.000000, 0.000000, 0.000000, 22554.000000, 143.076920, 4.000000, 4.000000, 4.000000, 4.000000, 4.000000, 4.000000, 4.000000, 4.000000, 4.000000, 4.000000, 4.000000, 4.000000, 4.000000, 4.000000, 4.000000, 4.000000
90.000000, 0.000000, 4225.127930, 4315.384277, 4254.871582, 4247.692383, 4228.717773, 4202.563965, 4198.461426, 4199.487305, 4204.102539, 4233.333008, 4237.436035, 4221.025391, 4157.948730, 4295.897461, 2602.000000, 8158.000000, 8032.000000, 0.000000, 0.000000, 0.000000, 22554.000000, 150.769226, 4.000000, 4.000000, 4.000000, 4.000000, 4.000000, 4.000000, 4.000000, 4.000000, 4.000000, 4.000000, 4.000000, 4.000000, 4.000000, 4.000000, 4.000000, 4.000000
91.000000, 0.000000, 4213.333008, 4312.820313, 4247.179199, 4246.153809, 4225.641113, 4200.512695, 4194.358887, 4200.512695, 4201.025391, 4237.948730, 4235.897461, 4210.769043, 4158.461426, 4284.615234, 3072.000000, 8161.000000, 8033.000000, 0.000000, 0.000000, 0.000000, 22554.000000, 158.461533, 4.000000, 4.000000, 4.000000, 4.000000, 4.000000, 4.000000, 4.000000, 4.000000, 4.000000, 4.000000, 4.000000, 4.000000, 4.000000, 4.000000, 4.000000, 4.000000
92.000000, 0.000000, 4205.641113, 4302.563965, 4237.436035, 4239.487305, 4216.922852, 4198.974121, 4189.743652, 4200.000000, 4195.384277, 4234.358887, 4227.179199, 4190.769043, 4152.820313, 4258.461426, 3508.000000, 8161.000000, 8033.000000, 0.000000, 0.000000, 0.000000, 22554.000000, 166.666656, 4.000000, 4.000000, 4.000000, 4.000000, 4.000000, 4.000000, 4.000000, 4.000000, 4.000000, 4.000000, 4.000000, 4.000000, 4.000000, 4.000000, 4.000000, 4.000000
93.000000, 0.000000, 4205.641113, 4297.948730, 4229.743652, 4232.820313, 4214.871582, 4193.333008, 4190.769043, 4197.436035, 4186.153809, 4220.000000, 4212.307617, 4180.512695, 4140.000000, 4234.358887, 3479.000000, 8177.000000, 8012.000000, 0.000000, 0.000000, 0.000000, 22554.000000, 174.358963, 4.000000, 4.000000, 4.000000, 4.000000, 4.000000, 4.000000, 4.000000, 4.000000, 4.000000, 4.000000, 4.000000, 4.000000, 4.000000, 4.000000, 4.000000, 4.000000
94.000000, 0.000000, 4197.436035, 4282.563965, 4225.127930, 4229.743652, 4214.358887, 4188.717773, 4188.717773, 4196.410156, 4180.512695, 4212.307617, 4204.615234, 4182.563965, 4128.717773, 4224.102539, 2602.000000, 8177.000000, 8012.000000, 0.000000, 0.000000, 0.000000, 22554.000000, 182.051285, 4.000000, 4.000000, 4.000000, 4.000000, 4.000000, 4.000000, 4.000000, 4.000000, 4.000000, 4.000000, 4.000000, 4.000000, 4.000000, 4.000000, 4.000000, 4.000000
95.000000, 0.000000, 4195.897461, 4270.769043, 4227.692383, 4231.794922, 4215.384277, 4193.846191, 4188.717773, 4198.974121, 4183.589844, 4216.410156, 4206.153809, 4184.102539, 4125.127930, 4214.358887, 3072.000000, 8185.000000, 7994.000000, 0.000000, 0.000000, 0.000000, 22554.000000, 190.256409, 4.000000, 4.000000, 4.000000, 4.000000, 4.000000, 4.000000, 4.000000, 4.000000, 4.000000, 4.000000, 4.000000, 4.000000, 4.000000, 4.000000, 4.000000, 4.000000
96.000000, 0.000000, 4201.538574, 4284.102539, 4229.743652, 4232.820313, 4222.051270, 4200.512695, 4192.820313, 4198.974121, 4184.102539, 4215.897461, 4209.230469, 4187.179199, 4120.000000, 4198.974121, 3508.000000, 8185.000000, 7994.000000, 0.000000, 0.000000, 0.000000, 22554.000000, 197.948715, 4.000000, 4.000000, 4.000000, 4.000000, 4.000000, 4.000000, 4.000000, 4.000000, 4.000000, 4.000000, 4.000000, 4.000000, 4.000000, 4.000000, 4.000000, 4.000000
97.000000, 0.000000, 4196.922852, 4285.127930, 4221.538574, 4230.256348, 4224.615234, 4201.538574, 4194.871582, 4195.897461, 4176.410156, 4204.102539, 4201.025391, 4183.076660, 4109.230469, 4188.205078, 3479.000000, 8204.000000, 7963.000000, 0.000000, 0.000000, 0.000000, 22554.000000, 206.153839, 4.000000, 4.000000, 4.000000, 4.000000, 4.000000, 4.000000, 4.000000, 4.000000, 4.000000, 4.000000, 4.000000, 4.000000, 4.000000, 4.000000, 4.000000, 4.000000
98.000000, 0.000000, 4192.307617, 4255.384277, 4214.358887, 4224.615234, 4217.948730, 4200.000000, 4193.846191, 4196.922852, 4169.743652, 4196.922852, 4187.179199, 4170.256348, 4103.076660, 4179.487305, 2602.000000, 8204.000000, 7963.000000, 0.000000, 0.000000, 0.000000, 22554.000000, 213.846146, 4.000000, 4.000000, 4.000000, 4.000000, 4.000000, 4.000000, 4.000000, 4.000000, 4.000000, 4.000000, 4.000000, 4.000000, 4.000000, 4.000000, 4.000000, 4.000000
99.000000, 0.000000, 4195.384277, 4230.769043, 4215.384277, 4219.487305, 4218.461426, 4200.000000, 4188.717773, 4199.487305, 4167.179199, 4200.512695, 4184.102539, 4164.102539, 4105.127930, 4170.769043, 3072.000000, 8206.000000, 7954.000000, 0.000000, 0.000000, 0.000000, 22554.000000, 221.538452, 4.000000, 4.000000, 4.000000, 4.000000, 4.000000, 4.000000, 4.000000, 4.000000, 4.000000, 4.000000, 4.000000, 4.000000, 4.000000, 4.000000, 4.000000, 4.000000
100.000000, 0.000000, 4198.461426, 4222.051270, 4210.769043, 4216.410156, 4221.538574, 4202.051270, 4188.205078, 4199.487305, 4170.256348, 4199.487305, 4182.563965, 4160.000000, 4105.127930, 4165.127930, 3508.000000, 8206.000000, 7954.000000, 0.000000, 0.000000, 0.000000, 22554.000000, 229.230759, 4.000000, 4.000000, 4.000000, 4.000000, 4.000000, 4.000000, 4.000000, 4.000000, 4.000000, 4.000000, 4.000000, 4.000000, 4.000000, 4.000000, 4.000000, 4.000000
101.000000, 0.000000, 4196.410156, 4214.358887, 4198.974121, 4213.333008, 4215.897461, 4204.615234, 4193.846191, 4198.974121, 4172.820313, 4198.974121, 4175.384277, 4150.256348, 4096.922852, 4164.615234, 3479.000000, 8215.000000, 7953.000000, 0.000000, 0.000000, 0.000000, 22554.000000, 237.435898, 4.000000, 4.000000, 4.000000, 4.000000, 4.000000, 4.000000, 4.000000, 4.000000, 4.000000, 4.000000, 4.000000, 4.000000, 4.000000, 4.000000, 4.000000, 4.000000
102.000000, 0.000000, 4196.410156, 4212.307617, 4200.512695, 4212.307617, 4214.871582, 4202.051270, 4193.333008, 4199.487305, 4170.769043, 4207.692383, 4175.897461, 4150.256348, 4089.743408, 4164.615234, 2602.000000, 8215.000000, 7953.000000, 0.000000, 0.000000, 0.000000, 22554.000000, 245.128204, 4.000000, 4.000000, 4.000000, 4.000000, 4.000000, 4.000000, 4.000000, 4.000000, 4.000000, 4.000000, 4.000000, 4.000000, 4.000000, 4.000000, 4.000000, 4.000000
103.000000, 0.000000, 4201.025391, 4215.384277, 4207.692383, 4214.871582, 4219.487305, 4204.102539, 4188.717773, 4200.000000, 4171.281738, 4212.307617, 4185.641113, 4165.127930, 4092.820313, 4167.179199, 3072.000000, 8212.000000, 7959.000000, 0.000000, 0.000000, 0.000000, 22554.000000, 253.333328, 4.000000, 4.000000, 4.000000, 4.000000, 4.000000, 4.000000, 4.000000, 4.000000, 4.000000, 4.000000, 4.000000, 4.000000, 4.000000, 4.000000, 4.000000, 4.000000
104.000000, 0.000000, 4202.563965, 4218.461426, 4216.410156, 4218.461426, 4220.512695, 4213.846191, 4198.974121, 4201.538574, 4184.615234, 4219.487305, 4196.410156, 4187.692383, 4104.102539, 4177.948730, 3508.000000, 8212.000000, 7959.000000, 0.000000, 0.000000, 0.000000, 22554.000000, 261.025635, 4.000000, 4.000000, 4.000000, 4.000000, 4.000000, 4.000000, 4.000000, 4.000000, 4.000000, 4.000000, 4.000000, 4.000000, 4.000000, 4.000000, 4.000000, 4.000000
105.000000, 0.000000, 4202.563965, 4218.974121, 4227.179199, 4218.461426, 4217.436035, 4214.871582, 4205.641113, 4202.563965, 4203.076660, 4233.846191, 4202.563965, 4204.615234, 4109.230469, 4185.127930, 3479.000000, 8207.000000, 7961.000000, 0.000000, 0.000000, 0.000000, 22554.000000, 269.230774, 4.000000, 4.000000, 4.000000, 4.000000, 4.000000, 4.000000, 4.000000, 4.000000, 4.000000, 4.000000, 4.000000, 4.000000, 4.000000, 4.000000, 4.000000, 4.000000
106.000000, 0.000000, 4200.000000, 4218.974121, 4228.205078, 4217.948730, 4218.461426, 4206.153809, 4195.897461, 4201.538574, 4204.102539, 4236.410156, 4205.127930, 4204.102539, 4102.051270, 4185.641113, 2602.000000, 8207.000000, 7961.000000, 0.000000, 0.000000, 0.000000, 22554.000000, 276.923065, 4.000000, 4.000000, 4.000000, 4.000000, 4.000000, 4.000000, 4.000000, 4.000000, 4.000000, 4.000000, 4.000000, 4.000000, 4.000000, 4.000000, 4.000000, 4.000000
107.000000, 0.000000, 4197.436035, 4213.333008, 4220.000000, 4215.897461, 4216.410156, 4203.076660, 4195.897461, 4199.487305, 4189.230469, 4225.127930, 4197.436035, 4188.205078, 4093.845947, 4185.127930, 3072.000000, 8200.000000, 7970.000000, 0.000000, 0.000000, 0.000000, 22554.000000, 284.615387, 4.000000, 4.000000, 4.000000, 4.000000, 4.000000, 4.000000, 4.000000, 4.000000, 4.000000, 4.000000, 4.000000, 4.000000, 4.000000, 4.000000, 4.000000, 4.000000
108.000000, 0.000000, 4195.897461, 4203.076660, 4216.410156, 4210.256348, 4208.717773, 4207.692383, 4205.127930, 4198.974121, 4179.487305, 4214.871582, 4182.051270, 4171.794922, 4088.717773, 4186.153809, 3508.000000, 8200.000000, 7970.000000, 0.000000, 0.000000, 0.000000, 22554.000000, 292.820496, 4.000000, 4.000000, 4.000000, 4.000000, 4.000000, 4.000000, 4.000000, 4.000000, 4.000000, 4.000000, 4.000000, 4.000000, 4.000000, 4.000000, 4.000000, 4.000000
109.000000, 0.000000, 4193.846191, 4202.051270, 4215.384277, 4206.153809, 4212.307617, 4212.820313, 4206.153809, 4199.487305, 4186.153809, 4216.922852, 4174.358887, 4168.205078, 4088.717773, 4184.615234, 3479.000000, 8195.000000, 7974.000000, 0.000000, 0.000000, 0.000000, 22554.000000, 301.025635, 4.000000, 4.000000, 4.000000, 4.000000, 4.000000, 4.000000, 4.000000, 4.000000, 4.000000, 4.000000, 4.000000, 4.000000, 4.000000, 4.000000, 4.000000, 4.000000
110.000000, 0.000000, 4195.897461, 4204.102539, 4206.666504, 4203.076660, 4216.410156, 4214.358887, 4202.563965, 4201.538574, 4186.666504, 4217.948730, 4173.846191, 4163.589844, 4089.743408, 4176.410156, 2602.000000, 8195.000000, 7974.000000, 0.000000, 0.000000, 0.000000, 22554.000000, 308.717926, 4.000000, 4.000000, 4.000000, 4.000000, 4.000000, 4.000000, 4.000000, 4.000000, 4.000000, 4.000000, 4.000000, 4.000000, 4.000000, 4.000000, 4.000000, 4.000000
111.000000, 0.000000, 4195.897461, 4196.922852, 4193.846191, 4198.461426, 4208.205078, 4213.333008, 4200.512695, 4200.000000, 4173.846191, 4207.692383, 4169.743652, 4152.820313, 4087.692139, 4167.179199, 3072.000000, 8187.000000, 7997.000000, 0.000000, 0.000000, 0.000000, 22554.000000, 316.410248, 4.000000, 4.000000, 4.000000, 4.000000, 4.000000, 4.000000, 4.000000, 4.000000, 4.000000, 4.000000, 4.000000, 4.000000, 4.000000, 4.000000, 4.000000, 4.000000
