title:neutral22, recorded:21.05.18 11.33.42, timestamp started:2018-05-12T20:28:52.032863+02:00            , sampling:128, subject:Noé, labels:COUNTER INTERPOLATED AF3 F7 F3 FC5 T7 P7 O1 O2 P8 T8 FC6 F4 F8 AF4 RAW_CQ GYROX GYROY MARKER MARKER_HARDWARE SYNC TIME_STAMP_s TIME_STAMP_ms CQ_AF3 CQ_F7 CQ_F3 CQ_FC5 CQ_T7 CQ_P7 CQ_O1 CQ_O2 CQ_P8 CQ_T8 CQ_FC6 CQ_F4 CQ_F8 CQ_AF4 CQ_CMS CQ_DRL, chan:40, samples:3028, units:emotiv
121.000000, 0.000000, 4173.333008, 4170.769043, 4181.025391, 4180.512695, 4185.641113, 4194.358887, 4199.487305, 4235.384277, 4199.487305, 4200.000000, 4180.512695, 4210.256348, 4186.666504, 4168.717773, 3447.000000, 8306.000000, 8150.000000, 0.000000, 0.000000, 0.000000, 24594.000000, 976.410217, 4.000000, 4.000000, 4.000000, 4.000000, 4.000000, 4.000000, 4.000000, 4.000000, 4.000000, 4.000000, 4.000000, 4.000000, 4.000000, 4.000000, 4.000000, 4.000000
122.000000, 0.000000, 4167.692383, 4167.179199, 4180.512695, 4179.487305, 4185.127930, 4198.461426, 4207.179199, 4217.436035, 4196.922852, 4189.743652, 4170.256348, 4208.205078, 4182.563965, 4165.127930, 3565.000000, 8306.000000, 8150.000000, 0.000000, 0.000000, 0.000000, 24594.000000, 984.102539, 4.000000, 4.000000, 4.000000, 4.000000, 4.000000, 4.000000, 4.000000, 4.000000, 4.000000, 4.000000, 4.000000, 4.000000, 4.000000, 4.000000, 4.000000, 4.000000
123.000000, 0.000000, 4172.820313, 4166.666504, 4181.025391, 4183.076660, 4185.641113, 4192.820313, 4204.615234, 4217.436035, 4198.461426, 4188.717773, 4175.384277, 4212.307617, 4186.666504, 4169.743652, 3566.000000, 8307.000000, 8099.000000, 0.000000, 0.000000, 0.000000, 24594.000000, 991.794861, 4.000000, 4.000000, 4.000000, 4.000000, 4.000000, 4.000000, 4.000000, 4.000000, 4.000000, 4.000000, 4.000000, 4.000000, 4.000000, 4.000000, 4.000000, 4.000000
124.000000, 0.000000, 4184.615234, 4175.897461, 4192.307617, 4186.153809, 4186.153809, 4186.153809, 4202.051270, 4224.615234, 4200.000000, 4196.922852, 4183.589844, 4215.384277, 4190.256348, 4174.358887, 3519.000000, 8307.000000, 8099.000000, 0.000000, 0.000000, 0.000000, 24594.000000, 999.487183, 4.000000, 4.000000, 4.000000, 4.000000, 4.000000, 4.000000, 4.000000, 4.000000, 4.000000, 4.000000, 4.000000, 4.000000, 4.000000, 4.000000, 4.000000, 4.000000
125.000000, 0.000000, 4192.820313, 4177.948730, 4191.794922, 4190.256348, 4189.230469, 4184.615234, 4188.205078, 4230.256348, 4200.000000, 4204.615234, 4187.692383, 4224.102539, 4200.000000, 4184.615234, 3447.000000, 8309.000000, 8089.000000, 0.000000, 0.000000, 0.000000, 24595.000000, 7.692307, 4.000000, 4.000000, 4.000000, 4.000000, 4.000000, 4.000000, 4.000000, 4.000000, 4.000000, 4.000000, 4.000000, 4.000000, 4.000000, 4.000000, 4.000000, 4.000000
126.000000, 0.000000, 4191.281738, 4174.871582, 4189.743652, 4189.230469, 4189.230469, 4182.563965, 4181.025391, 4232.307617, 4200.000000, 4203.076660, 4188.205078, 4230.256348, 4204.615234, 4188.205078, 3565.000000, 8309.000000, 8089.000000, 0.000000, 0.000000, 0.000000, 24595.000000, 15.384615, 4.000000, 4.000000, 4.000000, 4.000000, 4.000000, 4.000000, 4.000000, 4.000000, 4.000000, 4.000000, 4.000000, 4.000000, 4.000000, 4.000000, 4.000000, 4.000000
127.000000, 0.000000, 4186.666504, 4173.333008, 4190.769043, 4184.615234, 4186.666504, 4180.000000, 4185.641113, 4230.256348, 4197.948730, 4198.974121, 4187.692383, 4222.051270, 4195.897461, 4182.051270, 57.000000, 8301.000000, 8077.000000, 0.000000, 0.000000, 0.000000, 24595.000000, 23.076923, 4.000000, 4.000000, 4.000000, 4.000000, 4.000000, 4.000000, 4.000000, 4.000000, 4.000000, 4.000000, 4.000000, 4.000000, 4.000000, 4.000000, 4.000000, 4.000000
0.000000, 0.000000, 4184.615234, 4174.358887, 4192.307617, 4183.076660, 4188.205078, 4176.922852, 4172.307617, 4220.000000, 4196.922852, 4197.436035, 4182.051270, 4214.871582, 4186.666504, 4177.436035, 2935.000000, 8301.000000, 8077.000000, 0.000000, 0.000000, 0.000000, 24595.000000, 31.282051, 4.000000, 4.000000, 4.000000, 4.000000, 4.000000, 4.000000, 4.000000, 4.000000, 4.000000, 4.000000, 4.000000, 4.000000, 4.000000, 4.000000, 4.000000, 4.000000
1.000000, 0.000000, 4191.794922, 4177.436035, 4199.487305, 4192.307617, 4196.410156, 4178.461426, 4160.512695, 4212.820313, 4197.948730, 4197.948730, 4182.563965, 4221.538574, 4191.281738, 4180.512695, 3500.000000, 8294.000000, 8074.000000, 0.000000, 0.000000, 0.000000, 24595.000000, 38.974358, 4.000000, 4.000000, 4.000000, 4.000000, 4.000000, 4.000000, 4.000000, 4.000000, 4.000000, 4.000000, 4.000000, 4.000000, 4.000000, 4.000000, 4.000000, 4.000000
2.000000, 0.000000, 4205.641113, 4184.102539, 4210.256348, 4209.743652, 4211.281738, 4196.922852, 4185.127930, 4222.563965, 4200.000000, 4200.512695, 4193.333008, 4231.794922, 4198.974121, 4188.205078, 3509.000000, 8294.000000, 8074.000000, 0.000000, 0.000000, 0.000000, 24595.000000, 46.666664, 4.000000, 4.000000, 4.000000, 4.000000, 4.000000, 4.000000, 4.000000, 4.000000, 4.000000, 4.000000, 4.000000, 4.000000, 4.000000, 4.000000, 4.000000, 4.000000
3.000000, 0.000000, 4214.358887, 4188.717773, 4221.538574, 4220.512695, 4225.641113, 4218.974121, 4210.769043, 4237.948730, 4200.512695, 4207.692383, 4198.974121, 4238.461426, 4197.948730, 4196.922852, 2299.000000, 8289.000000, 8068.000000, 0.000000, 0.000000, 0.000000, 24595.000000, 54.358974, 4.000000, 4.000000, 4.000000, 4.000000, 4.000000, 4.000000, 4.000000, 4.000000, 4.000000, 4.000000, 4.000000, 4.000000, 4.000000, 4.000000, 4.000000, 4.000000
4.000000, 0.000000, 4222.051270, 4192.307617, 4228.205078, 4226.666504, 4237.436035, 4232.307617, 4218.461426, 4250.256348, 4201.025391, 4220.512695, 4207.179199, 4246.153809, 4204.102539, 4207.692383, 3558.000000, 8289.000000, 8068.000000, 0.000000, 0.000000, 0.000000, 24595.000000, 62.564102, 4.000000, 4.000000, 4.000000, 4.000000, 4.000000, 4.000000, 4.000000, 4.000000, 4.000000, 4.000000, 4.000000, 4.000000, 4.000000, 4.000000, 4.000000, 4.000000
5.000000, 0.000000, 4230.769043, 4200.000000, 4231.794922, 4237.948730, 4250.256348, 4245.641113, 4231.281738, 4257.436035, 4201.538574, 4229.743652, 4221.025391, 4258.461426, 4216.410156, 4215.384277, 3595.000000, 8287.000000, 8037.000000, 0.000000, 0.000000, 0.000000, 24595.000000, 70.256409, 4.000000, 4.000000, 4.000000, 4.000000, 4.000000, 4.000000, 4.000000, 4.000000, 4.000000, 4.000000, 4.000000, 4.000000, 4.000000, 4.000000, 4.000000, 4.000000
6.000000, 0.000000, 4242.051270, 4201.538574, 4242.563965, 4249.230469, 4260.000000, 4259.487305, 4246.153809, 4268.717773, 4203.076660, 4237.436035, 4231.281738, 4272.820313, 4220.512695, 4222.051270, 3118.000000, 8287.000000, 8037.000000, 0.000000, 0.000000, 0.000000, 24595.000000, 77.948715, 4.000000, 4.000000, 4.000000, 4.000000, 4.000000, 4.000000, 4.000000, 4.000000, 4.000000, 4.000000, 4.000000, 4.000000, 4.000000, 4.000000, 4.000000, 4.000000
7.000000, 0.000000, 4254.871582, 4202.051270, 4251.794922, 4256.410156, 4265.127930, 4268.717773, 4256.922852, 4287.692383, 4204.102539, 4246.666504, 4239.487305, 4280.000000, 4229.743652, 4232.820313, 3226.000000, 8289.000000, 8031.000000, 0.000000, 0.000000, 0.000000, 24595.000000, 86.153847, 4.000000, 4.000000, 4.000000, 4.000000, 4.000000, 4.000000, 4.000000, 4.000000, 4.000000, 4.000000, 4.000000, 4.000000, 4.000000, 4.000000, 4.000000, 4.000000
8.000000, 0.000000, 4265.641113, 4213.846191, 4253.846191, 4263.589844, 4271.281738, 4274.358887, 4266.153809, 4293.846191, 4203.076660, 4250.769043, 4248.205078, 4285.127930, 4245.127930, 4246.666504, 1062.000000, 8289.000000, 8031.000000, 0.000000, 0.000000, 0.000000, 24595.000000, 93.846153, 4.000000, 4.000000, 4.000000, 4.000000, 4.000000, 4.000000, 4.000000, 4.000000, 4.000000, 4.000000, 4.000000, 4.000000, 4.000000, 4.000000, 4.000000, 4.000000
9.000000, 0.000000, 4273.333008, 4218.461426, 4253.846191, 4269.743652, 4282.051270, 4280.000000, 4267.692383, 4291.794922, 4203.076660, 4254.871582, 4256.922852, 4297.436035, 4250.256348, 4256.410156, 3044.000000, 8305.000000, 8000.000000, 0.000000, 0.000000, 0.000000, 24595.000000, 102.051277, 4.000000, 4.000000, 4.000000, 4.000000, 4.000000, 4.000000, 4.000000, 4.000000, 4.000000, 4.000000, 4.000000, 4.000000, 4.000000, 4.000000, 4.000000, 4.000000
10.000000, 0.000000, 4281.025391, 4214.871582, 4258.461426, 4275.897461, 4291.281738, 4285.641113, 4264.615234, 4302.051270, 4204.615234, 4268.205078, 4269.743652, 4309.743652, 4257.948730, 4266.153809, 3569.000000, 8305.000000, 8000.000000, 0.000000, 0.000000, 0.000000, 24595.000000, 109.743584, 4.000000, 4.000000, 4.000000, 4.000000, 4.000000, 4.000000, 4.000000, 4.000000, 4.000000, 4.000000, 4.000000, 4.000000, 4.000000, 4.000000, 4.000000, 4.000000
11.000000, 0.000000, 4285.641113, 4217.948730, 4269.743652, 4281.538574, 4294.358887, 4290.256348, 4265.641113, 4312.820313, 4203.589844, 4280.000000, 4282.051270, 4317.948730, 4269.743652, 4276.922852, 3569.000000, 8307.000000, 7956.000000, 0.000000, 0.000000, 0.000000, 24595.000000, 117.435898, 4.000000, 4.000000, 4.000000, 4.000000, 4.000000, 4.000000, 4.000000, 4.000000, 4.000000, 4.000000, 4.000000, 4.000000, 4.000000, 4.000000, 4.000000, 4.000000
12.000000, 0.000000, 4286.666504, 4219.487305, 4273.846191, 4278.974121, 4291.281738, 4290.769043, 4271.794922, 4310.256348, 4202.051270, 4278.461426, 4282.563965, 4320.512695, 4268.717773, 4278.974121, 3313.000000, 8307.000000, 7956.000000, 0.000000, 0.000000, 0.000000, 24595.000000, 125.128204, 4.000000, 4.000000, 4.000000, 4.000000, 4.000000, 4.000000, 4.000000, 4.000000, 4.000000, 4.000000, 4.000000, 4.000000, 4.000000, 4.000000, 4.000000, 4.000000
13.000000, 0.000000, 4288.205078, 4217.436035, 4270.256348, 4277.436035, 4291.281738, 4291.281738, 4277.436035, 4307.692383, 4202.051270, 4273.846191, 4278.461426, 4314.871582, 4266.666504, 4274.871582, 3244.000000, 8307.000000, 7902.000000, 0.000000, 0.000000, 0.000000, 24595.000000, 133.333328, 4.000000, 4.000000, 4.000000, 4.000000, 4.000000, 4.000000, 4.000000, 4.000000, 4.000000, 4.000000, 4.000000, 4.000000, 4.000000, 4.000000, 4.000000, 4.000000
14.000000, 0.000000, 4291.281738, 4222.563965, 4269.743652, 4286.666504, 4297.948730, 4294.358887, 4280.512695, 4313.333008, 4202.051270, 4271.794922, 4279.487305, 4309.230469, 4274.871582, 4274.358887, 3569.000000, 8307.000000, 7902.000000, 0.000000, 0.000000, 0.000000, 24595.000000, 141.025635, 4.000000, 4.000000, 4.000000, 4.000000, 4.000000, 4.000000, 4.000000, 4.000000, 4.000000, 4.000000, 4.000000, 4.000000, 4.000000, 4.000000, 4.000000, 4.000000
15.000000, 0.000000, 4295.384277, 4229.230469, 4273.333008, 4295.384277, 4305.641113, 4295.897461, 4277.948730, 4312.820313, 4202.051270, 4268.717773, 4279.487305, 4309.743652, 4280.000000, 4279.487305, 3569.000000, 8304.000000, 7802.000000, 0.000000, 0.000000, 0.000000, 24595.000000, 149.230759, 4.000000, 4.000000, 4.000000, 4.000000, 4.000000, 4.000000, 4.000000, 4.000000, 4.000000, 4.000000, 4.000000, 4.000000, 4.000000, 4.000000, 4.000000, 4.000000
16.000000, 0.000000, 4301.025391, 4232.820313, 4275.897461, 4296.410156, 4308.717773, 4295.897461, 4277.436035, 4306.153809, 4201.025391, 4269.230469, 4277.948730, 4311.281738, 4279.487305, 4278.974121, 0.000000, 8304.000000, 7802.000000, 0.000000, 0.000000, 0.000000, 24595.000000, 156.923080, 4.000000, 4.000000, 4.000000, 4.000000, 4.000000, 4.000000, 4.000000, 4.000000, 4.000000, 4.000000, 4.000000, 4.000000, 4.000000, 4.000000, 4.000000, 4.000000
17.000000, 0.000000, 4304.102539, 4232.307617, 4274.871582, 4294.358887, 4308.717773, 4298.974121, 4284.615234, 4310.256348, 4200.000000, 4275.384277, 4281.538574, 4315.384277, 4286.153809, 4278.974121, 0.000000, 8303.000000, 7751.000000, 0.000000, 0.000000, 0.000000, 24595.000000, 165.128204, 4.000000, 4.000000, 4.000000, 4.000000, 4.000000, 4.000000, 4.000000, 4.000000, 4.000000, 4.000000, 4.000000, 4.000000, 4.000000, 4.000000, 4.000000, 4.000000
18.000000, 0.000000, 4308.717773, 4228.717773, 4278.461426, 4294.358887, 4309.743652, 4304.615234, 4292.820313, 4327.179199, 4203.076660, 4281.025391, 4292.820313, 4327.179199, 4298.974121, 4289.743652, 0.000000, 8303.000000, 7751.000000, 0.000000, 0.000000, 0.000000, 24595.000000, 172.820511, 4.000000, 4.000000, 4.000000, 4.000000, 4.000000, 4.000000, 4.000000, 4.000000, 4.000000, 4.000000, 4.000000, 4.000000, 4.000000, 4.000000, 4.000000, 4.000000
19.000000, 0.000000, 4311.794922, 4226.153809, 4286.153809, 4301.538574, 4314.871582, 4314.871582, 4301.025391, 4340.000000, 4204.615234, 4287.179199, 4303.076660, 4340.512695, 4306.153809, 4301.538574, 0.000000, 8273.000000, 7696.000000, 0.000000, 0.000000, 0.000000, 24595.000000, 181.025635, 4.000000, 4.000000, 4.000000, 4.000000, 4.000000, 4.000000, 4.000000, 4.000000, 4.000000, 4.000000, 4.000000, 4.000000, 4.000000, 4.000000, 4.000000, 4.000000
20.000000, 0.000000, 4310.769043, 4230.256348, 4289.743652, 4311.281738, 4321.538574, 4323.589844, 4303.076660, 4340.512695, 4203.589844, 4297.436035, 4307.179199, 4342.563965, 4306.666504, 4304.615234, 0.000000, 8273.000000, 7696.000000, 0.000000, 0.000000, 0.000000, 24595.000000, 188.717941, 4.000000, 4.000000, 4.000000, 4.000000, 4.000000, 4.000000, 4.000000, 4.000000, 4.000000, 4.000000, 4.000000, 4.000000, 4.000000, 4.000000, 4.000000, 4.000000
21.000000, 0.000000, 4312.820313, 4234.871582, 4288.717773, 4314.358887, 4325.127930, 4327.692383, 4304.615234, 4345.641113, 4204.102539, 4303.589844, 4310.256348, 4337.948730, 4310.769043, 4305.641113, 0.000000, 8263.000000, 7683.000000, 0.000000, 0.000000, 0.000000, 24595.000000, 196.410248, 4.000000, 4.000000, 4.000000, 4.000000, 4.000000, 4.000000, 4.000000, 4.000000, 4.000000, 4.000000, 4.000000, 4.000000, 4.000000, 4.000000, 4.000000, 4.000000
22.000000, 0.000000, 4314.871582, 4233.846191, 4290.769043, 4314.358887, 4326.666504, 4336.410156, 4315.384277, 4355.897461, 4205.127930, 4308.717773, 4312.307617, 4338.974121, 4315.897461, 4310.256348, 0.000000, 8263.000000, 7683.000000, 0.000000, 0.000000, 0.000000, 24595.000000, 204.615387, 4.000000, 4.000000, 4.000000, 4.000000, 4.000000, 4.000000, 4.000000, 4.000000, 4.000000, 4.000000, 4.000000, 4.000000, 4.000000, 4.000000, 4.000000, 4.000000
23.000000, 0.000000, 4311.794922, 4231.281738, 4294.358887, 4313.846191, 4328.205078, 4345.641113, 4326.153809, 4347.179199, 4203.076660, 4311.281738, 4310.769043, 4340.512695, 4312.307617, 4310.769043, 0.000000, 8216.000000, 7668.000000, 0.000000, 0.000000, 0.000000, 24595.000000, 212.307693, 4.000000, 4.000000, 4.000000, 4.000000, 4.000000, 4.000000, 4.000000, 4.000000, 4.000000, 4.000000, 4.000000, 4.000000, 4.000000, 4.000000, 4.000000, 4.000000
24.000000, 0.000000, 4312.307617, 4233.846191, 4295.384277, 4312.307617, 4326.666504, 4345.127930, 4325.127930, 4334.358887, 4200.512695, 4308.205078, 4311.794922, 4339.487305, 4313.846191, 4309.230469, 0.000000, 8216.000000, 7668.000000, 0.000000, 0.000000, 0.000000, 24595.000000, 220.000000, 4.000000, 4.000000, 4.000000, 4.000000, 4.000000, 4.000000, 4.000000, 4.000000, 4.000000, 4.000000, 4.000000, 4.000000, 4.000000, 4.000000, 4.000000, 4.000000
25.000000, 0.000000, 4327.179199, 4238.974121, 4302.051270, 4322.563965, 4331.794922, 4341.025391, 4315.384277, 4343.589844, 4202.563965, 4312.820313, 4325.127930, 4351.794922, 4332.307617, 4323.076660, 0.000000, 8200.000000, 7671.000000, 0.000000, 0.000000, 0.000000, 24595.000000, 228.205124, 4.000000, 4.000000, 4.000000, 4.000000, 4.000000, 4.000000, 4.000000, 4.000000, 4.000000, 4.000000, 4.000000, 4.000000, 4.000000, 4.000000, 4.000000, 4.000000
26.000000, 0.000000, 4340.000000, 4240.512695, 4314.358887, 4333.333008, 4342.051270, 4343.076660, 4315.384277, 4351.281738, 4204.102539, 4322.051270, 4338.974121, 4368.205078, 4342.051270, 4337.436035, 0.000000, 8200.000000, 7671.000000, 0.000000, 0.000000, 0.000000, 24595.000000, 235.897430, 4.000000, 4.000000, 4.000000, 4.000000, 4.000000, 4.000000, 4.000000, 4.000000, 4.000000, 4.000000, 4.000000, 4.000000, 4.000000, 4.000000, 4.000000, 4.000000
27.000000, 0.000000, 4337.948730, 4242.563965, 4316.410156, 4331.794922, 4344.102539, 4343.076660, 4324.615234, 4341.025391, 4202.051270, 4325.127930, 4341.538574, 4369.230469, 4337.436035, 4334.871582, 0.000000, 8195.000000, 7690.000000, 0.000000, 0.000000, 0.000000, 24595.000000, 243.589737, 4.000000, 4.000000, 4.000000, 4.000000, 4.000000, 4.000000, 4.000000, 4.000000, 4.000000, 4.000000, 4.000000, 4.000000, 4.000000, 4.000000, 4.000000, 4.000000
28.000000, 0.000000, 4335.897461, 4246.666504, 4316.410156, 4334.358887, 4344.615234, 4345.641113, 4327.179199, 4344.102539, 4202.051270, 4326.666504, 4343.076660, 4366.153809, 4344.102539, 4333.846191, 0.000000, 8195.000000, 7690.000000, 0.000000, 0.000000, 0.000000, 24595.000000, 251.282043, 4.000000, 4.000000, 4.000000, 4.000000, 4.000000, 4.000000, 4.000000, 4.000000, 4.000000, 4.000000, 4.000000, 4.000000, 4.000000, 4.000000, 4.000000, 4.000000
29.000000, 0.000000, 4330.769043, 4240.000000, 4316.922852, 4335.897461, 4346.666504, 4352.307617, 4329.230469, 4367.692383, 4204.615234, 4330.256348, 4341.538574, 4364.102539, 4348.717773, 4332.820313, 0.000000, 8200.000000, 7773.000000, 0.000000, 0.000000, 0.000000, 24595.000000, 259.487183, 4.000000, 4.000000, 4.000000, 4.000000, 4.000000, 4.000000, 4.000000, 4.000000, 4.000000, 4.000000, 4.000000, 4.000000, 4.000000, 4.000000, 4.000000, 4.000000
30.000000, 0.000000, 4317.948730, 4231.794922, 4309.230469, 4322.563965, 4343.589844, 4352.307617, 4332.820313, 4371.794922, 4204.102539, 4329.230469, 4332.307617, 4354.871582, 4338.974121, 4319.487305, 0.000000, 8200.000000, 7773.000000, 0.000000, 0.000000, 0.000000, 24595.000000, 267.179474, 4.000000, 4.000000, 4.000000, 4.000000, 4.000000, 4.000000, 4.000000, 4.000000, 4.000000, 4.000000, 4.000000, 4.000000, 4.000000, 4.000000, 4.000000, 4.000000
31.000000, 0.000000, 4311.281738, 4232.820313, 4305.641113, 4315.897461, 4339.487305, 4347.692383, 4328.205078, 4350.256348, 4202.051270, 4323.076660, 4327.179199, 4348.717773, 4334.358887, 4311.794922, 0.000000, 8206.000000, 7810.000000, 0.000000, 0.000000, 0.000000, 24595.000000, 275.384613, 4.000000, 4.000000, 4.000000, 4.000000, 4.000000, 4.000000, 4.000000, 4.000000, 4.000000, 4.000000, 4.000000, 4.000000, 4.000000, 4.000000, 4.000000, 4.000000
32.000000, 0.000000, 4303.076660, 4226.153809, 4302.051270, 4311.281738, 4327.692383, 4333.333008, 4305.127930, 4329.743652, 4196.410156, 4312.307617, 4316.922852, 4341.538574, 4325.127930, 4306.666504, 0.000000, 8206.000000, 7810.000000, 0.000000, 0.000000, 0.000000, 24595.000000, 283.076904, 4.000000, 4.000000, 4.000000, 4.000000, 4.000000, 4.000000, 4.000000, 4.000000, 4.000000, 4.000000, 4.000000, 4.000000, 4.000000, 4.000000, 4.000000, 4.000000
33.000000, 0.000000, 4280.512695, 4211.794922, 4283.589844, 4288.205078, 4299.487305, 4302.563965, 4277.948730, 4313.333008, 4191.794922, 4295.897461, 4292.820313, 4322.563965, 4303.076660, 4284.615234, 0.000000, 8244.000000, 7902.000000, 0.000000, 0.000000, 0.000000, 24595.000000, 290.769226, 4.000000, 4.000000, 4.000000, 4.000000, 4.000000, 4.000000, 4.000000, 4.000000, 4.000000, 4.000000, 4.000000, 4.000000, 4.000000, 4.000000, 4.000000, 4.000000
34.000000, 0.000000, 4259.487305, 4203.589844, 4266.666504, 4263.589844, 4274.871582, 4274.871582, 4261.025391, 4300.000000, 4193.333008, 4280.000000, 4275.897461, 4304.615234, 4285.641113, 4264.102539, 0.000000, 8244.000000, 7902.000000, 0.000000, 0.000000, 0.000000, 24595.000000, 298.974365, 4.000000, 4.000000, 4.000000, 4.000000, 4.000000, 4.000000, 4.000000, 4.000000, 4.000000, 4.000000, 4.000000, 4.000000, 4.000000, 4.000000, 4.000000, 4.000000
35.000000, 0.000000, 4241.025391, 4187.692383, 4256.410156, 4248.717773, 4257.436035, 4258.461426, 4249.230469, 4286.153809, 4190.769043, 4264.615234, 4264.615234, 4288.205078, 4268.717773, 4249.230469, 0.000000, 8265.000000, 7955.000000, 0.000000, 0.000000, 0.000000, 24595.000000, 306.666656, 4.000000, 4.000000, 4.000000, 4.000000, 4.000000, 4.000000, 4.000000, 4.000000, 4.000000, 4.000000, 4.000000, 4.000000, 4.000000, 4.000000, 4.000000, 4.000000
36.000000, 0.000000, 4217.436035, 4172.307617, 4241.025391, 4230.769043, 4236.922852, 4241.025391, 4235.384277, 4265.127930, 4185.127930, 4248.717773, 4242.051270, 4267.692383, 4246.666504, 4224.102539, 0.000000, 8265.000000, 7955.000000, 0.000000, 0.000000, 0.000000, 24595.000000, 314.358978, 4.000000, 4.000000, 4.000000, 4.000000, 4.000000, 4.000000, 4.000000, 4.000000, 4.000000, 4.000000, 4.000000, 4.000000, 4.000000, 4.000000, 4.000000, 4.000000
37.000000, 0.000000, 4196.922852, 4168.717773, 4223.589844, 4211.794922, 4217.948730, 4220.000000, 4216.922852, 4243.589844, 4186.666504, 4234.358887, 4217.436035, 4245.127930, 4228.205078, 4197.436035, 0.000000, 8289.000000, 8004.000000, 0.000000, 0.000000, 0.000000, 24595.000000, 322.564087, 4.000000, 4.000000, 4.000000, 4.000000, 4.000000, 4.000000, 4.000000, 4.000000, 4.000000, 4.000000, 4.000000, 4.000000, 4.000000, 4.000000, 4.000000, 4.000000
38.000000, 0.000000, 4178.974121, 4161.538574, 4205.641113, 4193.846191, 4201.538574, 4204.102539, 4202.563965, 4231.281738, 4187.692383, 4217.436035, 4196.922852, 4219.487305, 4205.641113, 4177.436035, 0.000000, 8289.000000, 8004.000000, 0.000000, 0.000000, 0.000000, 24595.000000, 330.256409, 4.000000, 4.000000, 4.000000, 4.000000, 4.000000, 4.000000, 4.000000, 4.000000, 4.000000, 4.000000, 4.000000, 4.000000, 4.000000, 4.000000, 4.000000, 4.000000
39.000000, 0.000000, 4164.615234, 4151.794922, 4192.820313, 4177.436035, 4188.205078, 4195.897461, 4200.000000, 4217.948730, 4184.102539, 4202.051270, 4178.461426, 4200.000000, 4183.589844, 4161.538574, 0.000000, 8339.000000, 8074.000000, 0.000000, 0.000000, 0.000000, 24595.000000, 338.461517, 4.000000, 4.000000, 4.000000, 4.000000, 4.000000, 4.000000, 4.000000, 4.000000, 4.000000, 4.000000, 4.000000, 4.000000, 4.000000, 4.000000, 4.000000, 4.000000
40.000000, 0.000000, 4160.512695, 4149.743652, 4188.717773, 4170.769043, 4184.102539, 4190.256348, 4191.281738, 4195.897461, 4184.615234, 4201.538574, 4171.794922, 4196.922852, 4178.461426, 4155.897461, 0.000000, 8339.000000, 8074.000000, 0.000000, 0.000000, 0.000000, 24595.000000, 346.153839, 4.000000, 4.000000, 4.000000, 4.000000, 4.000000, 4.000000, 4.000000, 4.000000, 4.000000, 4.000000, 4.000000, 4.000000, 4.000000, 4.000000, 4.000000, 4.000000
41.000000, 0.000000, 4154.871582, 4150.769043, 4186.153809, 4166.153809, 4175.384277, 4175.384277, 4173.846191, 4185.127930, 4185.641113, 4200.512695, 4167.692383, 4193.846191, 4172.820313, 4148.717773, 0.000000, 8360.000000, 8098.000000, 0.000000, 0.000000, 0.000000, 24595.000000, 353.846130, 4.000000, 4.000000, 4.000000, 4.000000, 4.000000, 4.000000, 4.000000, 4.000000, 4.000000, 4.000000, 4.000000, 4.000000, 4.000000, 4.000000, 4.000000, 4.000000
42.000000, 0.000000, 4137.436035, 4140.512695, 4175.384277, 4148.205078, 4152.820313, 4157.948730, 4163.076660, 4185.127930, 4186.153809, 4182.051270, 4149.743652, 4179.487305, 4150.769043, 4129.230469, 0.000000, 8360.000000, 8098.000000, 0.000000, 0.000000, 0.000000, 24595.000000, 362.051270, 4.000000, 4.000000, 4.000000, 4.000000, 4.000000, 4.000000, 4.000000, 4.000000, 4.000000, 4.000000, 4.000000, 4.000000, 4.000000, 4.000000, 4.000000, 4.000000
43.000000, 0.000000, 4122.051270, 4126.153809, 4165.127930, 4130.256348, 4137.948730, 4152.820313, 4165.127930, 4184.102539, 4187.692383, 4169.230469, 4137.436035, 4171.281738, 4138.461426, 4118.974121, 0.000000, 8388.000000, 8127.000000, 0.000000, 0.000000, 0.000000, 24595.000000, 369.743591, 4.000000, 4.000000, 4.000000, 4.000000, 4.000000, 4.000000, 4.000000, 4.000000, 4.000000, 4.000000, 4.000000, 4.000000, 4.000000, 4.000000, 4.000000, 4.000000
44.000000, 0.000000, 4120.512695, 4130.256348, 4161.538574, 4126.666504, 4137.436035, 4148.717773, 4164.102539, 4178.461426, 4186.666504, 4172.307617, 4139.487305, 4166.666504, 4144.102539, 4122.051270, 0.000000, 8388.000000, 8127.000000, 0.000000, 0.000000, 0.000000, 24595.000000, 377.948700, 4.000000, 4.000000, 4.000000, 4.000000, 4.000000, 4.000000, 4.000000, 4.000000, 4.000000, 4.000000, 4.000000, 4.000000, 4.000000, 4.000000, 4.000000, 4.000000
45.000000, 0.000000, 4125.127930, 4142.051270, 4157.948730, 4128.205078, 4133.846191, 4136.410156, 4147.179199, 4162.051270, 4184.615234, 4167.692383, 4135.384277, 4155.897461, 4149.230469, 4117.436035, 0.000000, 8394.000000, 8136.000000, 0.000000, 0.000000, 0.000000, 24595.000000, 385.641022, 4.000000, 4.000000, 4.000000, 4.000000, 4.000000, 4.000000, 4.000000, 4.000000, 4.000000, 4.000000, 4.000000, 4.000000, 4.000000, 4.000000, 4.000000, 4.000000
46.000000, 0.000000, 4120.512695, 4142.563965, 4151.794922, 4123.589844, 4122.051270, 4123.076660, 4126.153809, 4146.153809, 4185.641113, 4155.897461, 4124.615234, 4149.743652, 4141.025391, 4107.692383, 0.000000, 8394.000000, 8136.000000, 0.000000, 0.000000, 0.000000, 24595.000000, 393.333313, 4.000000, 4.000000, 4.000000, 4.000000, 4.000000, 4.000000, 4.000000, 4.000000, 4.000000, 4.000000, 4.000000, 4.000000, 4.000000, 4.000000, 4.000000, 4.000000
47.000000, 0.000000, 4111.794922, 4140.512695, 4147.692383, 4119.487305, 4113.846191, 4113.846191, 4120.512695, 4138.974121, 4187.179199, 4152.307617, 4118.461426, 4146.666504, 4127.179199, 4103.076660, 0.000000, 8390.000000, 8144.000000, 0.000000, 0.000000, 0.000000, 24595.000000, 401.538452, 4.000000, 4.000000, 4.000000, 4.000000, 4.000000, 4.000000, 4.000000, 4.000000, 4.000000, 4.000000, 4.000000, 4.000000, 4.000000, 4.000000, 4.000000, 4.000000
48.000000, 0.000000, 4107.692383, 4141.025391, 4144.615234, 4112.307617, 4107.179199, 4108.717773, 4126.153809, 4137.948730, 4187.179199, 4147.692383, 4111.794922, 4141.025391, 4116.410156, 4092.820313, 0.000000, 8390.000000, 8144.000000, 0.000000, 0.000000, 0.000000, 24595.000000, 409.743591, 4.000000, 4.000000, 4.000000, 4.000000, 4.000000, 4.000000, 4.000000, 4.000000, 4.000000, 4.000000, 4.000000, 4.000000, 4.000000, 4.000000, 4.000000, 4.000000
49.000000, 0.000000, 4098.461426, 4131.794922, 4135.897461, 4097.948730, 4094.871582, 4101.538574, 4118.974121, 4137.948730, 4187.692383, 4135.897461, 4098.974121, 4136.922852, 4104.615234, 4077.435791, 0.000000, 8379.000000, 8135.000000, 0.000000, 0.000000, 0.000000, 24595.000000, 417.435883, 4.000000, 4.000000, 4.000000, 4.000000, 4.000000, 4.000000, 4.000000, 4.000000, 4.000000, 4.000000, 4.000000, 4.000000, 4.000000, 4.000000, 4.000000, 4.000000
50.000000, 0.000000, 4084.615234, 4120.512695, 4123.589844, 4087.692139, 4083.589600, 4092.307617, 4108.205078, 4131.281738, 4186.666504, 4127.179199, 4090.256348, 4132.820313, 4094.871582, 4068.717773, 0.000000, 8379.000000, 8135.000000, 0.000000, 0.000000, 0.000000, 24595.000000, 425.128204, 4.000000, 4.000000, 4.000000, 4.000000, 4.000000, 4.000000, 4.000000, 4.000000, 4.000000, 4.000000, 4.000000, 4.000000, 4.000000, 4.000000, 4.000000, 4.000000
51.000000, 0.000000, 4075.384521, 4119.487305, 4114.871582, 4083.589600, 4077.948730, 4083.076904, 4103.589844, 4118.461426, 4184.615234, 4118.974121, 4084.615234, 4124.615234, 4087.179443, 4063.589600, 0.000000, 8361.000000, 8120.000000, 0.000000, 0.000000, 0.000000, 24595.000000, 433.333313, 4.000000, 4.000000, 4.000000, 4.000000, 4.000000, 4.000000, 4.000000, 4.000000, 4.000000, 4.000000, 4.000000, 4.000000, 4.000000, 4.000000, 4.000000, 4.000000
52.000000, 0.000000, 4072.820313, 4121.025391, 4114.871582, 4077.435791, 4076.410156, 4076.923096, 4094.358887, 4107.692383, 4184.615234, 4109.743652, 4076.410156, 4113.333008, 4080.512695, 4054.871582, 0.000000, 8361.000000, 8120.000000, 0.000000, 0.000000, 0.000000, 24595.000000, 441.538452, 4.000000, 4.000000, 4.000000, 4.000000, 4.000000, 4.000000, 4.000000, 4.000000, 4.000000, 4.000000, 4.000000, 4.000000, 4.000000, 4.000000, 4.000000, 4.000000
53.000000, 0.000000, 4074.358887, 4116.922852, 4115.897461, 4074.358887, 4075.897217, 4075.384521, 4089.743408, 4107.179199, 4186.666504, 4113.333008, 4074.358887, 4106.153809, 4082.563965, 4051.281982, 0.000000, 8312.000000, 8066.000000, 0.000000, 0.000000, 0.000000, 24595.000000, 449.230743, 4.000000, 4.000000, 4.000000, 4.000000, 4.000000, 4.000000, 4.000000, 4.000000, 4.000000, 4.000000, 4.000000, 4.000000, 4.000000, 4.000000, 4.000000, 4.000000
54.000000, 0.000000, 4076.410156, 4110.256348, 4113.846191, 4075.897217, 4070.769043, 4074.358887, 4094.358887, 4112.307617, 4188.717773, 4120.512695, 4080.000000, 4112.307617, 4088.717773, 4056.923096, 0.000000, 8312.000000, 8066.000000, 0.000000, 0.000000, 0.000000, 24595.000000, 456.923065, 4.000000, 4.000000, 4.000000, 4.000000, 4.000000, 4.000000, 4.000000, 4.000000, 4.000000, 4.000000, 4.000000, 4.000000, 4.000000, 4.000000, 4.000000, 4.000000
55.000000, 0.000000, 4074.358887, 4108.717773, 4112.820313, 4071.794678, 4062.051270, 4073.845947, 4096.410156, 4112.307617, 4188.717773, 4116.922852, 4081.538330, 4120.000000, 4088.205078, 4060.000000, 0.000000, 8278.000000, 8040.000000, 0.000000, 0.000000, 0.000000, 24595.000000, 465.128204, 4.000000, 4.000000, 4.000000, 4.000000, 4.000000, 4.000000, 4.000000, 4.000000, 4.000000, 4.000000, 4.000000, 4.000000, 4.000000, 4.000000, 4.000000, 4.000000
56.000000, 0.000000, 4069.230713, 4108.717773, 4113.846191, 4063.589600, 4060.512695, 4076.410156, 4093.845947, 4100.000000, 4187.692383, 4111.281738, 4079.487061, 4117.948730, 4087.179443, 4056.923096, 0.000000, 8278.000000, 8040.000000, 0.000000, 0.000000, 0.000000, 24595.000000, 472.820496, 4.000000, 4.000000, 4.000000, 4.000000, 4.000000, 4.000000, 4.000000, 4.000000, 4.000000, 4.000000, 4.000000, 4.000000, 4.000000, 4.000000, 4.000000, 4.000000
57.000000, 0.000000, 4064.102539, 4102.051270, 4107.692383, 4057.948730, 4058.974365, 4074.871582, 4091.281982, 4091.281982, 4187.179199, 4109.743652, 4075.384521, 4112.307617, 4086.153809, 4051.281982, 0.000000, 8216.000000, 8011.000000, 0.000000, 0.000000, 0.000000, 24595.000000, 481.025635, 4.000000, 4.000000, 4.000000, 4.000000, 4.000000, 4.000000, 4.000000, 4.000000, 4.000000, 4.000000, 4.000000, 4.000000, 4.000000, 4.000000, 4.000000, 4.000000
58.000000, 0.000000, 4060.000000, 4095.384521, 4100.000000, 4057.948730, 4054.358887, 4065.128174, 4088.717773, 4098.974121, 4186.666504, 4106.666504, 4069.230713, 4110.769043, 4080.512695, 4048.717773, 0.000000, 8216.000000, 8011.000000, 0.000000, 0.000000, 0.000000, 24595.000000, 488.717926, 4.000000, 4.000000, 4.000000, 4.000000, 4.000000, 4.000000, 4.000000, 4.000000, 4.000000, 4.000000, 4.000000, 4.000000, 4.000000, 4.000000, 4.000000, 4.000000
59.000000, 0.000000, 4060.512695, 4095.384521, 4105.127930, 4062.051270, 4055.897217, 4061.025635, 4089.743408, 4106.153809, 4187.179199, 4103.589844, 4069.230713, 4108.717773, 4079.487061, 4049.743408, 0.000000, 8192.000000, 8009.000000, 0.000000, 0.000000, 0.000000, 24595.000000, 496.410248, 4.000000, 4.000000, 4.000000, 4.000000, 4.000000, 4.000000, 4.000000, 4.000000, 4.000000, 4.000000, 4.000000, 4.000000, 4.000000, 4.000000, 4.000000, 4.000000
60.000000, 0.000000, 4064.102539, 4094.871582, 4111.281738, 4064.615234, 4062.051270, 4069.743408, 4095.897217, 4106.666504, 4190.769043, 4107.692383, 4072.820313, 4109.743652, 4083.589600, 4050.769043, 0.000000, 8192.000000, 8009.000000, 0.000000, 0.000000, 0.000000, 24595.000000, 504.102539, 4.000000, 4.000000, 4.000000, 4.000000, 4.000000, 4.000000, 4.000000, 4.000000, 4.000000, 4.000000, 4.000000, 4.000000, 4.000000, 4.000000, 4.000000, 4.000000
61.000000, 0.000000, 4060.000000, 4089.743408, 4105.641113, 4061.538330, 4063.589600, 4074.358887, 4098.461426, 4110.256348, 4190.769043, 4107.692383, 4069.743408, 4110.256348, 4078.974365, 4047.179443, 0.000000, 8163.000000, 8014.000000, 0.000000, 0.000000, 0.000000, 24595.000000, 512.307678, 4.000000, 4.000000, 4.000000, 4.000000, 4.000000, 4.000000, 4.000000, 4.000000, 4.000000, 4.000000, 4.000000, 4.000000, 4.000000, 4.000000, 4.000000, 4.000000
62.000000, 0.000000, 4046.666504, 4082.563965, 4097.436035, 4052.307617, 4056.410156, 4069.230713, 4095.384521, 4102.051270, 4186.153809, 4096.922852, 4056.923096, 4100.512695, 4067.179443, 4038.461426, 0.000000, 8163.000000, 8014.000000, 0.000000, 0.000000, 0.000000, 24595.000000, 520.512817, 4.000000, 4.000000, 4.000000, 4.000000, 4.000000, 4.000000, 4.000000, 4.000000, 4.000000, 4.000000, 4.000000, 4.000000, 4.000000, 4.000000, 4.000000, 4.000000
63.000000, 0.000000, 4037.435791, 4071.794678, 4090.769043, 4041.538330, 4044.615234, 4059.487061, 4090.256348, 4080.000000, 4184.615234, 4084.615234, 4044.102539, 4090.769043, 4060.000000, 4028.205078, 0.000000, 8108.000000, 8005.000000, 0.000000, 0.000000, 0.000000, 24595.000000, 528.205139, 4.000000, 4.000000, 4.000000, 4.000000, 4.000000, 4.000000, 4.000000, 4.000000, 4.000000, 4.000000, 4.000000, 4.000000, 4.000000, 4.000000, 4.000000, 4.000000
64.000000, 0.000000, 4034.358887, 4063.076904, 4085.128174, 4037.435791, 4041.538330, 4051.281982, 4080.000000, 4065.128174, 4186.153809, 4080.512695, 4041.025635, 4088.205078, 4058.974365, 4020.512695, 2935.000000, 8108.000000, 8005.000000, 0.000000, 0.000000, 0.000000, 24595.000000, 536.410217, 4.000000, 4.000000, 4.000000, 4.000000, 4.000000, 4.000000, 4.000000, 4.000000, 4.000000, 4.000000, 4.000000, 4.000000, 4.000000, 4.000000, 4.000000, 4.000000
65.000000, 0.000000, 4031.794678, 4062.051270, 4083.076904, 4041.538330, 4043.076904, 4050.256348, 4066.153809, 4057.948730, 4186.153809, 4077.435791, 4040.512695, 4082.563965, 4058.461426, 4021.025635, 3506.000000, 8097.000000, 8009.000000, 0.000000, 0.000000, 0.000000, 24595.000000, 544.102539, 4.000000, 4.000000, 4.000000, 4.000000, 4.000000, 4.000000, 4.000000, 4.000000, 4.000000, 4.000000, 4.000000, 4.000000, 4.000000, 4.000000, 4.000000, 4.000000
66.000000, 0.000000, 4031.794678, 4060.000000, 4084.102539, 4042.563965, 4040.512695, 4051.794678, 4068.205078, 4053.333252, 4184.615234, 4072.307617, 4035.384521, 4077.435791, 4053.333252, 4020.512695, 3512.000000, 8097.000000, 8009.000000, 0.000000, 0.000000, 0.000000, 24595.000000, 552.307678, 4.000000, 4.000000, 4.000000, 4.000000, 4.000000, 4.000000, 4.000000, 4.000000, 4.000000, 4.000000, 4.000000, 4.000000, 4.000000, 4.000000, 4.000000, 4.000000
67.000000, 0.000000, 4040.000000, 4059.487061, 4090.256348, 4042.563965, 4040.000000, 4050.769043, 4074.358887, 4058.974365, 4187.179199, 4077.948730, 4040.000000, 4085.128174, 4057.435791, 4023.589600, 2304.000000, 8091.000000, 8013.000000, 0.000000, 0.000000, 0.000000, 24595.000000, 560.000000, 4.000000, 4.000000, 4.000000, 4.000000, 4.000000, 4.000000, 4.000000, 4.000000, 4.000000, 4.000000, 4.000000, 4.000000, 4.000000, 4.000000, 4.000000, 4.000000
68.000000, 0.000000, 4051.794678, 4063.589600, 4095.384521, 4048.205078, 4043.589600, 4047.179443, 4065.640869, 4069.230713, 4190.769043, 4087.179443, 4054.871582, 4095.897217, 4074.358887, 4040.512695, 3532.000000, 8091.000000, 8013.000000, 0.000000, 0.000000, 0.000000, 24595.000000, 568.205139, 4.000000, 4.000000, 4.000000, 4.000000, 4.000000, 4.000000, 4.000000, 4.000000, 4.000000, 4.000000, 4.000000, 4.000000, 4.000000, 4.000000, 4.000000, 4.000000
69.000000, 0.000000, 4047.692139, 4057.948730, 4092.307617, 4044.615234, 4037.435791, 4046.666504, 4064.615234, 4066.666504, 4190.769043, 4080.000000, 4047.179443, 4092.307617, 4064.102539, 4038.461426, 3571.000000, 8103.000000, 8010.000000, 0.000000, 0.000000, 0.000000, 24595.000000, 576.410217, 4.000000, 4.000000, 4.000000, 4.000000, 4.000000, 4.000000, 4.000000, 4.000000, 4.000000, 4.000000, 4.000000, 4.000000, 4.000000, 4.000000, 4.000000, 4.000000
70.000000, 0.000000, 4037.948730, 4045.128174, 4088.717773, 4036.923096, 4031.794678, 4047.692139, 4073.845947, 4056.410156, 4187.179199, 4069.230713, 4031.794678, 4089.743408, 4042.051270, 4021.538330, 3318.000000, 8103.000000, 8010.000000, 0.000000, 0.000000, 0.000000, 24595.000000, 584.102539, 4.000000, 4.000000, 4.000000, 4.000000, 4.000000, 4.000000, 4.000000, 4.000000, 4.000000, 4.000000, 4.000000, 4.000000, 4.000000, 4.000000, 4.000000, 4.000000
71.000000, 0.000000, 4041.538330, 4044.615234, 4087.692139, 4040.512695, 4036.410156, 4044.102539, 4068.717773, 4059.487061, 4185.127930, 4077.948730, 4037.948730, 4093.845947, 4055.897217, 4026.153809, 3433.000000, 8109.000000, 8004.000000, 0.000000, 0.000000, 0.000000, 24595.000000, 592.307678, 4.000000, 4.000000, 4.000000, 4.000000, 4.000000, 4.000000, 4.000000, 4.000000, 4.000000, 4.000000, 4.000000, 4.000000, 4.000000, 4.000000, 4.000000, 4.000000
72.000000, 0.000000, 4047.692139, 4053.333252, 4091.794678, 4044.615234, 4042.051270, 4045.128174, 4062.051270, 4074.358887, 4191.281738, 4091.281982, 4049.230713, 4095.897217, 4077.435791, 4037.948730, 1058.000000, 8109.000000, 8004.000000, 0.000000, 0.000000, 0.000000, 24595.000000, 600.000000, 4.000000, 4.000000, 4.000000, 4.000000, 4.000000, 4.000000, 4.000000, 4.000000, 4.000000, 4.000000, 4.000000, 4.000000, 4.000000, 4.000000, 4.000000, 4.000000
73.000000, 0.000000, 4045.128174, 4053.333252, 4094.871582, 4045.640869, 4046.153809, 4056.923096, 4081.538330, 4090.256348, 4200.000000, 4089.743408, 4053.845947, 4095.897217, 4078.461426, 4035.897217, 3044.000000, 8124.000000, 8033.000000, 0.000000, 0.000000, 0.000000, 24595.000000, 608.205139, 4.000000, 4.000000, 4.000000, 4.000000, 4.000000, 4.000000, 4.000000, 4.000000, 4.000000, 4.000000, 4.000000, 4.000000, 4.000000, 4.000000, 4.000000, 4.000000
74.000000, 0.000000, 4041.538330, 4049.743408, 4090.256348, 4047.692139, 4051.281982, 4066.153809, 4102.051270, 4096.410156, 4201.025391, 4092.307617, 4057.948730, 4094.358887, 4083.076904, 4033.333252, 3574.000000, 8124.000000, 8033.000000, 0.000000, 0.000000, 0.000000, 24595.000000, 615.897400, 4.000000, 4.000000, 4.000000, 4.000000, 4.000000, 4.000000, 4.000000, 4.000000, 4.000000, 4.000000, 4.000000, 4.000000, 4.000000, 4.000000, 4.000000, 4.000000
75.000000, 0.000000, 4042.563965, 4051.794678, 4087.179443, 4047.179443, 4056.410156, 4061.025635, 4091.281982, 4097.436035, 4198.461426, 4104.615234, 4062.051270, 4090.769043, 4093.333252, 4036.410156, 3576.000000, 8136.000000, 8041.000000, 0.000000, 0.000000, 0.000000, 24595.000000, 624.102539, 4.000000, 4.000000, 4.000000, 4.000000, 4.000000, 4.000000, 4.000000, 4.000000, 4.000000, 4.000000, 4.000000, 4.000000, 4.000000, 4.000000, 4.000000, 4.000000
76.000000, 0.000000, 4043.076904, 4051.281982, 4088.205078, 4044.615234, 4060.000000, 4056.410156, 4072.820313, 4088.717773, 4194.871582, 4105.641113, 4063.076904, 4089.230713, 4096.922852, 4038.461426, 3495.000000, 8136.000000, 8041.000000, 0.000000, 0.000000, 0.000000, 24595.000000, 631.794861, 4.000000, 4.000000, 4.000000, 4.000000, 4.000000, 4.000000, 4.000000, 4.000000, 4.000000, 4.000000, 4.000000, 4.000000, 4.000000, 4.000000, 4.000000, 4.000000
77.000000, 0.000000, 4044.615234, 4049.230713, 4092.820313, 4049.743408, 4059.487061, 4063.076904, 4076.923096, 4080.512695, 4194.871582, 4105.127930, 4069.230713, 4096.922852, 4104.102539, 4046.666504, 3424.000000, 8175.000000, 8060.000000, 0.000000, 0.000000, 0.000000, 24595.000000, 640.000000, 4.000000, 4.000000, 4.000000, 4.000000, 4.000000, 4.000000, 4.000000, 4.000000, 4.000000, 4.000000, 4.000000, 4.000000, 4.000000, 4.000000, 4.000000, 4.000000
78.000000, 0.000000, 4047.179443, 4051.281982, 4096.922852, 4054.871582, 4058.461426, 4069.743408, 4089.230713, 4091.794678, 4197.948730, 4118.461426, 4076.923096, 4106.666504, 4110.256348, 4054.871582, 3574.000000, 8175.000000, 8060.000000, 0.000000, 0.000000, 0.000000, 24595.000000, 648.205139, 4.000000, 4.000000, 4.000000, 4.000000, 4.000000, 4.000000, 4.000000, 4.000000, 4.000000, 4.000000, 4.000000, 4.000000, 4.000000, 4.000000, 4.000000, 4.000000
79.000000, 0.000000, 4053.845947, 4058.461426, 4098.974121, 4057.948730, 4066.666504, 4074.871582, 4092.307617, 4102.563965, 4199.487305, 4128.717773, 4080.000000, 4108.717773, 4108.717773, 4059.487061, 3576.000000, 8212.000000, 8095.000000, 0.000000, 0.000000, 0.000000, 24595.000000, 655.897400, 4.000000, 4.000000, 4.000000, 4.000000, 4.000000, 4.000000, 4.000000, 4.000000, 4.000000, 4.000000, 4.000000, 4.000000, 4.000000, 4.000000, 4.000000, 4.000000
80.000000, 0.000000, 4058.974365, 4064.615234, 4097.436035, 4065.128174, 4077.948730, 4087.692139, 4102.051270, 4101.538574, 4197.948730, 4129.230469, 4078.974365, 4107.692383, 4110.256348, 4060.000000, 3495.000000, 8212.000000, 8095.000000, 0.000000, 0.000000, 0.000000, 24595.000000, 664.102539, 4.000000, 4.000000, 4.000000, 4.000000, 4.000000, 4.000000, 4.000000, 4.000000, 4.000000, 4.000000, 4.000000, 4.000000, 4.000000, 4.000000, 4.000000, 4.000000
81.000000, 0.000000, 4052.820313, 4066.153809, 4091.281982, 4069.743408, 4080.000000, 4098.461426, 4115.384277, 4101.538574, 4198.974121, 4130.256348, 4075.897217, 4098.974121, 4109.230469, 4054.358887, 3424.000000, 8270.000000, 8126.000000, 0.000000, 0.000000, 0.000000, 24595.000000, 671.794861, 4.000000, 4.000000, 4.000000, 4.000000, 4.000000, 4.000000, 4.000000, 4.000000, 4.000000, 4.000000, 4.000000, 4.000000, 4.000000, 4.000000, 4.000000, 4.000000
82.000000, 0.000000, 4047.179443, 4064.615234, 4092.307617, 4068.205078, 4076.410156, 4093.333252, 4110.256348, 4112.820313, 4200.512695, 4131.281738, 4076.410156, 4089.230713, 4108.205078, 4049.230713, 3574.000000, 8270.000000, 8126.000000, 0.000000, 0.000000, 0.000000, 24595.000000, 680.000000, 4.000000, 4.000000, 4.000000, 4.000000, 4.000000, 4.000000, 4.000000, 4.000000, 4.000000, 4.000000, 4.000000, 4.000000, 4.000000, 4.000000, 4.000000, 4.000000
83.000000, 0.000000, 4053.333252, 4058.461426, 4100.512695, 4066.666504, 4075.384521, 4088.717773, 4101.025391, 4120.000000, 4199.487305, 4128.205078, 4078.461426, 4097.948730, 4109.743652, 4053.333252, 3576.000000, 8291.000000, 8132.000000, 0.000000, 0.000000, 0.000000, 24595.000000, 687.692261, 4.000000, 4.000000, 4.000000, 4.000000, 4.000000, 4.000000, 4.000000, 4.000000, 4.000000, 4.000000, 4.000000, 4.000000, 4.000000, 4.000000, 4.000000, 4.000000
84.000000, 0.000000, 4062.051270, 4057.948730, 4108.717773, 4070.256348, 4078.974365, 4090.256348, 4097.436035, 4117.436035, 4196.922852, 4128.205078, 4078.974365, 4112.307617, 4111.281738, 4061.025635, 3495.000000, 8291.000000, 8132.000000, 0.000000, 0.000000, 0.000000, 24595.000000, 695.897400, 4.000000, 4.000000, 4.000000, 4.000000, 4.000000, 4.000000, 4.000000, 4.000000, 4.000000, 4.000000, 4.000000, 4.000000, 4.000000, 4.000000, 4.000000, 4.000000
85.000000, 0.000000, 4059.487061, 4062.563965, 4112.307617, 4068.205078, 4075.897217, 4084.615234, 4091.281982, 4108.717773, 4190.769043, 4122.051270, 4074.871582, 4109.230469, 4108.717773, 4056.923096, 3424.000000, 8299.000000, 8154.000000, 0.000000, 0.000000, 0.000000, 24595.000000, 703.589722, 4.000000, 4.000000, 4.000000, 4.000000, 4.000000, 4.000000, 4.000000, 4.000000, 4.000000, 4.000000, 4.000000, 4.000000, 4.000000, 4.000000, 4.000000, 4.000000
86.000000, 0.000000, 4052.820313, 4057.948730, 4103.589844, 4061.025635, 4068.205078, 4075.384521, 4091.281982, 4094.871582, 4183.076660, 4108.717773, 4067.692139, 4105.127930, 4098.461426, 4047.692139, 3574.000000, 8299.000000, 8154.000000, 0.000000, 0.000000, 0.000000, 24595.000000, 711.794861, 4.000000, 4.000000, 4.000000, 4.000000, 4.000000, 4.000000, 4.000000, 4.000000, 4.000000, 4.000000, 4.000000, 4.000000, 4.000000, 4.000000, 4.000000, 4.000000
87.000000, 0.000000, 4048.717773, 4053.845947, 4091.281982, 4062.563965, 4069.743408, 4078.461426, 4102.051270, 4096.922852, 4184.102539, 4103.076660, 4058.974365, 4103.589844, 4084.102539, 4040.000000, 3576.000000, 8303.000000, 8177.000000, 0.000000, 0.000000, 0.000000, 24595.000000, 720.000000, 4.000000, 4.000000, 4.000000, 4.000000, 4.000000, 4.000000, 4.000000, 4.000000, 4.000000, 4.000000, 4.000000, 4.000000, 4.000000, 4.000000, 4.000000, 4.000000
88.000000, 0.000000, 4041.025635, 4056.923096, 4084.615234, 4061.025635, 4073.333252, 4089.230713, 4110.256348, 4110.769043, 4190.256348, 4102.051270, 4048.205078, 4089.230713, 4072.820313, 4027.692139, 3495.000000, 8303.000000, 8177.000000, 0.000000, 0.000000, 0.000000, 24595.000000, 727.692261, 4.000000, 4.000000, 4.000000, 4.000000, 4.000000, 4.000000, 4.000000, 4.000000, 4.000000, 4.000000, 4.000000, 4.000000, 4.000000, 4.000000, 4.000000, 4.000000
89.000000, 0.000000, 4035.384521, 4054.358887, 4078.974365, 4052.820313, 4067.179443, 4090.769043, 4108.205078, 4128.205078, 4197.436035, 4104.102539, 4044.615234, 4079.487061, 4068.717773, 4019.487061, 3424.000000, 8291.000000, 8183.000000, 0.000000, 0.000000, 0.000000, 24595.000000, 735.897400, 4.000000, 4.000000, 4.000000, 4.000000, 4.000000, 4.000000, 4.000000, 4.000000, 4.000000, 4.000000, 4.000000, 4.000000, 4.000000, 4.000000, 4.000000, 4.000000
90.000000, 0.000000, 4048.205078, 4053.333252, 4082.563965, 4057.948730, 4067.692139, 4087.179443, 4107.692383, 4138.974121, 4200.000000, 4116.410156, 4061.025635, 4094.871582, 4079.487061, 4032.820313, 3574.000000, 8291.000000, 8183.000000, 0.000000, 0.000000, 0.000000, 24595.000000, 743.589722, 4.000000, 4.000000, 4.000000, 4.000000, 4.000000, 4.000000, 4.000000, 4.000000, 4.000000, 4.000000, 4.000000, 4.000000, 4.000000, 4.000000, 4.000000, 4.000000
91.000000, 0.000000, 4061.025635, 4060.512695, 4091.281982, 4069.743408, 4073.333252, 4088.205078, 4114.871582, 4130.256348, 4199.487305, 4128.717773, 4077.948730, 4107.692383, 4096.922852, 4049.743408, 3576.000000, 8268.000000, 8205.000000, 0.000000, 0.000000, 0.000000, 24595.000000, 751.794861, 4.000000, 4.000000, 4.000000, 4.000000, 4.000000, 4.000000, 4.000000, 4.000000, 4.000000, 4.000000, 4.000000, 4.000000, 4.000000, 4.000000, 4.000000, 4.000000
92.000000, 0.000000, 4055.897217, 4066.153809, 4093.845947, 4067.179443, 4072.820313, 4090.769043, 4115.897461, 4117.436035, 4196.922852, 4122.051270, 4072.307617, 4103.076660, 4098.461426, 4046.666504, 3495.000000, 8268.000000, 8205.000000, 0.000000, 0.000000, 0.000000, 24595.000000, 759.487183, 4.000000, 4.000000, 4.000000, 4.000000, 4.000000, 4.000000, 4.000000, 4.000000, 4.000000, 4.000000, 4.000000, 4.000000, 4.000000, 4.000000, 4.000000, 4.000000
93.000000, 0.000000, 4051.281982, 4064.615234, 4089.230713, 4061.538330, 4072.307617, 4090.256348, 4102.051270, 4110.769043, 4189.743652, 4109.743652, 4059.487061, 4096.922852, 4088.205078, 4040.512695, 3424.000000, 8253.000000, 8214.000000, 0.000000, 0.000000, 0.000000, 24595.000000, 767.692261, 4.000000, 4.000000, 4.000000, 4.000000, 4.000000, 4.000000, 4.000000, 4.000000, 4.000000, 4.000000, 4.000000, 4.000000, 4.000000, 4.000000, 4.000000, 4.000000
94.000000, 0.000000, 4054.871582, 4060.000000, 4084.615234, 4062.563965, 4072.307617, 4090.256348, 4096.922852, 4108.717773, 4186.666504, 4109.743652, 4065.640869, 4099.487305, 4094.871582, 4049.230713, 3574.000000, 8253.000000, 8214.000000, 0.000000, 0.000000, 0.000000, 24595.000000, 775.384583, 4.000000, 4.000000, 4.000000, 4.000000, 4.000000, 4.000000, 4.000000, 4.000000, 4.000000, 4.000000, 4.000000, 4.000000, 4.000000, 4.000000, 4.000000, 4.000000
95.000000, 0.000000, 4050.256348, 4054.871582, 4084.102539, 4055.384521, 4063.076904, 4091.281982, 4109.230469, 4111.794922, 4190.256348, 4110.769043, 4067.179443, 4100.000000, 4094.358887, 4048.205078, 3576.000000, 8233.000000, 8226.000000, 0.000000, 0.000000, 0.000000, 24595.000000, 783.589722, 4.000000, 4.000000, 4.000000, 4.000000, 4.000000, 4.000000, 4.000000, 4.000000, 4.000000, 4.000000, 4.000000, 4.000000, 4.000000, 4.000000, 4.000000, 4.000000
96.000000, 0.000000, 4043.589600, 4049.743408, 4084.102539, 4047.692139, 4053.333252, 4085.128174, 4105.641113, 4112.820313, 4190.256348, 4102.563965, 4054.871582, 4093.845947, 4075.897217, 4033.845947, 3495.000000, 8233.000000, 8226.000000, 0.000000, 0.000000, 0.000000, 24595.000000, 791.794861, 4.000000, 4.000000, 4.000000, 4.000000, 4.000000, 4.000000, 4.000000, 4.000000, 4.000000, 4.000000, 4.000000, 4.000000, 4.000000, 4.000000, 4.000000, 4.000000
97.000000, 0.000000, 4049.743408, 4054.358887, 4086.666504, 4052.820313, 4052.820313, 4075.897217, 4089.230713, 4101.538574, 4185.127930, 4093.333252, 4050.769043, 4090.769043, 4076.410156, 4035.384521, 3424.000000, 8211.000000, 8246.000000, 0.000000, 0.000000, 0.000000, 24595.000000, 799.487183, 4.000000, 4.000000, 4.000000, 4.000000, 4.000000, 4.000000, 4.000000, 4.000000, 4.000000, 4.000000, 4.000000, 4.000000, 4.000000, 4.000000, 4.000000, 4.000000
98.000000, 0.000000, 4054.871582, 4056.923096, 4088.717773, 4060.512695, 4057.948730, 4073.845947, 4089.743408, 4090.769043, 4185.641113, 4089.743408, 4053.333252, 4091.794678, 4086.153809, 4043.589600, 3574.000000, 8211.000000, 8246.000000, 0.000000, 0.000000, 0.000000, 24595.000000, 807.179443, 4.000000, 4.000000, 4.000000, 4.000000, 4.000000, 4.000000, 4.000000, 4.000000, 4.000000, 4.000000, 4.000000, 4.000000, 4.000000, 4.000000, 4.000000, 4.000000
99.000000, 0.000000, 4051.794678, 4050.769043, 4084.102539, 4056.923096, 4060.512695, 4075.897217, 4093.845947, 4092.820313, 4188.205078, 4090.256348, 4053.845947, 4088.717773, 4075.384521, 4036.410156, 3576.000000, 8207.000000, 8235.000000, 0.000000, 0.000000, 0.000000, 24595.000000, 815.384583, 4.000000, 4.000000, 4.000000, 4.000000, 4.000000, 4.000000, 4.000000, 4.000000, 4.000000, 4.000000, 4.000000, 4.000000, 4.000000, 4.000000, 4.000000, 4.000000
100.000000, 0.000000, 4055.384521, 4050.769043, 4084.102539, 4058.974365, 4062.051270, 4078.461426, 4088.205078, 4099.487305, 4189.230469, 4091.794678, 4056.923096, 4089.230713, 4073.333252, 4035.384521, 3495.000000, 8207.000000, 8235.000000, 0.000000, 0.000000, 0.000000, 24595.000000, 823.076904, 4.000000, 4.000000, 4.000000, 4.000000, 4.000000, 4.000000, 4.000000, 4.000000, 4.000000, 4.000000, 4.000000, 4.000000, 4.000000, 4.000000, 4.000000, 4.000000
101.000000, 0.000000, 4065.128174, 4056.923096, 4091.794678, 4072.820313, 4070.256348, 4079.487061, 4088.717773, 4103.589844, 4193.333008, 4091.794678, 4061.538330, 4101.538574, 4090.769043, 4049.743408, 3424.000000, 8200.000000, 8201.000000, 0.000000, 0.000000, 0.000000, 24595.000000, 831.282043, 4.000000, 4.000000, 4.000000, 4.000000, 4.000000, 4.000000, 4.000000, 4.000000, 4.000000, 4.000000, 4.000000, 4.000000, 4.000000, 4.000000, 4.000000, 4.000000
102.000000, 0.000000, 4069.743408, 4060.000000, 4098.974121, 4076.923096, 4077.948730, 4077.948730, 4092.307617, 4101.538574, 4198.461426, 4091.281982, 4061.538330, 4111.281738, 4095.384521, 4053.333252, 3574.000000, 8200.000000, 8201.000000, 0.000000, 0.000000, 0.000000, 24595.000000, 838.974365, 4.000000, 4.000000, 4.000000, 4.000000, 4.000000, 4.000000, 4.000000, 4.000000, 4.000000, 4.000000, 4.000000, 4.000000, 4.000000, 4.000000, 4.000000, 4.000000
103.000000, 0.000000, 4071.794678, 4058.461426, 4102.051270, 4073.845947, 4072.820313, 4074.871582, 4090.256348, 4102.051270, 4198.974121, 4091.794678, 4065.640869, 4109.230469, 4089.743408, 4047.692139, 3576.000000, 8197.000000, 8193.000000, 0.000000, 0.000000, 0.000000, 24595.000000, 847.179443, 4.000000, 4.000000, 4.000000, 4.000000, 4.000000, 4.000000, 4.000000, 4.000000, 4.000000, 4.000000, 4.000000, 4.000000, 4.000000, 4.000000, 4.000000, 4.000000
104.000000, 0.000000, 4075.384521, 4059.487061, 4102.051270, 4074.871582, 4068.205078, 4075.384521, 4091.794678, 4116.410156, 4195.384277, 4096.922852, 4072.307617, 4109.743652, 4093.845947, 4051.794678, 3495.000000, 8197.000000, 8193.000000, 0.000000, 0.000000, 0.000000, 24595.000000, 854.871765, 4.000000, 4.000000, 4.000000, 4.000000, 4.000000, 4.000000, 4.000000, 4.000000, 4.000000, 4.000000, 4.000000, 4.000000, 4.000000, 4.000000, 4.000000, 4.000000
105.000000, 0.000000, 4076.923096, 4064.102539, 4104.615234, 4077.435791, 4072.820313, 4082.051270, 4101.025391, 4126.666504, 4196.922852, 4103.589844, 4073.333252, 4118.461426, 4098.974121, 4058.974365, 3424.000000, 8182.000000, 8191.000000, 0.000000, 0.000000, 0.000000, 24595.000000, 862.564087, 4.000000, 4.000000, 4.000000, 4.000000, 4.000000, 4.000000, 4.000000, 4.000000, 4.000000, 4.000000, 4.000000, 4.000000, 4.000000, 4.000000, 4.000000, 4.000000
106.000000, 0.000000, 4080.000000, 4064.615234, 4110.769043, 4078.974365, 4079.487061, 4084.615234, 4106.153809, 4118.461426, 4196.922852, 4108.205078, 4076.923096, 4123.589844, 4098.461426, 4061.025635, 3574.000000, 8182.000000, 8191.000000, 0.000000, 0.000000, 0.000000, 24595.000000, 870.769226, 4.000000, 4.000000, 4.000000, 4.000000, 4.000000, 4.000000, 4.000000, 4.000000, 4.000000, 4.000000, 4.000000, 4.000000, 4.000000, 4.000000, 4.000000, 4.000000
107.000000, 0.000000, 4080.512695, 4061.025635, 4111.794922, 4081.538330, 4083.076904, 4082.051270, 4104.615234, 4118.461426, 4191.794922, 4108.205078, 4078.461426, 4120.000000, 4092.820313, 4057.435791, 3576.000000, 8174.000000, 8196.000000, 0.000000, 0.000000, 0.000000, 24595.000000, 878.974365, 4.000000, 4.000000, 4.000000, 4.000000, 4.000000, 4.000000, 4.000000, 4.000000, 4.000000, 4.000000, 4.000000, 4.000000, 4.000000, 4.000000, 4.000000, 4.000000
108.000000, 0.000000, 4078.974365, 4063.589600, 4105.127930, 4085.640869, 4086.153809, 4084.102539, 4106.153809, 4129.230469, 4188.205078, 4101.538574, 4076.410156, 4119.487305, 4090.256348, 4055.897217, 3495.000000, 8174.000000, 8196.000000, 0.000000, 0.000000, 0.000000, 24595.000000, 886.666626, 4.000000, 4.000000, 4.000000, 4.000000, 4.000000, 4.000000, 4.000000, 4.000000, 4.000000, 4.000000, 4.000000, 4.000000, 4.000000, 4.000000, 4.000000, 4.000000
109.000000, 0.000000, 4083.589600, 4069.743408, 4105.127930, 4090.769043, 4091.794678, 4091.794678, 4108.717773, 4120.512695, 4187.179199, 4093.845947, 4076.923096, 4122.051270, 4093.333252, 4058.974365, 3424.000000, 8170.000000, 8206.000000, 0.000000, 0.000000, 0.000000, 24595.000000, 894.871765, 4.000000, 4.000000, 4.000000, 4.000000, 4.000000, 4.000000, 4.000000, 4.000000, 4.000000, 4.000000, 4.000000, 4.000000, 4.000000, 4.000000, 4.000000, 4.000000
110.000000, 0.000000, 4091.281982, 4070.256348, 4111.281738, 4092.820313, 4100.512695, 4095.897217, 4105.641113, 4113.333008, 4189.743652, 4095.897217, 4081.538330, 4121.538574, 4092.307617, 4064.102539, 3574.000000, 8170.000000, 8206.000000, 0.000000, 0.000000, 0.000000, 24595.000000, 902.564087, 4.000000, 4.000000, 4.000000, 4.000000, 4.000000, 4.000000, 4.000000, 4.000000, 4.000000, 4.000000, 4.000000, 4.000000, 4.000000, 4.000000, 4.000000, 4.000000
111.000000, 0.000000, 4090.769043, 4069.743408, 4107.692383, 4092.307617, 4106.666504, 4100.512695, 4105.641113, 4130.256348, 4196.922852, 4104.615234, 4084.102539, 4120.512695, 4089.230713, 4067.179443, 3576.000000, 8164.000000, 8225.000000, 0.000000, 0.000000, 0.000000, 24595.000000, 910.769226, 4.000000, 4.000000, 4.000000, 4.000000, 4.000000, 4.000000, 4.000000, 4.000000, 4.000000, 4.000000, 4.000000, 4.000000, 4.000000, 4.000000, 4.000000, 4.000000
112.000000, 0.000000, 4086.153809, 4067.179443, 4103.589844, 4092.820313, 4106.153809, 4107.692383, 4116.410156, 4137.948730, 4199.487305, 4109.230469, 4083.589600, 4123.076660, 4093.333252, 4065.640869, 3495.000000, 8164.000000, 8225.000000, 0.000000, 0.000000, 0.000000, 24595.000000, 918.461487, 4.000000, 4.000000, 4.000000, 4.000000, 4.000000, 4.000000, 4.000000, 4.000000, 4.000000, 4.000000, 4.000000, 4.000000, 4.000000, 4.000000, 4.000000, 4.000000
113.000000, 0.000000, 4086.666504, 4065.640869, 4106.153809, 4092.307617, 4105.127930, 4108.205078, 4124.102539, 4133.333008, 4190.769043, 4106.666504, 4080.512695, 4123.076660, 4093.333252, 4062.563965, 3424.000000, 8155.000000, 8236.000000, 0.000000, 0.000000, 0.000000, 24595.000000, 926.666626, 4.000000, 4.000000, 4.000000, 4.000000, 4.000000, 4.000000, 4.000000, 4.000000, 4.000000, 4.000000, 4.000000, 4.000000, 4.000000, 4.000000, 4.000000, 4.000000
114.000000, 0.000000, 4089.743408, 4069.743408, 4106.153809, 4090.256348, 4109.743652, 4105.641113, 4120.000000, 4136.922852, 4188.717773, 4107.692383, 4078.461426, 4120.000000, 4092.307617, 4063.589600, 3574.000000, 8155.000000, 8236.000000, 0.000000, 0.000000, 0.000000, 24595.000000, 934.358948, 4.000000, 4.000000, 4.000000, 4.000000, 4.000000, 4.000000, 4.000000, 4.000000, 4.000000, 4.000000, 4.000000, 4.000000, 4.000000, 4.000000, 4.000000, 4.000000
115.000000, 0.000000, 4090.769043, 4074.871582, 4108.205078, 4091.794678, 4111.281738, 4107.692383, 4119.487305, 4141.025391, 4195.384277, 4115.384277, 4086.153809, 4122.051270, 4102.563965, 4070.256348, 3576.000000, 8143.000000, 8252.000000, 0.000000, 0.000000, 0.000000, 24595.000000, 942.564087, 4.000000, 4.000000, 4.000000, 4.000000, 4.000000, 4.000000, 4.000000, 4.000000, 4.000000, 4.000000, 4.000000, 4.000000, 4.000000, 4.000000, 4.000000, 4.000000
116.000000, 0.000000, 4090.769043, 4074.358887, 4115.897461, 4094.358887, 4107.692383, 4109.743652, 4127.179199, 4149.230469, 4198.974121, 4122.051270, 4094.358887, 4129.230469, 4111.281738, 4075.897217, 3495.000000, 8143.000000, 8252.000000, 0.000000, 0.000000, 0.000000, 24595.000000, 950.256409, 4.000000, 4.000000, 4.000000, 4.000000, 4.000000, 4.000000, 4.000000, 4.000000, 4.000000, 4.000000, 4.000000, 4.000000, 4.000000, 4.000000, 4.000000, 4.000000
117.000000, 0.000000, 4092.307617, 4073.333252, 4116.922852, 4093.845947, 4105.641113, 4109.743652, 4126.666504, 4156.922852, 4196.922852, 4117.948730, 4094.358887, 4132.820313, 4109.230469, 4077.435791, 3424.000000, 8136.000000, 8262.000000, 0.000000, 0.000000, 0.000000, 24595.000000, 957.948669, 4.000000, 4.000000, 4.000000, 4.000000, 4.000000, 4.000000, 4.000000, 4.000000, 4.000000, 4.000000, 4.000000, 4.000000, 4.000000, 4.000000, 4.000000, 4.000000
118.000000, 0.000000, 4091.281982, 4074.358887, 4110.256348, 4092.307617, 4106.666504, 4105.641113, 4118.461426, 4141.025391, 4190.769043, 4110.256348, 4092.307617, 4129.743652, 4108.717773, 4073.333252, 3574.000000, 8136.000000, 8262.000000, 0.000000, 0.000000, 0.000000, 24595.000000, 966.153809, 4.000000, 4.000000, 4.000000, 4.000000, 4.000000, 4.000000, 4.000000, 4.000000, 4.000000, 4.000000, 4.000000, 4.000000, 4.000000, 4.000000, 4.000000, 4.000000
119.000000, 0.000000, 4090.256348, 4073.845947, 4106.153809, 4094.871582, 4108.717773, 4102.563965, 4114.358887, 4131.281738, 4187.692383, 4107.179199, 4093.333252, 4127.179199, 4106.153809, 4070.256348, 3576.000000, 8121.000000, 8263.000000, 0.000000, 0.000000, 0.000000, 24595.000000, 973.846130, 4.000000, 4.000000, 4.000000, 4.000000, 4.000000, 4.000000, 4.000000, 4.000000, 4.000000, 4.000000, 4.000000, 4.000000, 4.000000, 4.000000, 4.000000, 4.000000
120.000000, 0.000000, 4091.281982, 4073.845947, 4108.205078, 4092.307617, 4109.230469, 4104.615234, 4118.461426, 4144.102539, 4187.692383, 4098.461426, 4092.307617, 4127.692383, 4100.512695, 4072.307617, 3495.000000, 8121.000000, 8263.000000, 0.000000, 0.000000, 0.000000, 24595.000000, 981.538452, 4.000000, 4.000000, 4.000000, 4.000000, 4.000000, 4.000000, 4.000000, 4.000000, 4.000000, 4.000000, 4.000000, 4.000000, 4.000000, 4.000000, 4.000000, 4.000000
121.000000, 0.000000, 4090.256348, 4073.333252, 4109.743652, 4084.102539, 4106.666504, 4103.076660, 4116.922852, 4138.461426, 4189.230469, 4089.230713, 4089.743408, 4128.205078, 4102.563965, 4075.897217, 3424.000000, 8099.000000, 8267.000000, 0.000000, 0.000000, 0.000000, 24595.000000, 989.230774, 4.000000, 4.000000, 4.000000, 4.000000, 4.000000, 4.000000, 4.000000, 4.000000, 4.000000, 4.000000, 4.000000, 4.000000, 4.000000, 4.000000, 4.000000, 4.000000
122.000000, 0.000000, 4090.769043, 4076.923096, 4110.769043, 4084.615234, 4104.102539, 4095.384521, 4107.692383, 4121.025391, 4188.205078, 4090.769043, 4092.307617, 4128.205078, 4107.179199, 4076.410156, 3574.000000, 8099.000000, 8267.000000, 0.000000, 0.000000, 0.000000, 24595.000000, 997.435852, 4.000000, 4.000000, 4.000000, 4.000000, 4.000000, 4.000000, 4.000000, 4.000000, 4.000000, 4.000000, 4.000000, 4.000000, 4.000000, 4.000000, 4.000000, 4.000000
123.000000, 0.000000, 4091.794678, 4080.000000, 4114.358887, 4087.179443, 4096.410156, 4088.717773, 4102.563965, 4119.487305, 4188.205078, 4091.794678, 4090.769043, 4126.153809, 4103.589844, 4074.358887, 3576.000000, 8090.000000, 8274.000000, 0.000000, 0.000000, 0.000000, 24596.000000, 5.128205, 4.000000, 4.000000, 4.000000, 4.000000, 4.000000, 4.000000, 4.000000, 4.000000, 4.000000, 4.000000, 4.000000, 4.000000, 4.000000, 4.000000, 4.000000, 4.000000
124.000000, 0.000000, 4090.769043, 4076.410156, 4111.281738, 4085.128174, 4089.743408, 4087.179443, 4108.205078, 4126.153809, 4190.256348, 4087.692139, 4084.102539, 4122.563965, 4099.487305, 4074.358887, 3495.000000, 8090.000000, 8274.000000, 0.000000, 0.000000, 0.000000, 24596.000000, 12.820513, 4.000000, 4.000000, 4.000000, 4.000000, 4.000000, 4.000000, 4.000000, 4.000000, 4.000000, 4.000000, 4.000000, 4.000000, 4.000000, 4.000000, 4.000000, 4.000000
125.000000, 0.000000, 4091.794678, 4081.025635, 4111.281738, 4088.717773, 4096.410156, 4091.794678, 4114.358887, 4124.615234, 4191.281738, 4090.256348, 4085.128174, 4126.153809, 4100.000000, 4074.871582, 3424.000000, 8094.000000, 8285.000000, 0.000000, 0.000000, 0.000000, 24596.000000, 21.025640, 4.000000, 4.000000, 4.000000, 4.000000, 4.000000, 4.000000, 4.000000, 4.000000, 4.000000, 4.000000, 4.000000, 4.000000, 4.000000, 4.000000, 4.000000, 4.000000
126.000000, 0.000000, 4093.333252, 4087.179443, 4117.948730, 4092.820313, 4102.051270, 4091.281982, 4103.589844, 4123.589844, 4194.358887, 4096.922852, 4092.820313, 4132.820313, 4104.102539, 4075.384521, 3574.000000, 8094.000000, 8285.000000, 0.000000, 0.000000, 0.000000, 24596.000000, 28.717949, 4.000000, 4.000000, 4.000000, 4.000000, 4.000000, 4.000000, 4.000000, 4.000000, 4.000000, 4.000000, 4.000000, 4.000000, 4.000000, 4.000000, 4.000000, 4.000000
127.000000, 0.000000, 4093.333252, 4086.153809, 4117.948730, 4090.256348, 4097.948730, 4083.076904, 4088.717773, 4126.153809, 4193.846191, 4097.436035, 4095.384521, 4137.436035, 4110.256348, 4080.512695, 57.000000, 8109.000000, 8268.000000, 0.000000, 0.000000, 0.000000, 24596.000000, 36.923077, 4.000000, 4.000000, 4.000000, 4.000000, 4.000000, 4.000000, 4.000000, 4.000000, 4.000000, 4.000000, 4.000000, 4.000000, 4.000000, 4.000000, 4.000000, 4.000000
0.000000, 0.000000, 4094.871582, 4087.692139, 4116.410156, 4090.256348, 4098.461426, 4082.563965, 4092.307617, 4122.051270, 4187.692383, 4092.820313, 4088.205078, 4135.384277, 4102.051270, 4078.461426, 2938.000000, 8109.000000, 8268.000000, 0.000000, 0.000000, 0.000000, 24596.000000, 44.615383, 4.000000, 4.000000, 4.000000, 4.000000, 4.000000, 4.000000, 4.000000, 4.000000, 4.000000, 4.000000, 4.000000, 4.000000, 4.000000, 4.000000, 4.000000, 4.000000
1.000000, 0.000000, 4090.256348, 4087.692139, 4114.358887, 4092.307617, 4105.641113, 4091.794678, 4102.051270, 4112.307617, 4185.127930, 4088.717773, 4077.435791, 4125.641113, 4083.589600, 4063.076904, 3508.000000, 8127.000000, 8260.000000, 0.000000, 0.000000, 0.000000, 24596.000000, 52.820511, 4.000000, 4.000000, 4.000000, 4.000000, 4.000000, 4.000000, 4.000000, 4.000000, 4.000000, 4.000000, 4.000000, 4.000000, 4.000000, 4.000000, 4.000000, 4.000000
2.000000, 0.000000, 4084.102539, 4085.640869, 4107.179199, 4091.281982, 4110.256348, 4095.897217, 4094.871582, 4102.563965, 4188.205078, 4086.666504, 4071.794678, 4117.948730, 4081.538330, 4059.487061, 3513.000000, 8127.000000, 8260.000000, 0.000000, 0.000000, 0.000000, 24596.000000, 60.512817, 4.000000, 4.000000, 4.000000, 4.000000, 4.000000, 4.000000, 4.000000, 4.000000, 4.000000, 4.000000, 4.000000, 4.000000, 4.000000, 4.000000, 4.000000, 4.000000
3.000000, 0.000000, 4088.717773, 4090.769043, 4101.025391, 4087.692139, 4107.692383, 4088.717773, 4086.153809, 4093.333252, 4188.717773, 4086.666504, 4075.384521, 4117.948730, 4096.922852, 4072.307617, 2311.000000, 8154.000000, 8253.000000, 0.000000, 0.000000, 0.000000, 24596.000000, 68.205124, 4.000000, 4.000000, 4.000000, 4.000000, 4.000000, 4.000000, 4.000000, 4.000000, 4.000000, 4.000000, 4.000000, 4.000000, 4.000000, 4.000000, 4.000000, 4.000000
4.000000, 0.000000, 4091.794678, 4093.333252, 4100.000000, 4081.025635, 4098.974121, 4078.974365, 4088.205078, 4085.128174, 4184.615234, 4091.794678, 4083.589600, 4118.974121, 4111.794922, 4082.051270, 3532.000000, 8154.000000, 8253.000000, 0.000000, 0.000000, 0.000000, 24596.000000, 76.410255, 4.000000, 4.000000, 4.000000, 4.000000, 4.000000, 4.000000, 4.000000, 4.000000, 4.000000, 4.000000, 4.000000, 4.000000, 4.000000, 4.000000, 4.000000, 4.000000
5.000000, 0.000000, 4089.743408, 4090.256348, 4100.000000, 4078.461426, 4094.358887, 4080.512695, 4090.256348, 4093.845947, 4189.230469, 4102.051270, 4095.897217, 4127.692383, 4124.102539, 4094.871582, 3569.000000, 8160.000000, 8240.000000, 0.000000, 0.000000, 0.000000, 24596.000000, 84.615379, 4.000000, 4.000000, 4.000000, 4.000000, 4.000000, 4.000000, 4.000000, 4.000000, 4.000000, 4.000000, 4.000000, 4.000000, 4.000000, 4.000000, 4.000000, 4.000000
6.000000, 0.000000, 4097.948730, 4096.410156, 4101.025391, 4085.128174, 4101.025391, 4091.281982, 4093.845947, 4116.922852, 4196.410156, 4110.256348, 4108.717773, 4136.410156, 4142.563965, 4111.281738, 3357.000000, 8160.000000, 8240.000000, 0.000000, 0.000000, 0.000000, 24596.000000, 92.307693, 4.000000, 4.000000, 4.000000, 4.000000, 4.000000, 4.000000, 4.000000, 4.000000, 4.000000, 4.000000, 4.000000, 4.000000, 4.000000, 4.000000, 4.000000, 4.000000
7.000000, 0.000000, 4102.563965, 4102.563965, 4102.563965, 4084.615234, 4101.538574, 4092.307617, 4096.922852, 4122.051270, 4193.846191, 4111.281738, 4113.846191, 4131.281738, 4155.897461, 4115.384277, 3487.000000, 8159.000000, 8221.000000, 0.000000, 0.000000, 0.000000, 24596.000000, 100.000000, 4.000000, 4.000000, 4.000000, 4.000000, 4.000000, 4.000000, 4.000000, 4.000000, 4.000000, 4.000000, 4.000000, 4.000000, 4.000000, 4.000000, 4.000000, 4.000000
8.000000, 0.000000, 4091.794678, 4094.871582, 4103.076660, 4072.820313, 4090.769043, 4086.666504, 4094.871582, 4107.692383, 4185.641113, 4106.666504, 4111.281738, 4124.102539, 4157.436035, 4114.871582, 1061.000000, 8159.000000, 8221.000000, 0.000000, 0.000000, 0.000000, 24596.000000, 108.205124, 4.000000, 4.000000, 4.000000, 4.000000, 4.000000, 4.000000, 4.000000, 4.000000, 4.000000, 4.000000, 4.000000, 4.000000, 4.000000, 4.000000, 4.000000, 4.000000
9.000000, 0.000000, 4087.692139, 4094.871582, 4105.127930, 4074.871582, 4089.230713, 4088.717773, 4095.384521, 4104.102539, 4184.615234, 4106.153809, 4109.230469, 4127.179199, 4156.410156, 4116.922852, 3049.000000, 8154.000000, 8201.000000, 0.000000, 0.000000, 0.000000, 24596.000000, 115.897430, 4.000000, 4.000000, 4.000000, 4.000000, 4.000000, 4.000000, 4.000000, 4.000000, 4.000000, 4.000000, 4.000000, 4.000000, 4.000000, 4.000000, 4.000000, 4.000000
10.000000, 0.000000, 4092.820313, 4109.230469, 4105.641113, 4082.051270, 4091.281982, 4085.640869, 4094.358887, 4115.897461, 4189.743652, 4105.641113, 4108.717773, 4129.230469, 4150.769043, 4109.230469, 3571.000000, 8154.000000, 8201.000000, 0.000000, 0.000000, 0.000000, 24596.000000, 123.589737, 4.000000, 4.000000, 4.000000, 4.000000, 4.000000, 4.000000, 4.000000, 4.000000, 4.000000, 4.000000, 4.000000, 4.000000, 4.000000, 4.000000, 4.000000, 4.000000
11.000000, 0.000000, 4088.717773, 4106.666504, 4101.025391, 4072.820313, 4083.076904, 4076.410156, 4089.230713, 4123.076660, 4187.692383, 4101.538574, 4108.205078, 4127.179199, 4145.127930, 4102.563965, 3580.000000, 8125.000000, 8173.000000, 0.000000, 0.000000, 0.000000, 24596.000000, 131.794876, 4.000000, 4.000000, 4.000000, 4.000000, 4.000000, 4.000000, 4.000000, 4.000000, 4.000000, 4.000000, 4.000000, 4.000000, 4.000000, 4.000000, 4.000000, 4.000000
12.000000, 0.000000, 4084.102539, 4095.384521, 4105.641113, 4076.410156, 4073.845947, 4076.923096, 4091.794678, 4124.102539, 4182.563965, 4101.538574, 4106.153809, 4129.743652, 4142.051270, 4106.153809, 3522.000000, 8125.000000, 8173.000000, 0.000000, 0.000000, 0.000000, 24596.000000, 140.000000, 4.000000, 4.000000, 4.000000, 4.000000, 4.000000, 4.000000, 4.000000, 4.000000, 4.000000, 4.000000, 4.000000, 4.000000, 4.000000, 4.000000, 4.000000, 4.000000
13.000000, 0.000000, 4090.256348, 4107.179199, 4110.769043, 4088.717773, 4079.487061, 4079.487061, 4097.436035, 4122.051270, 4188.717773, 4103.076660, 4103.589844, 4131.794922, 4138.461426, 4107.179199, 3454.000000, 8098.000000, 8160.000000, 0.000000, 0.000000, 0.000000, 24596.000000, 147.692307, 4.000000, 4.000000, 4.000000, 4.000000, 4.000000, 4.000000, 4.000000, 4.000000, 4.000000, 4.000000, 4.000000, 4.000000, 4.000000, 4.000000, 4.000000, 4.000000
14.000000, 0.000000, 4092.307617, 4122.563965, 4106.153809, 4071.794678, 4088.717773, 4076.923096, 4098.974121, 4118.461426, 4199.487305, 4106.666504, 4112.820313, 4138.974121, 4143.589844, 4109.230469, 3571.000000, 8098.000000, 8160.000000, 0.000000, 0.000000, 0.000000, 24596.000000, 155.384613, 4.000000, 4.000000, 4.000000, 4.000000, 4.000000, 4.000000, 4.000000, 4.000000, 4.000000, 4.000000, 4.000000, 4.000000, 4.000000, 4.000000, 4.000000, 4.000000
15.000000, 0.000000, 4091.281982, 4121.538574, 4111.281738, 4063.589600, 4086.153809, 4077.435791, 4103.076660, 4125.127930, 4203.076660, 4116.410156, 4128.717773, 4152.820313, 4156.410156, 4120.512695, 3580.000000, 8079.000000, 8145.000000, 0.000000, 0.000000, 0.000000, 24596.000000, 163.589737, 4.000000, 4.000000, 4.000000, 4.000000, 4.000000, 4.000000, 4.000000, 4.000000, 4.000000, 4.000000, 4.000000, 4.000000, 4.000000, 4.000000, 4.000000, 4.000000
16.000000, 0.000000, 4099.487305, 4121.538574, 4123.589844, 4091.281982, 4079.487061, 4080.000000, 4100.512695, 4126.666504, 4195.384277, 4117.948730, 4128.205078, 4158.461426, 4158.461426, 4124.615234, 0.000000, 8079.000000, 8145.000000, 0.000000, 0.000000, 0.000000, 24596.000000, 171.282043, 4.000000, 4.000000, 4.000000, 4.000000, 4.000000, 4.000000, 4.000000, 4.000000, 4.000000, 4.000000, 4.000000, 4.000000, 4.000000, 4.000000, 4.000000, 4.000000
17.000000, 0.000000, 4109.743652, 4143.589844, 4126.666504, 4100.000000, 4084.615234, 4077.435791, 4090.256348, 4117.948730, 4190.256348, 4111.794922, 4123.076660, 4162.051270, 4156.410156, 4122.563965, 0.000000, 8051.000000, 8112.000000, 0.000000, 0.000000, 0.000000, 24596.000000, 178.974350, 4.000000, 4.000000, 4.000000, 4.000000, 4.000000, 4.000000, 4.000000, 4.000000, 4.000000, 4.000000, 4.000000, 4.000000, 4.000000, 4.000000, 4.000000, 4.000000
18.000000, 0.000000, 4111.794922, 4165.127930, 4125.127930, 4086.153809, 4093.333252, 4073.845947, 4086.666504, 4132.820313, 4195.384277, 4118.461426, 4134.871582, 4172.820313, 4169.743652, 4128.717773, 0.000000, 8051.000000, 8112.000000, 0.000000, 0.000000, 0.000000, 24596.000000, 186.666656, 4.000000, 4.000000, 4.000000, 4.000000, 4.000000, 4.000000, 4.000000, 4.000000, 4.000000, 4.000000, 4.000000, 4.000000, 4.000000, 4.000000, 4.000000, 4.000000
19.000000, 0.000000, 4107.179199, 4167.179199, 4124.102539, 4089.743408, 4091.794678, 4074.358887, 4091.281982, 4150.769043, 4198.461426, 4124.102539, 4141.538574, 4171.281738, 4177.436035, 4131.794922, 0.000000, 8037.000000, 8109.000000, 0.000000, 0.000000, 0.000000, 24596.000000, 194.871796, 4.000000, 4.000000, 4.000000, 4.000000, 4.000000, 4.000000, 4.000000, 4.000000, 4.000000, 4.000000, 4.000000, 4.000000, 4.000000, 4.000000, 4.000000, 4.000000
20.000000, 0.000000, 4100.512695, 4167.179199, 4123.589844, 4091.281982, 4093.333252, 4079.487061, 4101.025391, 4143.589844, 4197.436035, 4110.769043, 4125.641113, 4158.974121, 4160.000000, 4121.538574, 0.000000, 8037.000000, 8109.000000, 0.000000, 0.000000, 0.000000, 24596.000000, 202.564102, 4.000000, 4.000000, 4.000000, 4.000000, 4.000000, 4.000000, 4.000000, 4.000000, 4.000000, 4.000000, 4.000000, 4.000000, 4.000000, 4.000000, 4.000000, 4.000000
21.000000, 0.000000, 4104.102539, 4184.102539, 4129.230469, 4090.256348, 4103.076660, 4086.666504, 4113.333008, 4141.025391, 4196.410156, 4107.179199, 4119.487305, 4160.000000, 4152.307617, 4122.563965, 0.000000, 8041.000000, 8100.000000, 0.000000, 0.000000, 0.000000, 24596.000000, 210.769226, 4.000000, 4.000000, 4.000000, 4.000000, 4.000000, 4.000000, 4.000000, 4.000000, 4.000000, 4.000000, 4.000000, 4.000000, 4.000000, 4.000000, 4.000000, 4.000000
22.000000, 0.000000, 4107.692383, 4202.563965, 4129.743652, 4097.436035, 4107.179199, 4094.871582, 4124.102539, 4147.692383, 4191.281738, 4114.871582, 4126.666504, 4164.102539, 4162.563965, 4128.717773, 0.000000, 8041.000000, 8100.000000, 0.000000, 0.000000, 0.000000, 24596.000000, 218.461533, 4.000000, 4.000000, 4.000000, 4.000000, 4.000000, 4.000000, 4.000000, 4.000000, 4.000000, 4.000000, 4.000000, 4.000000, 4.000000, 4.000000, 4.000000, 4.000000
23.000000, 0.000000, 4098.974121, 4202.563965, 4122.563965, 4096.922852, 4101.538574, 4104.102539, 4129.743652, 4142.051270, 4189.230469, 4110.256348, 4124.102539, 4158.461426, 4162.051270, 4118.974121, 0.000000, 8046.000000, 8094.000000, 0.000000, 0.000000, 0.000000, 24596.000000, 226.666656, 4.000000, 4.000000, 4.000000, 4.000000, 4.000000, 4.000000, 4.000000, 4.000000, 4.000000, 4.000000, 4.000000, 4.000000, 4.000000, 4.000000, 4.000000, 4.000000
24.000000, 0.000000, 4093.845947, 4201.025391, 4122.563965, 4092.307617, 4102.563965, 4108.717773, 4127.692383, 4141.025391, 4194.358887, 4111.794922, 4119.487305, 4156.410156, 4152.820313, 4107.692383, 0.000000, 8046.000000, 8094.000000, 0.000000, 0.000000, 0.000000, 24596.000000, 234.358963, 4.000000, 4.000000, 4.000000, 4.000000, 4.000000, 4.000000, 4.000000, 4.000000, 4.000000, 4.000000, 4.000000, 4.000000, 4.000000, 4.000000, 4.000000, 4.000000
25.000000, 0.000000, 4098.461426, 4211.281738, 4128.205078, 4089.743408, 4108.205078, 4108.205078, 4116.410156, 4147.179199, 4192.820313, 4119.487305, 4120.512695, 4156.922852, 4152.820313, 4107.692383, 0.000000, 8061.000000, 8098.000000, 0.000000, 0.000000, 0.000000, 24596.000000, 242.051270, 4.000000, 4.000000, 4.000000, 4.000000, 4.000000, 4.000000, 4.000000, 4.000000, 4.000000, 4.000000, 4.000000, 4.000000, 4.000000, 4.000000, 4.000000, 4.000000
26.000000, 0.000000, 4097.948730, 4222.563965, 4129.743652, 4092.820313, 4105.127930, 4103.076660, 4107.692383, 4131.794922, 4184.615234, 4114.358887, 4114.871582, 4156.922852, 4150.256348, 4110.256348, 0.000000, 8061.000000, 8098.000000, 0.000000, 0.000000, 0.000000, 24596.000000, 249.743576, 4.000000, 4.000000, 4.000000, 4.000000, 4.000000, 4.000000, 4.000000, 4.000000, 4.000000, 4.000000, 4.000000, 4.000000, 4.000000, 4.000000, 4.000000, 4.000000
27.000000, 0.000000, 4091.794678, 4220.000000, 4124.615234, 4096.922852, 4097.436035, 4098.461426, 4106.153809, 4126.153809, 4187.692383, 4108.205078, 4104.102539, 4153.846191, 4138.974121, 4106.666504, 0.000000, 8102.000000, 8104.000000, 0.000000, 0.000000, 0.000000, 24596.000000, 257.948700, 4.000000, 4.000000, 4.000000, 4.000000, 4.000000, 4.000000, 4.000000, 4.000000, 4.000000, 4.000000, 4.000000, 4.000000, 4.000000, 4.000000, 4.000000, 4.000000
28.000000, 0.000000, 4082.051270, 4213.846191, 4118.461426, 4084.102539, 4093.333252, 4100.000000, 4106.153809, 4134.871582, 4190.769043, 4109.230469, 4102.563965, 4142.563965, 4133.846191, 4095.897217, 0.000000, 8102.000000, 8104.000000, 0.000000, 0.000000, 0.000000, 24596.000000, 265.641022, 4.000000, 4.000000, 4.000000, 4.000000, 4.000000, 4.000000, 4.000000, 4.000000, 4.000000, 4.000000, 4.000000, 4.000000, 4.000000, 4.000000, 4.000000, 4.000000
29.000000, 0.000000, 4078.461426, 4218.461426, 4117.948730, 4072.307617, 4096.410156, 4106.666504, 4113.333008, 4131.794922, 4187.179199, 4110.256348, 4107.179199, 4139.487305, 4137.948730, 4090.769043, 0.000000, 8129.000000, 8106.000000, 0.000000, 0.000000, 0.000000, 24596.000000, 273.846161, 4.000000, 4.000000, 4.000000, 4.000000, 4.000000, 4.000000, 4.000000, 4.000000, 4.000000, 4.000000, 4.000000, 4.000000, 4.000000, 4.000000, 4.000000, 4.000000
30.000000, 0.000000, 4085.640869, 4233.846191, 4120.000000, 4084.102539, 4103.076660, 4106.153809, 4121.538574, 4136.410156, 4187.692383, 4113.846191, 4108.205078, 4148.717773, 4145.127930, 4099.487305, 0.000000, 8129.000000, 8106.000000, 0.000000, 0.000000, 0.000000, 24596.000000, 281.538452, 4.000000, 4.000000, 4.000000, 4.000000, 4.000000, 4.000000, 4.000000, 4.000000, 4.000000, 4.000000, 4.000000, 4.000000, 4.000000, 4.000000, 4.000000, 4.000000
31.000000, 0.000000, 4088.717773, 4241.025391, 4116.922852, 4090.769043, 4104.615234, 4099.487305, 4117.436035, 4150.256348, 4195.897461, 4126.153809, 4107.692383, 4151.794922, 4147.692383, 4104.615234, 0.000000, 8186.000000, 8110.000000, 0.000000, 0.000000, 0.000000, 24596.000000, 289.743591, 4.000000, 4.000000, 4.000000, 4.000000, 4.000000, 4.000000, 4.000000, 4.000000, 4.000000, 4.000000, 4.000000, 4.000000, 4.000000, 4.000000, 4.000000, 4.000000
32.000000, 0.000000, 4096.922852, 4245.127930, 4121.538574, 4094.358887, 4100.512695, 4098.974121, 4112.307617, 4156.410156, 4200.512695, 4136.922852, 4118.461426, 4158.461426, 4156.410156, 4106.153809, 0.000000, 8186.000000, 8110.000000, 0.000000, 0.000000, 0.000000, 24596.000000, 297.435883, 4.000000, 4.000000, 4.000000, 4.000000, 4.000000, 4.000000, 4.000000, 4.000000, 4.000000, 4.000000, 4.000000, 4.000000, 4.000000, 4.000000, 4.000000, 4.000000
33.000000, 0.000000, 4110.769043, 4264.102539, 4134.871582, 4111.794922, 4100.512695, 4102.051270, 4114.871582, 4152.820313, 4191.281738, 4138.974121, 4133.846191, 4168.717773, 4172.820313, 4116.410156, 0.000000, 8211.000000, 8111.000000, 0.000000, 0.000000, 0.000000, 24596.000000, 305.128204, 4.000000, 4.000000, 4.000000, 4.000000, 4.000000, 4.000000, 4.000000, 4.000000, 4.000000, 4.000000, 4.000000, 4.000000, 4.000000, 4.000000, 4.000000, 4.000000
34.000000, 0.000000, 4098.974121, 4262.051270, 4124.102539, 4095.897217, 4088.717773, 4093.845947, 4112.307617, 4146.153809, 4184.615234, 4133.846191, 4127.179199, 4160.000000, 4168.717773, 4115.897461, 0.000000, 8211.000000, 8111.000000, 0.000000, 0.000000, 0.000000, 24596.000000, 312.820496, 4.000000, 4.000000, 4.000000, 4.000000, 4.000000, 4.000000, 4.000000, 4.000000, 4.000000, 4.000000, 4.000000, 4.000000, 4.000000, 4.000000, 4.000000, 4.000000
35.000000, 0.000000, 4079.487061, 4241.538574, 4109.230469, 4072.820313, 4073.333252, 4087.692139, 4110.256348, 4135.384277, 4184.615234, 4130.769043, 4115.897461, 4149.743652, 4156.410156, 4105.127930, 0.000000, 8241.000000, 8119.000000, 0.000000, 0.000000, 0.000000, 24596.000000, 321.025635, 4.000000, 4.000000, 4.000000, 4.000000, 4.000000, 4.000000, 4.000000, 4.000000, 4.000000, 4.000000, 4.000000, 4.000000, 4.000000, 4.000000, 4.000000, 4.000000
36.000000, 0.000000, 4094.871582, 4253.846191, 4123.589844, 4103.076660, 4088.717773, 4097.436035, 4115.897461, 4135.384277, 4187.692383, 4138.461426, 4129.230469, 4163.589844, 4171.281738, 4115.384277, 0.000000, 8241.000000, 8119.000000, 0.000000, 0.000000, 0.000000, 24596.000000, 328.717926, 4.000000, 4.000000, 4.000000, 4.000000, 4.000000, 4.000000, 4.000000, 4.000000, 4.000000, 4.000000, 4.000000, 4.000000, 4.000000, 4.000000, 4.000000, 4.000000
37.000000, 0.000000, 4120.000000, 4286.153809, 4140.000000, 4129.230469, 4111.794922, 4102.051270, 4119.487305, 4149.743652, 4194.358887, 4147.179199, 4146.666504, 4178.974121, 4192.820313, 4135.897461, 0.000000, 8246.000000, 8124.000000, 0.000000, 0.000000, 0.000000, 24596.000000, 336.923065, 4.000000, 4.000000, 4.000000, 4.000000, 4.000000, 4.000000, 4.000000, 4.000000, 4.000000, 4.000000, 4.000000, 4.000000, 4.000000, 4.000000, 4.000000, 4.000000
38.000000, 0.000000, 4115.897461, 4285.641113, 4135.384277, 4108.205078, 4106.153809, 4094.358887, 4122.563965, 4150.256348, 4197.948730, 4142.563965, 4142.051270, 4173.333008, 4188.205078, 4132.307617, 0.000000, 8246.000000, 8124.000000, 0.000000, 0.000000, 0.000000, 24596.000000, 344.615387, 4.000000, 4.000000, 4.000000, 4.000000, 4.000000, 4.000000, 4.000000, 4.000000, 4.000000, 4.000000, 4.000000, 4.000000, 4.000000, 4.000000, 4.000000, 4.000000
39.000000, 0.000000, 4104.102539, 4272.820313, 4125.641113, 4095.384521, 4097.948730, 4097.948730, 4120.000000, 4145.641113, 4196.922852, 4133.846191, 4132.307617, 4162.563965, 4180.000000, 4120.000000, 0.000000, 8247.000000, 8138.000000, 0.000000, 0.000000, 0.000000, 24596.000000, 352.820496, 4.000000, 4.000000, 4.000000, 4.000000, 4.000000, 4.000000, 4.000000, 4.000000, 4.000000, 4.000000, 4.000000, 4.000000, 4.000000, 4.000000, 4.000000, 4.000000
40.000000, 0.000000, 4108.205078, 4290.769043, 4126.153809, 4114.871582, 4109.743652, 4113.333008, 4111.794922, 4147.179199, 4196.410156, 4142.051270, 4138.974121, 4166.153809, 4192.307617, 4128.717773, 0.000000, 8247.000000, 8138.000000, 0.000000, 0.000000, 0.000000, 24596.000000, 360.512817, 4.000000, 4.000000, 4.000000, 4.000000, 4.000000, 4.000000, 4.000000, 4.000000, 4.000000, 4.000000, 4.000000, 4.000000, 4.000000, 4.000000, 4.000000, 4.000000
41.000000, 0.000000, 4111.794922, 4309.743652, 4130.769043, 4123.076660, 4120.512695, 4124.102539, 4115.384277, 4146.666504, 4193.846191, 4152.820313, 4143.076660, 4173.846191, 4200.512695, 4135.384277, 0.000000, 8209.000000, 8127.000000, 0.000000, 0.000000, 0.000000, 24596.000000, 368.205109, 4.000000, 4.000000, 4.000000, 4.000000, 4.000000, 4.000000, 4.000000, 4.000000, 4.000000, 4.000000, 4.000000, 4.000000, 4.000000, 4.000000, 4.000000, 4.000000
42.000000, 0.000000, 4105.127930, 4302.563965, 4127.179199, 4110.256348, 4122.563965, 4128.717773, 4123.589844, 4143.076660, 4187.692383, 4145.641113, 4138.461426, 4167.179199, 4198.461426, 4128.717773, 0.000000, 8209.000000, 8127.000000, 0.000000, 0.000000, 0.000000, 24596.000000, 375.897430, 4.000000, 4.000000, 4.000000, 4.000000, 4.000000, 4.000000, 4.000000, 4.000000, 4.000000, 4.000000, 4.000000, 4.000000, 4.000000, 4.000000, 4.000000, 4.000000
43.000000, 0.000000, 4107.179199, 4300.000000, 4126.666504, 4106.666504, 4123.076660, 4128.205078, 4118.974121, 4141.538574, 4190.769043, 4139.487305, 4144.102539, 4163.076660, 4204.102539, 4129.743652, 0.000000, 8178.000000, 8116.000000, 0.000000, 0.000000, 0.000000, 24596.000000, 384.102570, 4.000000, 4.000000, 4.000000, 4.000000, 4.000000, 4.000000, 4.000000, 4.000000, 4.000000, 4.000000, 4.000000, 4.000000, 4.000000, 4.000000, 4.000000, 4.000000
44.000000, 0.000000, 4121.538574, 4316.922852, 4138.461426, 4122.051270, 4125.127930, 4127.692383, 4117.436035, 4149.743652, 4200.512695, 4151.794922, 4156.410156, 4175.384277, 4217.948730, 4142.563965, 0.000000, 8178.000000, 8116.000000, 0.000000, 0.000000, 0.000000, 24596.000000, 391.794861, 4.000000, 4.000000, 4.000000, 4.000000, 4.000000, 4.000000, 4.000000, 4.000000, 4.000000, 4.000000, 4.000000, 4.000000, 4.000000, 4.000000, 4.000000, 4.000000
45.000000, 0.000000, 4128.717773, 4323.076660, 4145.641113, 4129.230469, 4124.615234, 4125.641113, 4124.102539, 4161.025391, 4200.512695, 4161.025391, 4162.563965, 4188.205078, 4226.153809, 4150.769043, 0.000000, 8133.000000, 8108.000000, 0.000000, 0.000000, 0.000000, 24596.000000, 399.487183, 4.000000, 4.000000, 4.000000, 4.000000, 4.000000, 4.000000, 4.000000, 4.000000, 4.000000, 4.000000, 4.000000, 4.000000, 4.000000, 4.000000, 4.000000, 4.000000
46.000000, 0.000000, 4130.769043, 4311.281738, 4145.127930, 4121.025391, 4118.461426, 4116.410156, 4119.487305, 4163.076660, 4190.256348, 4156.410156, 4168.205078, 4193.333008, 4232.820313, 4154.871582, 0.000000, 8133.000000, 8108.000000, 0.000000, 0.000000, 0.000000, 24596.000000, 407.179474, 4.000000, 4.000000, 4.000000, 4.000000, 4.000000, 4.000000, 4.000000, 4.000000, 4.000000, 4.000000, 4.000000, 4.000000, 4.000000, 4.000000, 4.000000, 4.000000
47.000000, 0.000000, 4139.487305, 4304.615234, 4150.256348, 4128.205078, 4118.974121, 4113.846191, 4114.358887, 4153.333008, 4186.153809, 4161.025391, 4175.384277, 4201.025391, 4242.563965, 4159.487305, 0.000000, 8118.000000, 8109.000000, 0.000000, 0.000000, 0.000000, 24596.000000, 415.384613, 4.000000, 4.000000, 4.000000, 4.000000, 4.000000, 4.000000, 4.000000, 4.000000, 4.000000, 4.000000, 4.000000, 4.000000, 4.000000, 4.000000, 4.000000, 4.000000
48.000000, 0.000000, 4144.102539, 4302.563965, 4153.846191, 4137.948730, 4123.076660, 4119.487305, 4118.461426, 4150.769043, 4192.307617, 4167.692383, 4169.230469, 4205.127930, 4250.256348, 4161.025391, 0.000000, 8118.000000, 8109.000000, 0.000000, 0.000000, 0.000000, 24596.000000, 423.076904, 4.000000, 4.000000, 4.000000, 4.000000, 4.000000, 4.000000, 4.000000, 4.000000, 4.000000, 4.000000, 4.000000, 4.000000, 4.000000, 4.000000, 4.000000, 4.000000
49.000000, 0.000000, 4131.281738, 4285.641113, 4141.025391, 4128.205078, 4122.051270, 4121.025391, 4120.512695, 4155.384277, 4189.743652, 4158.461426, 4155.897461, 4192.307617, 4246.153809, 4150.769043, 0.000000, 8100.000000, 8119.000000, 0.000000, 0.000000, 0.000000, 24596.000000, 430.769226, 4.000000, 4.000000, 4.000000, 4.000000, 4.000000, 4.000000, 4.000000, 4.000000, 4.000000, 4.000000, 4.000000, 4.000000, 4.000000, 4.000000, 4.000000, 4.000000
50.000000, 0.000000, 4118.461426, 4266.153809, 4133.333008, 4117.948730, 4122.051270, 4120.512695, 4123.589844, 4152.307617, 4186.153809, 4152.820313, 4150.769043, 4181.025391, 4240.000000, 4140.512695, 0.000000, 8100.000000, 8119.000000, 0.000000, 0.000000, 0.000000, 24596.000000, 438.974335, 4.000000, 4.000000, 4.000000, 4.000000, 4.000000, 4.000000, 4.000000, 4.000000, 4.000000, 4.000000, 4.000000, 4.000000, 4.000000, 4.000000, 4.000000, 4.000000
51.000000, 0.000000, 4126.666504, 4261.538574, 4143.076660, 4122.563965, 4127.692383, 4126.666504, 4137.436035, 4151.794922, 4194.358887, 4160.512695, 4154.871582, 4189.230469, 4255.384277, 4153.333008, 0.000000, 8082.000000, 8149.000000, 0.000000, 0.000000, 0.000000, 24596.000000, 446.666656, 4.000000, 4.000000, 4.000000, 4.000000, 4.000000, 4.000000, 4.000000, 4.000000, 4.000000, 4.000000, 4.000000, 4.000000, 4.000000, 4.000000, 4.000000, 4.000000
52.000000, 0.000000, 4145.127930, 4262.563965, 4150.769043, 4130.769043, 4133.333008, 4129.743652, 4140.512695, 4155.384277, 4198.461426, 4166.153809, 4165.641113, 4201.025391, 4277.436035, 4173.846191, 0.000000, 8082.000000, 8149.000000, 0.000000, 0.000000, 0.000000, 24596.000000, 454.358978, 4.000000, 4.000000, 4.000000, 4.000000, 4.000000, 4.000000, 4.000000, 4.000000, 4.000000, 4.000000, 4.000000, 4.000000, 4.000000, 4.000000, 4.000000, 4.000000
53.000000, 0.000000, 4152.307617, 4262.051270, 4154.871582, 4136.410156, 4134.358887, 4123.076660, 4126.666504, 4156.922852, 4191.794922, 4165.641113, 4170.256348, 4207.179199, 4282.563965, 4180.512695, 0.000000, 8078.000000, 8166.000000, 0.000000, 0.000000, 0.000000, 24596.000000, 462.051270, 4.000000, 4.000000, 4.000000, 4.000000, 4.000000, 4.000000, 4.000000, 4.000000, 4.000000, 4.000000, 4.000000, 4.000000, 4.000000, 4.000000, 4.000000, 4.000000
54.000000, 0.000000, 4157.436035, 4258.461426, 4165.127930, 4148.717773, 4136.410156, 4126.666504, 4125.641113, 4155.897461, 4188.205078, 4166.666504, 4171.281738, 4214.358887, 4289.743652, 4185.641113, 0.000000, 8078.000000, 8166.000000, 0.000000, 0.000000, 0.000000, 24596.000000, 470.256409, 4.000000, 4.000000, 4.000000, 4.000000, 4.000000, 4.000000, 4.000000, 4.000000, 4.000000, 4.000000, 4.000000, 4.000000, 4.000000, 4.000000, 4.000000, 4.000000
55.000000, 0.000000, 4169.743652, 4250.769043, 4170.769043, 4154.871582, 4140.512695, 4136.922852, 4137.436035, 4150.769043, 4189.230469, 4162.051270, 4173.846191, 4220.000000, 4302.563965, 4193.333008, 0.000000, 8093.000000, 8177.000000, 0.000000, 0.000000, 0.000000, 24596.000000, 477.948700, 4.000000, 4.000000, 4.000000, 4.000000, 4.000000, 4.000000, 4.000000, 4.000000, 4.000000, 4.000000, 4.000000, 4.000000, 4.000000, 4.000000, 4.000000, 4.000000
56.000000, 0.000000, 4169.230469, 4240.512695, 4160.512695, 4145.641113, 4141.025391, 4141.025391, 4138.461426, 4149.743652, 4187.179199, 4151.794922, 4165.641113, 4207.692383, 4288.205078, 4185.127930, 0.000000, 8093.000000, 8177.000000, 0.000000, 0.000000, 0.000000, 24596.000000, 486.153839, 4.000000, 4.000000, 4.000000, 4.000000, 4.000000, 4.000000, 4.000000, 4.000000, 4.000000, 4.000000, 4.000000, 4.000000, 4.000000, 4.000000, 4.000000, 4.000000
57.000000, 0.000000, 4151.794922, 4229.230469, 4147.692383, 4136.410156, 4142.563965, 4146.153809, 4138.974121, 4163.589844, 4186.153809, 4144.615234, 4148.205078, 4186.153809, 4262.051270, 4165.641113, 0.000000, 8110.000000, 8177.000000, 0.000000, 0.000000, 0.000000, 24596.000000, 493.846130, 4.000000, 4.000000, 4.000000, 4.000000, 4.000000, 4.000000, 4.000000, 4.000000, 4.000000, 4.000000, 4.000000, 4.000000, 4.000000, 4.000000, 4.000000, 4.000000
58.000000, 0.000000, 4148.717773, 4224.615234, 4151.794922, 4141.025391, 4151.281738, 4155.897461, 4154.358887, 4178.974121, 4193.846191, 4148.717773, 4147.692383, 4184.102539, 4265.127930, 4161.025391, 0.000000, 8110.000000, 8177.000000, 0.000000, 0.000000, 0.000000, 24596.000000, 502.051270, 4.000000, 4.000000, 4.000000, 4.000000, 4.000000, 4.000000, 4.000000, 4.000000, 4.000000, 4.000000, 4.000000, 4.000000, 4.000000, 4.000000, 4.000000, 4.000000
59.000000, 0.000000, 4164.102539, 4228.205078, 4163.076660, 4147.179199, 4152.307617, 4158.974121, 4163.076660, 4181.025391, 4201.025391, 4163.076660, 4163.076660, 4197.948730, 4278.974121, 4169.230469, 0.000000, 8128.000000, 8176.000000, 0.000000, 0.000000, 0.000000, 24596.000000, 509.743591, 4.000000, 4.000000, 4.000000, 4.000000, 4.000000, 4.000000, 4.000000, 4.000000, 4.000000, 4.000000, 4.000000, 4.000000, 4.000000, 4.000000, 4.000000, 4.000000
60.000000, 0.000000, 4169.743652, 4227.692383, 4162.051270, 4147.692383, 4146.153809, 4153.333008, 4156.922852, 4186.153809, 4200.000000, 4171.794922, 4168.717773, 4203.589844, 4281.538574, 4172.820313, 0.000000, 8128.000000, 8176.000000, 0.000000, 0.000000, 0.000000, 24596.000000, 517.948730, 4.000000, 4.000000, 4.000000, 4.000000, 4.000000, 4.000000, 4.000000, 4.000000, 4.000000, 4.000000, 4.000000, 4.000000, 4.000000, 4.000000, 4.000000, 4.000000
61.000000, 0.000000, 4166.666504, 4228.717773, 4162.563965, 4151.281738, 4144.615234, 4145.127930, 4152.820313, 4186.666504, 4196.922852, 4170.769043, 4169.743652, 4204.102539, 4287.179199, 4173.846191, 0.000000, 8157.000000, 8177.000000, 0.000000, 0.000000, 0.000000, 24596.000000, 526.153809, 4.000000, 4.000000, 4.000000, 4.000000, 4.000000, 4.000000, 4.000000, 4.000000, 4.000000, 4.000000, 4.000000, 4.000000, 4.000000, 4.000000, 4.000000, 4.000000
62.000000, 0.000000, 4172.307617, 4231.794922, 4171.281738, 4156.410156, 4148.205078, 4141.538574, 4152.820313, 4172.820313, 4197.436035, 4169.743652, 4171.281738, 4212.820313, 4293.333008, 4177.948730, 0.000000, 8157.000000, 8177.000000, 0.000000, 0.000000, 0.000000, 24596.000000, 533.846130, 4.000000, 4.000000, 4.000000, 4.000000, 4.000000, 4.000000, 4.000000, 4.000000, 4.000000, 4.000000, 4.000000, 4.000000, 4.000000, 4.000000, 4.000000, 4.000000
63.000000, 0.000000, 4178.974121, 4229.230469, 4175.897461, 4158.974121, 4146.666504, 4147.692383, 4154.358887, 4173.846191, 4198.974121, 4171.794922, 4168.205078, 4216.410156, 4285.127930, 4176.410156, 0.000000, 8175.000000, 8180.000000, 0.000000, 0.000000, 0.000000, 24596.000000, 542.051270, 4.000000, 4.000000, 4.000000, 4.000000, 4.000000, 4.000000, 4.000000, 4.000000, 4.000000, 4.000000, 4.000000, 4.000000, 4.000000, 4.000000, 4.000000, 4.000000
64.000000, 0.000000, 4176.922852, 4226.153809, 4172.307617, 4158.974121, 4141.538574, 4148.717773, 4156.410156, 4188.205078, 4198.461426, 4171.794922, 4167.179199, 4210.256348, 4279.487305, 4173.846191, 2933.000000, 8175.000000, 8180.000000, 0.000000, 0.000000, 0.000000, 24596.000000, 549.743591, 4.000000, 4.000000, 4.000000, 4.000000, 4.000000, 4.000000, 4.000000, 4.000000, 4.000000, 4.000000, 4.000000, 4.000000, 4.000000, 4.000000, 4.000000, 4.000000
65.000000, 0.000000, 4169.743652, 4218.461426, 4163.589844, 4150.256348, 4140.512695, 4147.179199, 4155.897461, 4185.641113, 4196.410156, 4169.230469, 4171.794922, 4205.127930, 4283.589844, 4174.871582, 3474.000000, 8193.000000, 8181.000000, 0.000000, 0.000000, 0.000000, 24596.000000, 557.948730, 4.000000, 4.000000, 4.000000, 4.000000, 4.000000, 4.000000, 4.000000, 4.000000, 4.000000, 4.000000, 4.000000, 4.000000, 4.000000, 4.000000, 4.000000, 4.000000
66.000000, 0.000000, 4165.127930, 4207.692383, 4160.000000, 4138.461426, 4142.563965, 4150.256348, 4153.846191, 4178.974121, 4195.384277, 4166.666504, 4166.153809, 4199.487305, 4278.974121, 4171.281738, 3510.000000, 8193.000000, 8181.000000, 0.000000, 0.000000, 0.000000, 24596.000000, 565.640991, 4.000000, 4.000000, 4.000000, 4.000000, 4.000000, 4.000000, 4.000000, 4.000000, 4.000000, 4.000000, 4.000000, 4.000000, 4.000000, 4.000000, 4.000000, 4.000000
67.000000, 0.000000, 4167.179199, 4203.589844, 4164.615234, 4140.000000, 4143.076660, 4146.666504, 4153.333008, 4186.153809, 4193.333008, 4168.717773, 4157.436035, 4198.974121, 4274.871582, 4169.743652, 2292.000000, 8200.000000, 8180.000000, 0.000000, 0.000000, 0.000000, 24596.000000, 573.846130, 4.000000, 4.000000, 4.000000, 4.000000, 4.000000, 4.000000, 4.000000, 4.000000, 4.000000, 4.000000, 4.000000, 4.000000, 4.000000, 4.000000, 4.000000, 4.000000
68.000000, 0.000000, 4171.281738, 4205.641113, 4166.153809, 4149.743652, 4138.974121, 4144.102539, 4153.333008, 4185.641113, 4188.205078, 4169.230469, 4161.025391, 4204.615234, 4278.974121, 4172.307617, 3530.000000, 8200.000000, 8180.000000, 0.000000, 0.000000, 0.000000, 24596.000000, 581.538452, 4.000000, 4.000000, 4.000000, 4.000000, 4.000000, 4.000000, 4.000000, 4.000000, 4.000000, 4.000000, 4.000000, 4.000000, 4.000000, 4.000000, 4.000000, 4.000000
69.000000, 0.000000, 4170.256348, 4198.974121, 4164.102539, 4152.307617, 4136.410156, 4149.230469, 4150.769043, 4179.487305, 4191.281738, 4166.666504, 4167.179199, 4206.153809, 4280.512695, 4171.281738, 3567.000000, 8209.000000, 8194.000000, 0.000000, 0.000000, 0.000000, 24596.000000, 589.743591, 4.000000, 4.000000, 4.000000, 4.000000, 4.000000, 4.000000, 4.000000, 4.000000, 4.000000, 4.000000, 4.000000, 4.000000, 4.000000, 4.000000, 4.000000, 4.000000
70.000000, 0.000000, 4166.666504, 4192.820313, 4161.538574, 4151.794922, 4141.538574, 4152.820313, 4151.794922, 4185.127930, 4201.025391, 4171.794922, 4167.179199, 4203.589844, 4278.974121, 4168.717773, 3353.000000, 8209.000000, 8194.000000, 0.000000, 0.000000, 0.000000, 24596.000000, 597.948730, 4.000000, 4.000000, 4.000000, 4.000000, 4.000000, 4.000000, 4.000000, 4.000000, 4.000000, 4.000000, 4.000000, 4.000000, 4.000000, 4.000000, 4.000000, 4.000000
71.000000, 0.000000, 4166.666504, 4195.384277, 4161.538574, 4153.846191, 4149.743652, 4154.871582, 4158.461426, 4187.692383, 4198.974121, 4176.922852, 4166.666504, 4202.051270, 4280.512695, 4165.641113, 3492.000000, 8209.000000, 8218.000000, 0.000000, 0.000000, 0.000000, 24596.000000, 605.640991, 4.000000, 4.000000, 4.000000, 4.000000, 4.000000, 4.000000, 4.000000, 4.000000, 4.000000, 4.000000, 4.000000, 4.000000, 4.000000, 4.000000, 4.000000, 4.000000
72.000000, 0.000000, 4166.666504, 4195.897461, 4159.487305, 4157.436035, 4154.871582, 4158.461426, 4157.948730, 4184.102539, 4193.333008, 4175.897461, 4169.743652, 4200.512695, 4281.025391, 4165.641113, 1064.000000, 8209.000000, 8218.000000, 0.000000, 0.000000, 0.000000, 24596.000000, 613.846130, 4.000000, 4.000000, 4.000000, 4.000000, 4.000000, 4.000000, 4.000000, 4.000000, 4.000000, 4.000000, 4.000000, 4.000000, 4.000000, 4.000000, 4.000000, 4.000000
73.000000, 0.000000, 4161.538574, 4193.846191, 4156.410156, 4156.410156, 4152.820313, 4158.974121, 4152.820313, 4184.102539, 4196.922852, 4177.948730, 4171.281738, 4198.974121, 4282.051270, 4168.717773, 3044.000000, 8203.000000, 8246.000000, 0.000000, 0.000000, 0.000000, 24596.000000, 621.538452, 4.000000, 4.000000, 4.000000, 4.000000, 4.000000, 4.000000, 4.000000, 4.000000, 4.000000, 4.000000, 4.000000, 4.000000, 4.000000, 4.000000, 4.000000, 4.000000
74.000000, 0.000000, 4156.410156, 4190.256348, 4156.922852, 4154.871582, 4152.307617, 4157.948730, 4158.974121, 4187.692383, 4200.000000, 4177.948730, 4171.794922, 4199.487305, 4282.051270, 4166.153809, 3552.000000, 8203.000000, 8246.000000, 0.000000, 0.000000, 0.000000, 24596.000000, 629.743591, 4.000000, 4.000000, 4.000000, 4.000000, 4.000000, 4.000000, 4.000000, 4.000000, 4.000000, 4.000000, 4.000000, 4.000000, 4.000000, 4.000000, 4.000000, 4.000000
75.000000, 0.000000, 4156.922852, 4187.692383, 4158.974121, 4156.410156, 4159.487305, 4160.512695, 4165.641113, 4190.256348, 4198.974121, 4173.333008, 4170.256348, 4201.025391, 4272.307617, 4160.000000, 3568.000000, 8197.000000, 8298.000000, 0.000000, 0.000000, 0.000000, 24596.000000, 637.435852, 4.000000, 4.000000, 4.000000, 4.000000, 4.000000, 4.000000, 4.000000, 4.000000, 4.000000, 4.000000, 4.000000, 4.000000, 4.000000, 4.000000, 4.000000, 4.000000
76.000000, 0.000000, 4156.410156, 4186.153809, 4159.487305, 4155.897461, 4162.051270, 4162.563965, 4156.922852, 4186.153809, 4194.358887, 4172.820313, 4166.666504, 4200.000000, 4263.589844, 4160.000000, 3516.000000, 8197.000000, 8298.000000, 0.000000, 0.000000, 0.000000, 24596.000000, 645.640991, 4.000000, 4.000000, 4.000000, 4.000000, 4.000000, 4.000000, 4.000000, 4.000000, 4.000000, 4.000000, 4.000000, 4.000000, 4.000000, 4.000000, 4.000000, 4.000000
77.000000, 0.000000, 4157.948730, 4179.487305, 4160.000000, 4153.333008, 4161.538574, 4168.717773, 4158.461426, 4180.512695, 4191.794922, 4171.794922, 4167.692383, 4200.000000, 4267.692383, 4165.127930, 3449.000000, 8208.000000, 8328.000000, 0.000000, 0.000000, 0.000000, 24596.000000, 653.333313, 4.000000, 4.000000, 4.000000, 4.000000, 4.000000, 4.000000, 4.000000, 4.000000, 4.000000, 4.000000, 4.000000, 4.000000, 4.000000, 4.000000, 4.000000, 4.000000
78.000000, 0.000000, 4166.153809, 4174.871582, 4167.179199, 4154.358887, 4166.153809, 4171.794922, 4173.333008, 4192.820313, 4200.000000, 4172.307617, 4175.897461, 4207.692383, 4276.410156, 4170.256348, 3552.000000, 8208.000000, 8328.000000, 0.000000, 0.000000, 0.000000, 24596.000000, 661.538452, 4.000000, 4.000000, 4.000000, 4.000000, 4.000000, 4.000000, 4.000000, 4.000000, 4.000000, 4.000000, 4.000000, 4.000000, 4.000000, 4.000000, 4.000000, 4.000000
79.000000, 0.000000, 4171.281738, 4171.794922, 4172.820313, 4164.102539, 4170.256348, 4167.692383, 4167.179199, 4201.025391, 4202.051270, 4179.487305, 4187.692383, 4217.948730, 4277.948730, 4174.358887, 3568.000000, 8239.000000, 8396.000000, 0.000000, 0.000000, 0.000000, 24596.000000, 669.743591, 4.000000, 4.000000, 4.000000, 4.000000, 4.000000, 4.000000, 4.000000, 4.000000, 4.000000, 4.000000, 4.000000, 4.000000, 4.000000, 4.000000, 4.000000, 4.000000
80.000000, 0.000000, 4169.743652, 4170.256348, 4170.769043, 4171.794922, 4169.743652, 4172.820313, 4159.487305, 4188.205078, 4191.794922, 4182.563965, 4184.615234, 4215.897461, 4269.230469, 4176.410156, 3516.000000, 8239.000000, 8396.000000, 0.000000, 0.000000, 0.000000, 24596.000000, 677.435852, 4.000000, 4.000000, 4.000000, 4.000000, 4.000000, 4.000000, 4.000000, 4.000000, 4.000000, 4.000000, 4.000000, 4.000000, 4.000000, 4.000000, 4.000000, 4.000000
81.000000, 0.000000, 4168.717773, 4171.794922, 4169.230469, 4170.769043, 4170.256348, 4185.641113, 4176.410156, 4187.179199, 4190.769043, 4173.333008, 4168.717773, 4204.615234, 4260.512695, 4168.205078, 3449.000000, 8253.000000, 8409.000000, 0.000000, 0.000000, 0.000000, 24596.000000, 685.640991, 4.000000, 4.000000, 4.000000, 4.000000, 4.000000, 4.000000, 4.000000, 4.000000, 4.000000, 4.000000, 4.000000, 4.000000, 4.000000, 4.000000, 4.000000, 4.000000
82.000000, 0.000000, 4166.666504, 4163.589844, 4166.153809, 4167.179199, 4171.281738, 4187.179199, 4184.102539, 4203.589844, 4201.025391, 4170.769043, 4172.307617, 4199.487305, 4263.076660, 4158.461426, 3552.000000, 8253.000000, 8409.000000, 0.000000, 0.000000, 0.000000, 24596.000000, 693.333313, 4.000000, 4.000000, 4.000000, 4.000000, 4.000000, 4.000000, 4.000000, 4.000000, 4.000000, 4.000000, 4.000000, 4.000000, 4.000000, 4.000000, 4.000000, 4.000000
83.000000, 0.000000, 4168.717773, 4156.410156, 4168.717773, 4168.717773, 4173.333008, 4183.076660, 4176.410156, 4207.179199, 4201.538574, 4182.051270, 4185.641113, 4203.589844, 4268.205078, 4163.589844, 3568.000000, 8265.000000, 8387.000000, 0.000000, 0.000000, 0.000000, 24596.000000, 701.538452, 4.000000, 4.000000, 4.000000, 4.000000, 4.000000, 4.000000, 4.000000, 4.000000, 4.000000, 4.000000, 4.000000, 4.000000, 4.000000, 4.000000, 4.000000, 4.000000
84.000000, 0.000000, 4175.384277, 4160.512695, 4174.871582, 4170.769043, 4174.871582, 4185.127930, 4180.000000, 4199.487305, 4193.846191, 4184.102539, 4175.897461, 4209.743652, 4264.615234, 4172.307617, 3516.000000, 8265.000000, 8387.000000, 0.000000, 0.000000, 0.000000, 24596.000000, 709.230774, 4.000000, 4.000000, 4.000000, 4.000000, 4.000000, 4.000000, 4.000000, 4.000000, 4.000000, 4.000000, 4.000000, 4.000000, 4.000000, 4.000000, 4.000000, 4.000000
85.000000, 0.000000, 4171.281738, 4158.461426, 4168.205078, 4165.641113, 4169.743652, 4185.127930, 4187.692383, 4196.922852, 4193.333008, 4172.820313, 4162.563965, 4208.205078, 4264.102539, 4165.127930, 3449.000000, 8253.000000, 8299.000000, 0.000000, 0.000000, 0.000000, 24596.000000, 717.435852, 4.000000, 4.000000, 4.000000, 4.000000, 4.000000, 4.000000, 4.000000, 4.000000, 4.000000, 4.000000, 4.000000, 4.000000, 4.000000, 4.000000, 4.000000, 4.000000
86.000000, 0.000000, 4174.871582, 4156.410156, 4168.717773, 4169.743652, 4176.922852, 4181.025391, 4181.025391, 4203.589844, 4199.487305, 4176.922852, 4178.461426, 4212.307617, 4281.538574, 4167.179199, 3552.000000, 8253.000000, 8299.000000, 0.000000, 0.000000, 0.000000, 24596.000000, 725.128174, 4.000000, 4.000000, 4.000000, 4.000000, 4.000000, 4.000000, 4.000000, 4.000000, 4.000000, 4.000000, 4.000000, 4.000000, 4.000000, 4.000000, 4.000000, 4.000000
87.000000, 0.000000, 4197.948730, 4172.820313, 4185.641113, 4185.641113, 4195.897461, 4190.256348, 4178.461426, 4216.410156, 4201.538574, 4195.384277, 4201.025391, 4234.358887, 4310.256348, 4191.794922, 3568.000000, 8241.000000, 8264.000000, 0.000000, 0.000000, 0.000000, 24596.000000, 733.333313, 4.000000, 4.000000, 4.000000, 4.000000, 4.000000, 4.000000, 4.000000, 4.000000, 4.000000, 4.000000, 4.000000, 4.000000, 4.000000, 4.000000, 4.000000, 4.000000
88.000000, 0.000000, 4207.692383, 4183.076660, 4191.794922, 4190.256348, 4195.897461, 4202.563965, 4194.358887, 4216.922852, 4198.974121, 4193.846191, 4204.102539, 4250.256348, 4323.589844, 4202.563965, 3516.000000, 8241.000000, 8264.000000, 0.000000, 0.000000, 0.000000, 24596.000000, 741.025635, 4.000000, 4.000000, 4.000000, 4.000000, 4.000000, 4.000000, 4.000000, 4.000000, 4.000000, 4.000000, 4.000000, 4.000000, 4.000000, 4.000000, 4.000000, 4.000000
89.000000, 0.000000, 4205.127930, 4177.436035, 4192.307617, 4187.179199, 4188.717773, 4201.538574, 4200.000000, 4212.307617, 4197.948730, 4189.743652, 4205.641113, 4248.205078, 4324.102539, 4200.512695, 3449.000000, 8219.000000, 8229.000000, 0.000000, 0.000000, 0.000000, 24596.000000, 749.230774, 4.000000, 4.000000, 4.000000, 4.000000, 4.000000, 4.000000, 4.000000, 4.000000, 4.000000, 4.000000, 4.000000, 4.000000, 4.000000, 4.000000, 4.000000, 4.000000
90.000000, 0.000000, 4214.871582, 4181.025391, 4202.563965, 4196.410156, 4197.948730, 4196.922852, 4190.256348, 4225.127930, 4200.000000, 4204.102539, 4215.897461, 4252.307617, 4338.461426, 4211.794922, 3552.000000, 8219.000000, 8229.000000, 0.000000, 0.000000, 0.000000, 24596.000000, 757.435852, 4.000000, 4.000000, 4.000000, 4.000000, 4.000000, 4.000000, 4.000000, 4.000000, 4.000000, 4.000000, 4.000000, 4.000000, 4.000000, 4.000000, 4.000000, 4.000000
91.000000, 0.000000, 4223.589844, 4191.794922, 4209.743652, 4206.153809, 4206.666504, 4200.512695, 4190.769043, 4233.333008, 4200.000000, 4208.717773, 4218.974121, 4266.666504, 4355.384277, 4221.538574, 3568.000000, 8213.000000, 8233.000000, 0.000000, 0.000000, 0.000000, 24596.000000, 765.128174, 4.000000, 4.000000, 4.000000, 4.000000, 4.000000, 4.000000, 4.000000, 4.000000, 4.000000, 4.000000, 4.000000, 4.000000, 4.000000, 4.000000, 4.000000, 4.000000
92.000000, 0.000000, 4217.436035, 4185.641113, 4206.666504, 4200.512695, 4203.589844, 4204.102539, 4203.076660, 4222.563965, 4194.871582, 4203.076660, 4213.846191, 4264.102539, 4351.281738, 4215.897461, 3516.000000, 8213.000000, 8233.000000, 0.000000, 0.000000, 0.000000, 24596.000000, 773.333313, 4.000000, 4.000000, 4.000000, 4.000000, 4.000000, 4.000000, 4.000000, 4.000000, 4.000000, 4.000000, 4.000000, 4.000000, 4.000000, 4.000000, 4.000000, 4.000000
93.000000, 0.000000, 4211.281738, 4174.358887, 4200.000000, 4196.410156, 4200.000000, 4200.000000, 4203.076660, 4214.358887, 4191.281738, 4202.563965, 4213.333008, 4250.769043, 4345.127930, 4212.307617, 3449.000000, 8208.000000, 8255.000000, 0.000000, 0.000000, 0.000000, 24596.000000, 781.025635, 4.000000, 4.000000, 4.000000, 4.000000, 4.000000, 4.000000, 4.000000, 4.000000, 4.000000, 4.000000, 4.000000, 4.000000, 4.000000, 4.000000, 4.000000, 4.000000
94.000000, 0.000000, 4213.333008, 4178.461426, 4206.666504, 4200.512695, 4200.000000, 4198.461426, 4196.410156, 4223.589844, 4196.922852, 4206.153809, 4214.358887, 4253.846191, 4354.358887, 4214.358887, 3552.000000, 8208.000000, 8255.000000, 0.000000, 0.000000, 0.000000, 24596.000000, 789.230774, 4.000000, 4.000000, 4.000000, 4.000000, 4.000000, 4.000000, 4.000000, 4.000000, 4.000000, 4.000000, 4.000000, 4.000000, 4.000000, 4.000000, 4.000000, 4.000000
95.000000, 0.000000, 4216.410156, 4180.000000, 4217.436035, 4201.538574, 4202.051270, 4201.025391, 4197.948730, 4235.897461, 4202.563965, 4214.871582, 4216.410156, 4264.102539, 4366.666504, 4214.358887, 3568.000000, 8212.000000, 8261.000000, 0.000000, 0.000000, 0.000000, 24596.000000, 796.923035, 4.000000, 4.000000, 4.000000, 4.000000, 4.000000, 4.000000, 4.000000, 4.000000, 4.000000, 4.000000, 4.000000, 4.000000, 4.000000, 4.000000, 4.000000, 4.000000
96.000000, 0.000000, 4217.948730, 4174.871582, 4220.000000, 4200.512695, 4202.051270, 4203.589844, 4202.563965, 4234.871582, 4200.000000, 4220.000000, 4227.179199, 4269.743652, 4371.281738, 4222.563965, 3516.000000, 8212.000000, 8261.000000, 0.000000, 0.000000, 0.000000, 24596.000000, 805.128174, 4.000000, 4.000000, 4.000000, 4.000000, 4.000000, 4.000000, 4.000000, 4.000000, 4.000000, 4.000000, 4.000000, 4.000000, 4.000000, 4.000000, 4.000000, 4.000000
97.000000, 0.000000, 4218.461426, 4178.461426, 4213.846191, 4200.000000, 4200.000000, 4202.051270, 4199.487305, 4221.025391, 4195.897461, 4216.410156, 4233.846191, 4271.281738, 4369.230469, 4231.281738, 3449.000000, 8215.000000, 8264.000000, 0.000000, 0.000000, 0.000000, 24596.000000, 812.820496, 4.000000, 4.000000, 4.000000, 4.000000, 4.000000, 4.000000, 4.000000, 4.000000, 4.000000, 4.000000, 4.000000, 4.000000, 4.000000, 4.000000, 4.000000, 4.000000
98.000000, 0.000000, 4215.384277, 4184.102539, 4205.641113, 4198.974121, 4198.974121, 4194.358887, 4184.615234, 4213.846191, 4196.410156, 4214.358887, 4231.281738, 4267.179199, 4371.281738, 4227.692383, 3552.000000, 8215.000000, 8264.000000, 0.000000, 0.000000, 0.000000, 24596.000000, 821.025635, 4.000000, 4.000000, 4.000000, 4.000000, 4.000000, 4.000000, 4.000000, 4.000000, 4.000000, 4.000000, 4.000000, 4.000000, 4.000000, 4.000000, 4.000000, 4.000000
99.000000, 0.000000, 4215.384277, 4182.051270, 4205.641113, 4196.410156, 4195.384277, 4192.307617, 4182.051270, 4222.563965, 4197.436035, 4212.820313, 4227.179199, 4262.563965, 4375.384277, 4222.563965, 3568.000000, 8222.000000, 8269.000000, 0.000000, 0.000000, 0.000000, 24596.000000, 829.230774, 4.000000, 4.000000, 4.000000, 4.000000, 4.000000, 4.000000, 4.000000, 4.000000, 4.000000, 4.000000, 4.000000, 4.000000, 4.000000, 4.000000, 4.000000, 4.000000
100.000000, 0.000000, 4222.051270, 4183.589844, 4207.692383, 4198.974121, 4198.461426, 4196.922852, 4196.922852, 4223.589844, 4197.948730, 4208.205078, 4227.179199, 4263.589844, 4375.384277, 4227.179199, 3516.000000, 8222.000000, 8269.000000, 0.000000, 0.000000, 0.000000, 24596.000000, 836.923035, 4.000000, 4.000000, 4.000000, 4.000000, 4.000000, 4.000000, 4.000000, 4.000000, 4.000000, 4.000000, 4.000000, 4.000000, 4.000000, 4.000000, 4.000000, 4.000000
101.000000, 0.000000, 4225.127930, 4188.717773, 4208.205078, 4208.717773, 4209.743652, 4200.000000, 4199.487305, 4217.436035, 4197.948730, 4212.820313, 4230.769043, 4266.666504, 4373.333008, 4231.281738, 3449.000000, 8220.000000, 8261.000000, 0.000000, 0.000000, 0.000000, 24596.000000, 845.128174, 4.000000, 4.000000, 4.000000, 4.000000, 4.000000, 4.000000, 4.000000, 4.000000, 4.000000, 4.000000, 4.000000, 4.000000, 4.000000, 4.000000, 4.000000, 4.000000
102.000000, 0.000000, 4222.563965, 4188.205078, 4209.230469, 4214.358887, 4215.897461, 4206.153809, 4200.512695, 4230.769043, 4197.948730, 4220.000000, 4233.333008, 4264.102539, 4371.794922, 4228.205078, 3552.000000, 8220.000000, 8261.000000, 0.000000, 0.000000, 0.000000, 24596.000000, 852.820496, 4.000000, 4.000000, 4.000000, 4.000000, 4.000000, 4.000000, 4.000000, 4.000000, 4.000000, 4.000000, 4.000000, 4.000000, 4.000000, 4.000000, 4.000000, 4.000000
103.000000, 0.000000, 4229.230469, 4194.871582, 4215.897461, 4216.922852, 4217.436035, 4215.897461, 4207.692383, 4239.487305, 4197.948730, 4222.563965, 4231.794922, 4266.153809, 4372.820313, 4230.769043, 3568.000000, 8207.000000, 8249.000000, 0.000000, 0.000000, 0.000000, 24596.000000, 861.025635, 4.000000, 4.000000, 4.000000, 4.000000, 4.000000, 4.000000, 4.000000, 4.000000, 4.000000, 4.000000, 4.000000, 4.000000, 4.000000, 4.000000, 4.000000, 4.000000
104.000000, 0.000000, 4236.410156, 4206.153809, 4223.076660, 4222.563965, 4221.025391, 4218.974121, 4207.692383, 4227.179199, 4198.461426, 4222.563965, 4232.307617, 4272.820313, 4373.846191, 4235.897461, 3516.000000, 8207.000000, 8249.000000, 0.000000, 0.000000, 0.000000, 24596.000000, 868.717957, 4.000000, 4.000000, 4.000000, 4.000000, 4.000000, 4.000000, 4.000000, 4.000000, 4.000000, 4.000000, 4.000000, 4.000000, 4.000000, 4.000000, 4.000000, 4.000000
105.000000, 0.000000, 4234.871582, 4200.000000, 4222.051270, 4229.230469, 4221.538574, 4216.410156, 4208.205078, 4233.846191, 4198.461426, 4222.051270, 4233.846191, 4276.410156, 4367.692383, 4234.358887, 3449.000000, 8197.000000, 8253.000000, 0.000000, 0.000000, 0.000000, 24596.000000, 876.923035, 4.000000, 4.000000, 4.000000, 4.000000, 4.000000, 4.000000, 4.000000, 4.000000, 4.000000, 4.000000, 4.000000, 4.000000, 4.000000, 4.000000, 4.000000, 4.000000
106.000000, 0.000000, 4233.846191, 4189.743652, 4219.487305, 4228.717773, 4220.000000, 4217.948730, 4210.256348, 4248.717773, 4196.922852, 4220.000000, 4231.794922, 4274.871582, 4361.025391, 4233.333008, 3552.000000, 8197.000000, 8253.000000, 0.000000, 0.000000, 0.000000, 24596.000000, 885.128174, 4.000000, 4.000000, 4.000000, 4.000000, 4.000000, 4.000000, 4.000000, 4.000000, 4.000000, 4.000000, 4.000000, 4.000000, 4.000000, 4.000000, 4.000000, 4.000000
107.000000, 0.000000, 4234.871582, 4193.333008, 4221.538574, 4221.538574, 4218.974121, 4218.461426, 4204.615234, 4234.358887, 4197.948730, 4217.436035, 4226.153809, 4268.205078, 4355.897461, 4235.384277, 3568.000000, 8187.000000, 8256.000000, 0.000000, 0.000000, 0.000000, 24596.000000, 892.820496, 4.000000, 4.000000, 4.000000, 4.000000, 4.000000, 4.000000, 4.000000, 4.000000, 4.000000, 4.000000, 4.000000, 4.000000, 4.000000, 4.000000, 4.000000, 4.000000
108.000000, 0.000000, 4228.717773, 4194.871582, 4221.538574, 4216.410156, 4216.410156, 4214.358887, 4199.487305, 4226.153809, 4198.461426, 4215.384277, 4222.563965, 4263.589844, 4347.692383, 4232.307617, 3516.000000, 8187.000000, 8256.000000, 0.000000, 0.000000, 0.000000, 24596.000000, 900.512817, 4.000000, 4.000000, 4.000000, 4.000000, 4.000000, 4.000000, 4.000000, 4.000000, 4.000000, 4.000000, 4.000000, 4.000000, 4.000000, 4.000000, 4.000000, 4.000000
109.000000, 0.000000, 4220.512695, 4189.743652, 4220.512695, 4213.333008, 4213.846191, 4209.230469, 4200.000000, 4230.769043, 4193.846191, 4211.281738, 4219.487305, 4263.076660, 4334.871582, 4226.666504, 3449.000000, 8168.000000, 8261.000000, 0.000000, 0.000000, 0.000000, 24596.000000, 908.717957, 4.000000, 4.000000, 4.000000, 4.000000, 4.000000, 4.000000, 4.000000, 4.000000, 4.000000, 4.000000, 4.000000, 4.000000, 4.000000, 4.000000, 4.000000, 4.000000
110.000000, 0.000000, 4221.538574, 4193.333008, 4220.512695, 4214.871582, 4213.333008, 4208.717773, 4197.436035, 4222.051270, 4191.794922, 4211.794922, 4217.948730, 4263.076660, 4325.641113, 4226.666504, 3552.000000, 8168.000000, 8261.000000, 0.000000, 0.000000, 0.000000, 24596.000000, 916.923035, 4.000000, 4.000000, 4.000000, 4.000000, 4.000000, 4.000000, 4.000000, 4.000000, 4.000000, 4.000000, 4.000000, 4.000000, 4.000000, 4.000000, 4.000000, 4.000000
111.000000, 0.000000, 4229.743652, 4202.051270, 4224.102539, 4216.922852, 4216.410156, 4213.846191, 4202.051270, 4217.948730, 4196.922852, 4216.410156, 4224.102539, 4264.102539, 4328.205078, 4229.230469, 3568.000000, 8164.000000, 8264.000000, 0.000000, 0.000000, 0.000000, 24596.000000, 924.615356, 4.000000, 4.000000, 4.000000, 4.000000, 4.000000, 4.000000, 4.000000, 4.000000, 4.000000, 4.000000, 4.000000, 4.000000, 4.000000, 4.000000, 4.000000, 4.000000
112.000000, 0.000000, 4230.769043, 4201.025391, 4226.666504, 4215.897461, 4218.461426, 4213.846191, 4205.641113, 4233.333008, 4200.512695, 4217.948730, 4231.281738, 4268.717773, 4327.692383, 4227.179199, 3516.000000, 8164.000000, 8264.000000, 0.000000, 0.000000, 0.000000, 24596.000000, 932.820496, 4.000000, 4.000000, 4.000000, 4.000000, 4.000000, 4.000000, 4.000000, 4.000000, 4.000000, 4.000000, 4.000000, 4.000000, 4.000000, 4.000000, 4.000000, 4.000000
113.000000, 0.000000, 4229.230469, 4194.358887, 4227.179199, 4220.000000, 4218.461426, 4209.743652, 4200.000000, 4249.230469, 4198.974121, 4222.051270, 4231.281738, 4272.307617, 4316.410156, 4226.153809, 3449.000000, 8169.000000, 8270.000000, 0.000000, 0.000000, 0.000000, 24596.000000, 940.512817, 4.000000, 4.000000, 4.000000, 4.000000, 4.000000, 4.000000, 4.000000, 4.000000, 4.000000, 4.000000, 4.000000, 4.000000, 4.000000, 4.000000, 4.000000, 4.000000
114.000000, 0.000000, 4239.487305, 4201.025391, 4234.358887, 4228.205078, 4223.076660, 4213.846191, 4206.153809, 4246.153809, 4200.512695, 4231.281738, 4231.281738, 4275.384277, 4314.358887, 4235.897461, 3552.000000, 8169.000000, 8270.000000, 0.000000, 0.000000, 0.000000, 24596.000000, 948.717896, 4.000000, 4.000000, 4.000000, 4.000000, 4.000000, 4.000000, 4.000000, 4.000000, 4.000000, 4.000000, 4.000000, 4.000000, 4.000000, 4.000000, 4.000000, 4.000000
115.000000, 0.000000, 4255.384277, 4212.307617, 4243.589844, 4237.436035, 4232.307617, 4225.127930, 4217.948730, 4236.922852, 4201.538574, 4234.871582, 4240.000000, 4283.589844, 4321.538574, 4248.717773, 3568.000000, 8175.000000, 8268.000000, 0.000000, 0.000000, 0.000000, 24596.000000, 956.410217, 4.000000, 4.000000, 4.000000, 4.000000, 4.000000, 4.000000, 4.000000, 4.000000, 4.000000, 4.000000, 4.000000, 4.000000, 4.000000, 4.000000, 4.000000, 4.000000
116.000000, 0.000000, 4265.127930, 4212.820313, 4245.641113, 4244.102539, 4236.410156, 4231.281738, 4217.948730, 4240.000000, 4197.948730, 4231.281738, 4248.717773, 4288.205078, 4316.922852, 4252.307617, 3516.000000, 8175.000000, 8268.000000, 0.000000, 0.000000, 0.000000, 24596.000000, 964.615356, 4.000000, 4.000000, 4.000000, 4.000000, 4.000000, 4.000000, 4.000000, 4.000000, 4.000000, 4.000000, 4.000000, 4.000000, 4.000000, 4.000000, 4.000000, 4.000000
117.000000, 0.000000, 4262.051270, 4207.692383, 4244.102539, 4241.538574, 4232.820313, 4227.179199, 4214.358887, 4247.179199, 4197.436035, 4230.256348, 4247.692383, 4284.102539, 4306.666504, 4248.205078, 3449.000000, 8191.000000, 8264.000000, 0.000000, 0.000000, 0.000000, 24596.000000, 972.307678, 4.000000, 4.000000, 4.000000, 4.000000, 4.000000, 4.000000, 4.000000, 4.000000, 4.000000, 4.000000, 4.000000, 4.000000, 4.000000, 4.000000, 4.000000, 4.000000
118.000000, 0.000000, 4253.333008, 4205.127930, 4240.000000, 4232.307617, 4234.358887, 4226.666504, 4217.436035, 4249.743652, 4200.000000, 4234.358887, 4247.179199, 4280.512695, 4307.692383, 4245.641113, 3552.000000, 8191.000000, 8264.000000, 0.000000, 0.000000, 0.000000, 24596.000000, 980.512817, 4.000000, 4.000000, 4.000000, 4.000000, 4.000000, 4.000000, 4.000000, 4.000000, 4.000000, 4.000000, 4.000000, 4.000000, 4.000000, 4.000000, 4.000000, 4.000000
119.000000, 0.000000, 4251.281738, 4208.717773, 4239.487305, 4232.307617, 4242.051270, 4231.794922, 4216.922852, 4253.333008, 4200.512695, 4237.948730, 4249.230469, 4283.076660, 4308.717773, 4248.717773, 3568.000000, 8204.000000, 8260.000000, 0.000000, 0.000000, 0.000000, 24596.000000, 988.717896, 4.000000, 4.000000, 4.000000, 4.000000, 4.000000, 4.000000, 4.000000, 4.000000, 4.000000, 4.000000, 4.000000, 4.000000, 4.000000, 4.000000, 4.000000, 4.000000
120.000000, 0.000000, 4247.692383, 4208.205078, 4236.922852, 4235.384277, 4241.538574, 4231.794922, 4212.820313, 4251.794922, 4198.461426, 4235.384277, 4245.127930, 4280.000000, 4296.410156, 4246.153809, 3516.000000, 8204.000000, 8260.000000, 0.000000, 0.000000, 0.000000, 24596.000000, 996.410217, 4.000000, 4.000000, 4.000000, 4.000000, 4.000000, 4.000000, 4.000000, 4.000000, 4.000000, 4.000000, 4.000000, 4.000000, 4.000000, 4.000000, 4.000000, 4.000000
121.000000, 0.000000, 4242.051270, 4204.102539, 4232.820313, 4232.307617, 4235.897461, 4232.820313, 4217.436035, 4247.179199, 4198.461426, 4231.281738, 4238.974121, 4273.846191, 4281.538574, 4233.333008, 3449.000000, 8219.000000, 8257.000000, 0.000000, 0.000000, 0.000000, 24597.000000, 4.615385, 4.000000, 4.000000, 4.000000, 4.000000, 4.000000, 4.000000, 4.000000, 4.000000, 4.000000, 4.000000, 4.000000, 4.000000, 4.000000, 4.000000, 4.000000, 4.000000
122.000000, 0.000000, 4244.615234, 4207.692383, 4234.871582, 4237.436035, 4233.846191, 4241.025391, 4230.769043, 4252.820313, 4198.974121, 4231.281738, 4240.512695, 4273.846191, 4275.897461, 4228.205078, 3552.000000, 8219.000000, 8257.000000, 0.000000, 0.000000, 0.000000, 24597.000000, 12.307692, 4.000000, 4.000000, 4.000000, 4.000000, 4.000000, 4.000000, 4.000000, 4.000000, 4.000000, 4.000000, 4.000000, 4.000000, 4.000000, 4.000000, 4.000000, 4.000000
123.000000, 0.000000, 4252.820313, 4213.333008, 4239.487305, 4246.153809, 4235.897461, 4239.487305, 4231.794922, 4250.769043, 4198.461426, 4233.846191, 4244.615234, 4278.974121, 4280.000000, 4240.512695, 3568.000000, 8244.000000, 8255.000000, 0.000000, 0.000000, 0.000000, 24597.000000, 20.512819, 4.000000, 4.000000, 4.000000, 4.000000, 4.000000, 4.000000, 4.000000, 4.000000, 4.000000, 4.000000, 4.000000, 4.000000, 4.000000, 4.000000, 4.000000, 4.000000
124.000000, 0.000000, 4262.051270, 4213.846191, 4248.717773, 4249.230469, 4241.025391, 4235.384277, 4219.487305, 4241.025391, 4198.461426, 4241.025391, 4251.281738, 4289.230469, 4286.153809, 4250.769043, 3516.000000, 8244.000000, 8255.000000, 0.000000, 0.000000, 0.000000, 24597.000000, 28.205128, 4.000000, 4.000000, 4.000000, 4.000000, 4.000000, 4.000000, 4.000000, 4.000000, 4.000000, 4.000000, 4.000000, 4.000000, 4.000000, 4.000000, 4.000000, 4.000000
125.000000, 0.000000, 4266.666504, 4213.333008, 4253.846191, 4248.717773, 4247.179199, 4243.076660, 4222.051270, 4247.692383, 4198.974121, 4248.205078, 4255.384277, 4296.410156, 4288.205078, 4251.281738, 3449.000000, 8252.000000, 8249.000000, 0.000000, 0.000000, 0.000000, 24597.000000, 36.410255, 4.000000, 4.000000, 4.000000, 4.000000, 4.000000, 4.000000, 4.000000, 4.000000, 4.000000, 4.000000, 4.000000, 4.000000, 4.000000, 4.000000, 4.000000, 4.000000
126.000000, 0.000000, 4265.127930, 4216.410156, 4250.256348, 4249.743652, 4248.717773, 4247.179199, 4234.871582, 4253.333008, 4199.487305, 4246.666504, 4256.410156, 4293.846191, 4284.615234, 4253.846191, 3552.000000, 8252.000000, 8249.000000, 0.000000, 0.000000, 0.000000, 24597.000000, 44.615383, 4.000000, 4.000000, 4.000000, 4.000000, 4.000000, 4.000000, 4.000000, 4.000000, 4.000000, 4.000000, 4.000000, 4.000000, 4.000000, 4.000000, 4.000000, 4.000000
