title:neutral35, recorded:23.05.18 21.29.35, timestamp started:2018-05-23T14:18:30.888274+02:00            , sampling:128, subject:Noé, labels:COUNTER INTERPOLATED AF3 F7 F3 FC5 T7 P7 O1 O2 P8 T8 FC6 F4 F8 AF4 RAW_CQ GYROX GYROY MARKER MARKER_HARDWARE SYNC TIME_STAMP_s TIME_STAMP_ms CQ_AF3 CQ_F7 CQ_F3 CQ_FC5 CQ_T7 CQ_P7 CQ_O1 CQ_O2 CQ_P8 CQ_T8 CQ_FC6 CQ_F4 CQ_F8 CQ_AF4 CQ_CMS CQ_DRL, chan:40, samples:2668, units:emotiv
19.000000, 0.000000, 4211.281738, 4218.974121, 4204.615234, 4206.666504, 4200.000000, 4194.871582, 4187.179199, 4175.897461, 4186.153809, 4220.000000, 4195.897461, 4213.333008, 4191.794922, 4198.974121, 0.000000, 8285.000000, 8134.000000, 0.000000, 0.000000, 0.000000, 25864.000000, 674.358948, 4.000000, 4.000000, 4.000000, 4.000000, 4.000000, 4.000000, 4.000000, 4.000000, 4.000000, 4.000000, 4.000000, 4.000000, 4.000000, 4.000000, 4.000000, 4.000000
20.000000, 0.000000, 4218.974121, 4233.846191, 4207.692383, 4214.358887, 4205.127930, 4201.025391, 4194.358887, 4185.641113, 4191.281738, 4225.641113, 4201.538574, 4212.307617, 4202.051270, 4207.692383, 0.000000, 8285.000000, 8134.000000, 0.000000, 0.000000, 0.000000, 25864.000000, 682.051270, 4.000000, 4.000000, 4.000000, 4.000000, 4.000000, 4.000000, 4.000000, 4.000000, 4.000000, 4.000000, 4.000000, 4.000000, 4.000000, 4.000000, 4.000000, 4.000000
21.000000, 0.000000, 4208.717773, 4220.000000, 4202.563965, 4207.179199, 4195.384277, 4197.436035, 4195.897461, 4200.000000, 4191.281738, 4219.487305, 4192.307617, 4204.102539, 4190.256348, 4199.487305, 0.000000, 8290.000000, 8130.000000, 0.000000, 0.000000, 0.000000, 25864.000000, 689.743591, 4.000000, 4.000000, 4.000000, 4.000000, 4.000000, 4.000000, 4.000000, 4.000000, 4.000000, 4.000000, 4.000000, 4.000000, 4.000000, 4.000000, 4.000000, 4.000000
22.000000, 0.000000, 4196.410156, 4195.384277, 4193.846191, 4195.897461, 4187.179199, 4197.948730, 4197.948730, 4192.820313, 4188.717773, 4214.358887, 4182.051270, 4200.000000, 4174.358887, 4186.153809, 0.000000, 8290.000000, 8130.000000, 0.000000, 0.000000, 0.000000, 25864.000000, 697.948730, 4.000000, 4.000000, 4.000000, 4.000000, 4.000000, 4.000000, 4.000000, 4.000000, 4.000000, 4.000000, 4.000000, 4.000000, 4.000000, 4.000000, 4.000000, 4.000000
23.000000, 0.000000, 4203.589844, 4208.717773, 4188.205078, 4204.615234, 4201.025391, 4197.948730, 4198.974121, 4183.589844, 4188.205078, 4216.922852, 4177.436035, 4191.794922, 4173.333008, 4177.948730, 0.000000, 8290.000000, 8123.000000, 0.000000, 0.000000, 0.000000, 25864.000000, 705.640991, 4.000000, 4.000000, 4.000000, 4.000000, 4.000000, 4.000000, 4.000000, 4.000000, 4.000000, 4.000000, 4.000000, 4.000000, 4.000000, 4.000000, 4.000000, 4.000000
24.000000, 0.000000, 4211.794922, 4233.846191, 4187.692383, 4209.230469, 4207.692383, 4188.717773, 4189.743652, 4188.717773, 4189.743652, 4215.897461, 4172.307617, 4182.563965, 4173.846191, 4179.487305, 0.000000, 8290.000000, 8123.000000, 0.000000, 0.000000, 0.000000, 25864.000000, 713.333313, 4.000000, 4.000000, 4.000000, 4.000000, 4.000000, 4.000000, 4.000000, 4.000000, 4.000000, 4.000000, 4.000000, 4.000000, 4.000000, 4.000000, 4.000000, 4.000000
25.000000, 0.000000, 4207.179199, 4230.256348, 4188.205078, 4205.127930, 4200.000000, 4183.589844, 4183.589844, 4185.127930, 4186.153809, 4214.358887, 4168.717773, 4184.102539, 4174.358887, 4182.051270, 0.000000, 8294.000000, 8120.000000, 0.000000, 0.000000, 0.000000, 25864.000000, 721.538452, 4.000000, 4.000000, 4.000000, 4.000000, 4.000000, 4.000000, 4.000000, 4.000000, 4.000000, 4.000000, 4.000000, 4.000000, 4.000000, 4.000000, 4.000000, 4.000000
26.000000, 0.000000, 4203.076660, 4224.615234, 4189.743652, 4201.538574, 4197.436035, 4191.794922, 4188.717773, 4182.051270, 4186.153809, 4217.436035, 4170.256348, 4184.615234, 4180.000000, 4176.922852, 0.000000, 8294.000000, 8120.000000, 0.000000, 0.000000, 0.000000, 25864.000000, 729.230774, 4.000000, 4.000000, 4.000000, 4.000000, 4.000000, 4.000000, 4.000000, 4.000000, 4.000000, 4.000000, 4.000000, 4.000000, 4.000000, 4.000000, 4.000000, 4.000000
27.000000, 0.000000, 4207.179199, 4235.384277, 4191.794922, 4206.666504, 4202.051270, 4200.512695, 4193.333008, 4197.436035, 4196.410156, 4226.153809, 4177.948730, 4185.641113, 4184.102539, 4176.922852, 0.000000, 8298.000000, 8125.000000, 0.000000, 0.000000, 0.000000, 25864.000000, 737.435852, 4.000000, 4.000000, 4.000000, 4.000000, 4.000000, 4.000000, 4.000000, 4.000000, 4.000000, 4.000000, 4.000000, 4.000000, 4.000000, 4.000000, 4.000000, 4.000000
28.000000, 0.000000, 4205.127930, 4231.794922, 4191.281738, 4209.230469, 4204.102539, 4204.102539, 4191.281738, 4192.820313, 4193.846191, 4231.281738, 4181.025391, 4188.717773, 4181.538574, 4181.538574, 0.000000, 8298.000000, 8125.000000, 0.000000, 0.000000, 0.000000, 25864.000000, 745.128174, 4.000000, 4.000000, 4.000000, 4.000000, 4.000000, 4.000000, 4.000000, 4.000000, 4.000000, 4.000000, 4.000000, 4.000000, 4.000000, 4.000000, 4.000000, 4.000000
29.000000, 0.000000, 4198.461426, 4220.000000, 4183.589844, 4196.410156, 4200.000000, 4203.076660, 4192.820313, 4166.153809, 4178.461426, 4228.717773, 4173.846191, 4181.538574, 4177.948730, 4179.487305, 0.000000, 8288.000000, 8124.000000, 0.000000, 0.000000, 0.000000, 25864.000000, 753.333313, 4.000000, 4.000000, 4.000000, 4.000000, 4.000000, 4.000000, 4.000000, 4.000000, 4.000000, 4.000000, 4.000000, 4.000000, 4.000000, 4.000000, 4.000000, 4.000000
30.000000, 0.000000, 4194.871582, 4220.000000, 4176.410156, 4196.922852, 4195.384277, 4200.000000, 4200.000000, 4171.281738, 4178.461426, 4223.589844, 4172.307617, 4177.436035, 4179.487305, 4176.922852, 0.000000, 8288.000000, 8124.000000, 0.000000, 0.000000, 0.000000, 25864.000000, 761.025635, 4.000000, 4.000000, 4.000000, 4.000000, 4.000000, 4.000000, 4.000000, 4.000000, 4.000000, 4.000000, 4.000000, 4.000000, 4.000000, 4.000000, 4.000000, 4.000000
31.000000, 0.000000, 4191.281738, 4220.512695, 4177.948730, 4200.512695, 4202.051270, 4200.000000, 4197.948730, 4192.820313, 4189.743652, 4219.487305, 4181.025391, 4183.076660, 4183.589844, 4181.025391, 0.000000, 8288.000000, 8132.000000, 0.000000, 0.000000, 0.000000, 25864.000000, 769.230774, 4.000000, 4.000000, 4.000000, 4.000000, 4.000000, 4.000000, 4.000000, 4.000000, 4.000000, 4.000000, 4.000000, 4.000000, 4.000000, 4.000000, 4.000000, 4.000000
32.000000, 0.000000, 4195.897461, 4221.538574, 4183.076660, 4196.410156, 4209.230469, 4200.000000, 4188.205078, 4187.692383, 4194.358887, 4220.000000, 4185.127930, 4185.641113, 4185.641113, 4185.127930, 0.000000, 8288.000000, 8132.000000, 0.000000, 0.000000, 0.000000, 25864.000000, 776.923035, 4.000000, 4.000000, 4.000000, 4.000000, 4.000000, 4.000000, 4.000000, 4.000000, 4.000000, 4.000000, 4.000000, 4.000000, 4.000000, 4.000000, 4.000000, 4.000000
33.000000, 0.000000, 4205.127930, 4230.769043, 4191.794922, 4203.589844, 4204.615234, 4198.974121, 4184.615234, 4181.025391, 4194.358887, 4229.230469, 4186.666504, 4192.307617, 4190.256348, 4188.205078, 0.000000, 8280.000000, 8137.000000, 0.000000, 0.000000, 0.000000, 25864.000000, 785.128174, 4.000000, 4.000000, 4.000000, 4.000000, 4.000000, 4.000000, 4.000000, 4.000000, 4.000000, 4.000000, 4.000000, 4.000000, 4.000000, 4.000000, 4.000000, 4.000000
34.000000, 0.000000, 4211.281738, 4235.897461, 4198.974121, 4207.179199, 4207.179199, 4200.512695, 4189.743652, 4190.256348, 4196.410156, 4237.948730, 4192.307617, 4198.461426, 4200.512695, 4192.820313, 0.000000, 8280.000000, 8137.000000, 0.000000, 0.000000, 0.000000, 25864.000000, 792.820496, 4.000000, 4.000000, 4.000000, 4.000000, 4.000000, 4.000000, 4.000000, 4.000000, 4.000000, 4.000000, 4.000000, 4.000000, 4.000000, 4.000000, 4.000000, 4.000000
35.000000, 0.000000, 4206.153809, 4231.281738, 4193.333008, 4207.179199, 4208.717773, 4204.102539, 4195.897461, 4189.230469, 4196.922852, 4232.307617, 4187.692383, 4190.769043, 4197.948730, 4188.717773, 0.000000, 8277.000000, 8137.000000, 0.000000, 0.000000, 0.000000, 25864.000000, 801.025635, 4.000000, 4.000000, 4.000000, 4.000000, 4.000000, 4.000000, 4.000000, 4.000000, 4.000000, 4.000000, 4.000000, 4.000000, 4.000000, 4.000000, 4.000000, 4.000000
36.000000, 0.000000, 4195.897461, 4229.743652, 4187.179199, 4206.153809, 4198.461426, 4204.615234, 4198.461426, 4189.743652, 4198.974121, 4227.692383, 4182.051270, 4188.717773, 4186.153809, 4182.563965, 0.000000, 8277.000000, 8137.000000, 0.000000, 0.000000, 0.000000, 25864.000000, 808.717957, 4.000000, 4.000000, 4.000000, 4.000000, 4.000000, 4.000000, 4.000000, 4.000000, 4.000000, 4.000000, 4.000000, 4.000000, 4.000000, 4.000000, 4.000000, 4.000000
37.000000, 0.000000, 4196.922852, 4231.794922, 4195.384277, 4201.538574, 4201.025391, 4199.487305, 4196.922852, 4197.436035, 4200.000000, 4231.281738, 4187.179199, 4197.948730, 4190.256348, 4187.692383, 0.000000, 8271.000000, 8138.000000, 0.000000, 0.000000, 0.000000, 25864.000000, 816.923035, 4.000000, 4.000000, 4.000000, 4.000000, 4.000000, 4.000000, 4.000000, 4.000000, 4.000000, 4.000000, 4.000000, 4.000000, 4.000000, 4.000000, 4.000000, 4.000000
38.000000, 0.000000, 4204.102539, 4230.769043, 4196.410156, 4202.563965, 4213.333008, 4200.512695, 4203.589844, 4190.256348, 4199.487305, 4231.794922, 4189.230469, 4199.487305, 4200.000000, 4190.256348, 0.000000, 8271.000000, 8138.000000, 0.000000, 0.000000, 0.000000, 25864.000000, 824.615356, 4.000000, 4.000000, 4.000000, 4.000000, 4.000000, 4.000000, 4.000000, 4.000000, 4.000000, 4.000000, 4.000000, 4.000000, 4.000000, 4.000000, 4.000000, 4.000000
39.000000, 0.000000, 4206.666504, 4234.871582, 4188.205078, 4201.538574, 4212.820313, 4205.641113, 4215.384277, 4189.230469, 4203.076660, 4238.461426, 4190.256348, 4197.436035, 4202.563965, 4189.230469, 0.000000, 8260.000000, 8141.000000, 0.000000, 0.000000, 0.000000, 25864.000000, 832.820496, 4.000000, 4.000000, 4.000000, 4.000000, 4.000000, 4.000000, 4.000000, 4.000000, 4.000000, 4.000000, 4.000000, 4.000000, 4.000000, 4.000000, 4.000000, 4.000000
40.000000, 0.000000, 4203.589844, 4232.307617, 4186.153809, 4202.051270, 4206.666504, 4203.076660, 4210.256348, 4202.051270, 4202.563965, 4247.692383, 4192.307617, 4197.948730, 4198.461426, 4187.692383, 0.000000, 8260.000000, 8141.000000, 0.000000, 0.000000, 0.000000, 25864.000000, 840.512817, 4.000000, 4.000000, 4.000000, 4.000000, 4.000000, 4.000000, 4.000000, 4.000000, 4.000000, 4.000000, 4.000000, 4.000000, 4.000000, 4.000000, 4.000000, 4.000000
41.000000, 0.000000, 4192.307617, 4218.461426, 4179.487305, 4197.436035, 4204.102539, 4196.410156, 4195.897461, 4206.153809, 4200.512695, 4246.153809, 4187.692383, 4192.820313, 4189.743652, 4180.000000, 0.000000, 8259.000000, 8139.000000, 0.000000, 0.000000, 0.000000, 25864.000000, 848.717957, 4.000000, 4.000000, 4.000000, 4.000000, 4.000000, 4.000000, 4.000000, 4.000000, 4.000000, 4.000000, 4.000000, 4.000000, 4.000000, 4.000000, 4.000000, 4.000000
42.000000, 0.000000, 4188.717773, 4215.384277, 4172.820313, 4193.846191, 4201.538574, 4201.025391, 4196.922852, 4213.846191, 4210.769043, 4243.589844, 4188.205078, 4191.281738, 4190.769043, 4176.922852, 0.000000, 8259.000000, 8139.000000, 0.000000, 0.000000, 0.000000, 25864.000000, 856.410217, 4.000000, 4.000000, 4.000000, 4.000000, 4.000000, 4.000000, 4.000000, 4.000000, 4.000000, 4.000000, 4.000000, 4.000000, 4.000000, 4.000000, 4.000000, 4.000000
43.000000, 0.000000, 4190.769043, 4218.461426, 4176.410156, 4202.563965, 4197.436035, 4205.127930, 4205.641113, 4222.051270, 4215.897461, 4247.179199, 4192.307617, 4197.948730, 4199.487305, 4183.076660, 0.000000, 8255.000000, 8139.000000, 0.000000, 0.000000, 0.000000, 25864.000000, 864.615356, 4.000000, 4.000000, 4.000000, 4.000000, 4.000000, 4.000000, 4.000000, 4.000000, 4.000000, 4.000000, 4.000000, 4.000000, 4.000000, 4.000000, 4.000000, 4.000000
44.000000, 0.000000, 4190.769043, 4216.410156, 4182.563965, 4200.000000, 4201.025391, 4202.563965, 4200.000000, 4203.589844, 4204.102539, 4247.692383, 4191.794922, 4200.512695, 4200.512695, 4187.692383, 0.000000, 8255.000000, 8139.000000, 0.000000, 0.000000, 0.000000, 25864.000000, 872.820496, 4.000000, 4.000000, 4.000000, 4.000000, 4.000000, 4.000000, 4.000000, 4.000000, 4.000000, 4.000000, 4.000000, 4.000000, 4.000000, 4.000000, 4.000000, 4.000000
45.000000, 0.000000, 4196.410156, 4223.589844, 4186.153809, 4198.461426, 4208.717773, 4202.051270, 4186.666504, 4182.051270, 4198.461426, 4247.692383, 4196.922852, 4201.538574, 4201.025391, 4185.641113, 0.000000, 8252.000000, 8141.000000, 0.000000, 0.000000, 0.000000, 25864.000000, 880.512817, 4.000000, 4.000000, 4.000000, 4.000000, 4.000000, 4.000000, 4.000000, 4.000000, 4.000000, 4.000000, 4.000000, 4.000000, 4.000000, 4.000000, 4.000000, 4.000000
46.000000, 0.000000, 4197.948730, 4229.230469, 4185.127930, 4203.589844, 4207.692383, 4195.384277, 4184.615234, 4182.563965, 4200.512695, 4246.153809, 4198.461426, 4201.538574, 4203.589844, 4183.589844, 0.000000, 8252.000000, 8141.000000, 0.000000, 0.000000, 0.000000, 25864.000000, 888.717957, 4.000000, 4.000000, 4.000000, 4.000000, 4.000000, 4.000000, 4.000000, 4.000000, 4.000000, 4.000000, 4.000000, 4.000000, 4.000000, 4.000000, 4.000000, 4.000000
47.000000, 0.000000, 4191.794922, 4225.127930, 4185.127930, 4200.512695, 4209.743652, 4193.846191, 4191.794922, 4185.127930, 4198.974121, 4237.948730, 4187.692383, 4193.846191, 4195.897461, 4186.153809, 0.000000, 8243.000000, 8147.000000, 0.000000, 0.000000, 0.000000, 25864.000000, 896.410217, 4.000000, 4.000000, 4.000000, 4.000000, 4.000000, 4.000000, 4.000000, 4.000000, 4.000000, 4.000000, 4.000000, 4.000000, 4.000000, 4.000000, 4.000000, 4.000000
48.000000, 0.000000, 4189.743652, 4222.563965, 4186.666504, 4198.974121, 4219.487305, 4208.717773, 4198.461426, 4182.563965, 4194.358887, 4227.692383, 4178.461426, 4185.641113, 4183.076660, 4182.051270, 0.000000, 8243.000000, 8147.000000, 0.000000, 0.000000, 0.000000, 25864.000000, 904.615356, 4.000000, 4.000000, 4.000000, 4.000000, 4.000000, 4.000000, 4.000000, 4.000000, 4.000000, 4.000000, 4.000000, 4.000000, 4.000000, 4.000000, 4.000000, 4.000000
49.000000, 0.000000, 4186.153809, 4213.846191, 4181.538574, 4192.307617, 4211.794922, 4213.333008, 4201.025391, 4191.281738, 4193.333008, 4220.512695, 4171.794922, 4183.589844, 4172.820313, 4168.717773, 0.000000, 8243.000000, 8145.000000, 0.000000, 0.000000, 0.000000, 25864.000000, 912.307678, 4.000000, 4.000000, 4.000000, 4.000000, 4.000000, 4.000000, 4.000000, 4.000000, 4.000000, 4.000000, 4.000000, 4.000000, 4.000000, 4.000000, 4.000000, 4.000000
50.000000, 0.000000, 4177.436035, 4197.436035, 4172.307617, 4186.666504, 4194.358887, 4201.025391, 4203.589844, 4202.051270, 4196.410156, 4224.615234, 4165.127930, 4184.102539, 4167.179199, 4158.461426, 0.000000, 8243.000000, 8145.000000, 0.000000, 0.000000, 0.000000, 25864.000000, 920.512817, 4.000000, 4.000000, 4.000000, 4.000000, 4.000000, 4.000000, 4.000000, 4.000000, 4.000000, 4.000000, 4.000000, 4.000000, 4.000000, 4.000000, 4.000000, 4.000000
51.000000, 0.000000, 4176.410156, 4200.512695, 4175.897461, 4191.794922, 4197.948730, 4193.333008, 4198.974121, 4201.538574, 4200.512695, 4238.974121, 4172.820313, 4188.205078, 4176.922852, 4164.615234, 0.000000, 8243.000000, 8147.000000, 0.000000, 0.000000, 0.000000, 25864.000000, 928.205078, 4.000000, 4.000000, 4.000000, 4.000000, 4.000000, 4.000000, 4.000000, 4.000000, 4.000000, 4.000000, 4.000000, 4.000000, 4.000000, 4.000000, 4.000000, 4.000000
52.000000, 0.000000, 4189.743652, 4219.487305, 4184.102539, 4195.384277, 4206.666504, 4188.717773, 4185.641113, 4200.000000, 4201.538574, 4246.666504, 4189.743652, 4196.410156, 4194.358887, 4179.487305, 0.000000, 8243.000000, 8147.000000, 0.000000, 0.000000, 0.000000, 25864.000000, 936.410217, 4.000000, 4.000000, 4.000000, 4.000000, 4.000000, 4.000000, 4.000000, 4.000000, 4.000000, 4.000000, 4.000000, 4.000000, 4.000000, 4.000000, 4.000000, 4.000000
53.000000, 0.000000, 4196.410156, 4219.487305, 4185.127930, 4198.974121, 4202.563965, 4180.000000, 4181.025391, 4197.948730, 4203.076660, 4246.153809, 4193.846191, 4202.563965, 4202.051270, 4186.666504, 0.000000, 8240.000000, 8150.000000, 0.000000, 0.000000, 0.000000, 25864.000000, 944.102539, 4.000000, 4.000000, 4.000000, 4.000000, 4.000000, 4.000000, 4.000000, 4.000000, 4.000000, 4.000000, 4.000000, 4.000000, 4.000000, 4.000000, 4.000000, 4.000000
54.000000, 0.000000, 4192.307617, 4212.307617, 4184.102539, 4196.922852, 4201.025391, 4183.589844, 4193.846191, 4192.307617, 4206.153809, 4251.281738, 4192.307617, 4202.563965, 4202.563965, 4186.666504, 0.000000, 8240.000000, 8150.000000, 0.000000, 0.000000, 0.000000, 25864.000000, 952.307678, 4.000000, 4.000000, 4.000000, 4.000000, 4.000000, 4.000000, 4.000000, 4.000000, 4.000000, 4.000000, 4.000000, 4.000000, 4.000000, 4.000000, 4.000000, 4.000000
55.000000, 0.000000, 4192.820313, 4219.487305, 4178.974121, 4196.922852, 4200.512695, 4190.256348, 4201.538574, 4197.436035, 4204.102539, 4253.333008, 4191.281738, 4198.974121, 4203.589844, 4185.127930, 0.000000, 8242.000000, 8149.000000, 0.000000, 0.000000, 0.000000, 25864.000000, 960.512817, 4.000000, 4.000000, 4.000000, 4.000000, 4.000000, 4.000000, 4.000000, 4.000000, 4.000000, 4.000000, 4.000000, 4.000000, 4.000000, 4.000000, 4.000000, 4.000000
56.000000, 0.000000, 4193.846191, 4224.615234, 4170.769043, 4200.000000, 4196.922852, 4186.153809, 4190.769043, 4195.384277, 4200.000000, 4244.615234, 4188.717773, 4190.256348, 4201.538574, 4183.076660, 0.000000, 8242.000000, 8149.000000, 0.000000, 0.000000, 0.000000, 25864.000000, 968.205078, 4.000000, 4.000000, 4.000000, 4.000000, 4.000000, 4.000000, 4.000000, 4.000000, 4.000000, 4.000000, 4.000000, 4.000000, 4.000000, 4.000000, 4.000000, 4.000000
57.000000, 0.000000, 4193.846191, 4222.563965, 4174.358887, 4195.384277, 4202.563965, 4189.230469, 4181.538574, 4172.307617, 4194.871582, 4242.051270, 4186.666504, 4181.538574, 4198.974121, 4180.000000, 0.000000, 8244.000000, 8145.000000, 0.000000, 0.000000, 0.000000, 25864.000000, 976.410217, 4.000000, 4.000000, 4.000000, 4.000000, 4.000000, 4.000000, 4.000000, 4.000000, 4.000000, 4.000000, 4.000000, 4.000000, 4.000000, 4.000000, 4.000000, 4.000000
58.000000, 0.000000, 4201.538574, 4227.179199, 4186.666504, 4201.025391, 4211.281738, 4196.410156, 4184.615234, 4170.256348, 4190.769043, 4244.102539, 4184.615234, 4182.563965, 4201.025391, 4182.051270, 0.000000, 8244.000000, 8145.000000, 0.000000, 0.000000, 0.000000, 25864.000000, 984.102539, 4.000000, 4.000000, 4.000000, 4.000000, 4.000000, 4.000000, 4.000000, 4.000000, 4.000000, 4.000000, 4.000000, 4.000000, 4.000000, 4.000000, 4.000000, 4.000000
59.000000, 0.000000, 4211.794922, 4236.922852, 4192.307617, 4207.179199, 4211.794922, 4195.384277, 4187.692383, 4182.563965, 4191.281738, 4245.127930, 4185.127930, 4184.615234, 4207.179199, 4187.692383, 0.000000, 8247.000000, 8136.000000, 0.000000, 0.000000, 0.000000, 25864.000000, 992.307678, 4.000000, 4.000000, 4.000000, 4.000000, 4.000000, 4.000000, 4.000000, 4.000000, 4.000000, 4.000000, 4.000000, 4.000000, 4.000000, 4.000000, 4.000000, 4.000000
60.000000, 0.000000, 4208.205078, 4237.436035, 4190.256348, 4201.538574, 4207.692383, 4193.333008, 4189.230469, 4181.025391, 4189.743652, 4246.666504, 4192.820313, 4185.127930, 4207.692383, 4187.179199, 0.000000, 8247.000000, 8136.000000, 0.000000, 0.000000, 0.000000, 25865.000000, 0.000000, 4.000000, 4.000000, 4.000000, 4.000000, 4.000000, 4.000000, 4.000000, 4.000000, 4.000000, 4.000000, 4.000000, 4.000000, 4.000000, 4.000000, 4.000000, 4.000000
61.000000, 0.000000, 4194.871582, 4226.666504, 4184.615234, 4197.948730, 4205.641113, 4191.281738, 4190.256348, 4181.025391, 4184.615234, 4243.589844, 4195.384277, 4187.179199, 4204.615234, 4185.127930, 0.000000, 8248.000000, 8129.000000, 0.000000, 0.000000, 0.000000, 25865.000000, 8.205128, 4.000000, 4.000000, 4.000000, 4.000000, 4.000000, 4.000000, 4.000000, 4.000000, 4.000000, 4.000000, 4.000000, 4.000000, 4.000000, 4.000000, 4.000000, 4.000000
62.000000, 0.000000, 4190.256348, 4218.461426, 4175.897461, 4191.281738, 4201.538574, 4187.692383, 4182.563965, 4184.615234, 4185.641113, 4241.538574, 4188.205078, 4185.127930, 4203.076660, 4186.153809, 0.000000, 8248.000000, 8129.000000, 0.000000, 0.000000, 0.000000, 25865.000000, 15.897435, 4.000000, 4.000000, 4.000000, 4.000000, 4.000000, 4.000000, 4.000000, 4.000000, 4.000000, 4.000000, 4.000000, 4.000000, 4.000000, 4.000000, 4.000000, 4.000000
63.000000, 0.000000, 4193.333008, 4220.512695, 4173.333008, 4193.846191, 4196.922852, 4190.769043, 4184.102539, 4192.820313, 4198.974121, 4245.127930, 4188.717773, 4186.666504, 4202.563965, 4185.641113, 0.000000, 8248.000000, 8123.000000, 0.000000, 0.000000, 0.000000, 25865.000000, 24.102564, 4.000000, 4.000000, 4.000000, 4.000000, 4.000000, 4.000000, 4.000000, 4.000000, 4.000000, 4.000000, 4.000000, 4.000000, 4.000000, 4.000000, 4.000000, 4.000000
64.000000, 0.000000, 4199.487305, 4231.281738, 4181.538574, 4197.948730, 4200.000000, 4204.102539, 4201.538574, 4203.589844, 4207.692383, 4249.743652, 4200.000000, 4196.410156, 4204.615234, 4187.692383, 3492.000000, 8248.000000, 8123.000000, 0.000000, 0.000000, 0.000000, 25865.000000, 31.794870, 4.000000, 4.000000, 4.000000, 4.000000, 4.000000, 4.000000, 4.000000, 4.000000, 4.000000, 4.000000, 4.000000, 4.000000, 4.000000, 4.000000, 4.000000, 4.000000
65.000000, 0.000000, 4205.127930, 4233.846191, 4190.256348, 4196.922852, 4204.102539, 4210.769043, 4208.717773, 4203.076660, 4203.076660, 4251.281738, 4201.538574, 4200.000000, 4206.666504, 4190.769043, 2278.000000, 8249.000000, 8120.000000, 0.000000, 0.000000, 0.000000, 25865.000000, 40.000000, 4.000000, 4.000000, 4.000000, 4.000000, 4.000000, 4.000000, 4.000000, 4.000000, 4.000000, 4.000000, 4.000000, 4.000000, 4.000000, 4.000000, 4.000000, 4.000000
66.000000, 0.000000, 4201.025391, 4221.538574, 4190.769043, 4196.922852, 4201.538574, 4206.666504, 4199.487305, 4199.487305, 4204.102539, 4247.692383, 4193.333008, 4193.846191, 4198.974121, 4185.127930, 3127.000000, 8249.000000, 8120.000000, 0.000000, 0.000000, 0.000000, 25865.000000, 48.205128, 4.000000, 4.000000, 4.000000, 4.000000, 4.000000, 4.000000, 4.000000, 4.000000, 4.000000, 4.000000, 4.000000, 4.000000, 4.000000, 4.000000, 4.000000, 4.000000
67.000000, 0.000000, 4192.307617, 4208.717773, 4184.102539, 4190.769043, 4200.000000, 4203.076660, 4195.384277, 4194.871582, 4201.538574, 4239.487305, 4189.743652, 4187.692383, 4187.692383, 4175.897461, 3548.000000, 8253.000000, 8116.000000, 0.000000, 0.000000, 0.000000, 25865.000000, 55.897434, 4.000000, 4.000000, 4.000000, 4.000000, 4.000000, 4.000000, 4.000000, 4.000000, 4.000000, 4.000000, 4.000000, 4.000000, 4.000000, 4.000000, 4.000000, 4.000000
68.000000, 0.000000, 4186.153809, 4202.563965, 4175.384277, 4188.717773, 4202.563965, 4200.512695, 4199.487305, 4178.461426, 4183.076660, 4228.717773, 4183.589844, 4181.538574, 4182.563965, 4172.307617, 3528.000000, 8253.000000, 8116.000000, 0.000000, 0.000000, 0.000000, 25865.000000, 64.102562, 4.000000, 4.000000, 4.000000, 4.000000, 4.000000, 4.000000, 4.000000, 4.000000, 4.000000, 4.000000, 4.000000, 4.000000, 4.000000, 4.000000, 4.000000, 4.000000
69.000000, 0.000000, 4181.538574, 4194.871582, 4170.256348, 4187.179199, 4201.025391, 4200.512695, 4201.025391, 4174.358887, 4176.410156, 4219.487305, 4172.820313, 4170.769043, 4175.897461, 4168.205078, 3636.000000, 8252.000000, 8118.000000, 0.000000, 0.000000, 0.000000, 25865.000000, 71.794868, 4.000000, 4.000000, 4.000000, 4.000000, 4.000000, 4.000000, 4.000000, 4.000000, 4.000000, 4.000000, 4.000000, 4.000000, 4.000000, 4.000000, 4.000000, 4.000000
70.000000, 0.000000, 4178.974121, 4189.743652, 4168.717773, 4187.179199, 4201.025391, 4201.538574, 4194.871582, 4192.820313, 4187.179199, 4219.487305, 4170.256348, 4165.127930, 4171.281738, 4166.666504, 3502.000000, 8252.000000, 8118.000000, 0.000000, 0.000000, 0.000000, 25865.000000, 80.000000, 4.000000, 4.000000, 4.000000, 4.000000, 4.000000, 4.000000, 4.000000, 4.000000, 4.000000, 4.000000, 4.000000, 4.000000, 4.000000, 4.000000, 4.000000, 4.000000
71.000000, 0.000000, 4178.461426, 4193.333008, 4166.666504, 4193.333008, 4208.205078, 4206.153809, 4188.717773, 4193.846191, 4192.820313, 4224.615234, 4178.974121, 4174.358887, 4176.410156, 4175.384277, 3231.000000, 8257.000000, 8099.000000, 0.000000, 0.000000, 0.000000, 25865.000000, 87.692307, 4.000000, 4.000000, 4.000000, 4.000000, 4.000000, 4.000000, 4.000000, 4.000000, 4.000000, 4.000000, 4.000000, 4.000000, 4.000000, 4.000000, 4.000000, 4.000000
72.000000, 0.000000, 4185.127930, 4200.000000, 4175.384277, 4189.743652, 4209.743652, 4215.384277, 4200.000000, 4199.487305, 4205.127930, 4235.897461, 4190.256348, 4192.820313, 4187.692383, 4187.692383, 3345.000000, 8257.000000, 8099.000000, 0.000000, 0.000000, 0.000000, 25865.000000, 95.897430, 4.000000, 4.000000, 4.000000, 4.000000, 4.000000, 4.000000, 4.000000, 4.000000, 4.000000, 4.000000, 4.000000, 4.000000, 4.000000, 4.000000, 4.000000, 4.000000
73.000000, 0.000000, 4202.051270, 4203.589844, 4198.974121, 4193.846191, 4203.589844, 4222.051270, 4220.512695, 4221.538574, 4220.512695, 4252.820313, 4202.051270, 4211.794922, 4200.000000, 4204.615234, 3267.000000, 8258.000000, 8080.000000, 0.000000, 0.000000, 0.000000, 25865.000000, 103.589745, 4.000000, 4.000000, 4.000000, 4.000000, 4.000000, 4.000000, 4.000000, 4.000000, 4.000000, 4.000000, 4.000000, 4.000000, 4.000000, 4.000000, 4.000000, 4.000000
74.000000, 0.000000, 4214.871582, 4207.179199, 4212.820313, 4202.051270, 4195.384277, 4216.410156, 4220.512695, 4216.922852, 4215.897461, 4266.666504, 4211.794922, 4222.563965, 4212.307617, 4215.897461, 3308.000000, 8258.000000, 8080.000000, 0.000000, 0.000000, 0.000000, 25865.000000, 111.794868, 4.000000, 4.000000, 4.000000, 4.000000, 4.000000, 4.000000, 4.000000, 4.000000, 4.000000, 4.000000, 4.000000, 4.000000, 4.000000, 4.000000, 4.000000, 4.000000
75.000000, 0.000000, 4210.769043, 4203.076660, 4204.615234, 4195.384277, 4187.179199, 4200.512695, 4204.102539, 4200.000000, 4205.641113, 4266.153809, 4210.769043, 4217.436035, 4211.794922, 4210.769043, 3573.000000, 8264.000000, 8053.000000, 0.000000, 0.000000, 0.000000, 25865.000000, 119.487175, 4.000000, 4.000000, 4.000000, 4.000000, 4.000000, 4.000000, 4.000000, 4.000000, 4.000000, 4.000000, 4.000000, 4.000000, 4.000000, 4.000000, 4.000000, 4.000000
76.000000, 0.000000, 4203.076660, 4194.358887, 4194.871582, 4193.846191, 4188.717773, 4198.461426, 4199.487305, 4193.846191, 4197.948730, 4252.820313, 4199.487305, 4207.179199, 4204.102539, 4201.025391, 3259.000000, 8264.000000, 8053.000000, 0.000000, 0.000000, 0.000000, 25865.000000, 127.692307, 4.000000, 4.000000, 4.000000, 4.000000, 4.000000, 4.000000, 4.000000, 4.000000, 4.000000, 4.000000, 4.000000, 4.000000, 4.000000, 4.000000, 4.000000, 4.000000
77.000000, 0.000000, 4194.871582, 4188.205078, 4183.589844, 4190.769043, 4209.230469, 4208.717773, 4208.205078, 4196.410156, 4187.692383, 4238.461426, 4184.615234, 4194.871582, 4198.974121, 4190.769043, 3468.000000, 8266.000000, 7977.000000, 0.000000, 0.000000, 0.000000, 25865.000000, 135.897430, 4.000000, 4.000000, 4.000000, 4.000000, 4.000000, 4.000000, 4.000000, 4.000000, 4.000000, 4.000000, 4.000000, 4.000000, 4.000000, 4.000000, 4.000000, 4.000000
78.000000, 0.000000, 4178.461426, 4182.563965, 4157.948730, 4184.615234, 4217.948730, 4206.153809, 4201.025391, 4190.256348, 4180.000000, 4227.179199, 4169.230469, 4176.922852, 4188.717773, 4170.769043, 3308.000000, 8266.000000, 7977.000000, 0.000000, 0.000000, 0.000000, 25865.000000, 143.589737, 4.000000, 4.000000, 4.000000, 4.000000, 4.000000, 4.000000, 4.000000, 4.000000, 4.000000, 4.000000, 4.000000, 4.000000, 4.000000, 4.000000, 4.000000, 4.000000
79.000000, 0.000000, 4167.179199, 4182.051270, 4141.538574, 4184.102539, 4204.615234, 4195.384277, 4181.025391, 4184.102539, 4180.512695, 4227.692383, 4166.153809, 4170.769043, 4183.076660, 4163.076660, 3573.000000, 8272.000000, 7937.000000, 0.000000, 0.000000, 0.000000, 25865.000000, 151.794861, 4.000000, 4.000000, 4.000000, 4.000000, 4.000000, 4.000000, 4.000000, 4.000000, 4.000000, 4.000000, 4.000000, 4.000000, 4.000000, 4.000000, 4.000000, 4.000000
80.000000, 0.000000, 4174.358887, 4187.179199, 4154.871582, 4184.102539, 4206.153809, 4205.127930, 4184.615234, 4192.820313, 4187.179199, 4231.281738, 4167.692383, 4176.922852, 4191.794922, 4177.436035, 3259.000000, 8272.000000, 7937.000000, 0.000000, 0.000000, 0.000000, 25865.000000, 159.487183, 4.000000, 4.000000, 4.000000, 4.000000, 4.000000, 4.000000, 4.000000, 4.000000, 4.000000, 4.000000, 4.000000, 4.000000, 4.000000, 4.000000, 4.000000, 4.000000
81.000000, 0.000000, 4183.076660, 4188.717773, 4176.410156, 4189.230469, 4218.461426, 4215.384277, 4203.076660, 4196.922852, 4187.692383, 4229.743652, 4163.076660, 4181.025391, 4196.410156, 4183.589844, 3468.000000, 8289.000000, 7907.000000, 0.000000, 0.000000, 0.000000, 25865.000000, 167.692307, 4.000000, 4.000000, 4.000000, 4.000000, 4.000000, 4.000000, 4.000000, 4.000000, 4.000000, 4.000000, 4.000000, 4.000000, 4.000000, 4.000000, 4.000000, 4.000000
82.000000, 0.000000, 4194.358887, 4195.384277, 4194.871582, 4192.307617, 4213.333008, 4203.589844, 4205.641113, 4200.512695, 4195.897461, 4244.615234, 4171.794922, 4190.256348, 4201.025391, 4189.230469, 3308.000000, 8289.000000, 7907.000000, 0.000000, 0.000000, 0.000000, 25865.000000, 175.384613, 4.000000, 4.000000, 4.000000, 4.000000, 4.000000, 4.000000, 4.000000, 4.000000, 4.000000, 4.000000, 4.000000, 4.000000, 4.000000, 4.000000, 4.000000, 4.000000
83.000000, 0.000000, 4214.358887, 4211.281738, 4215.897461, 4197.436035, 4200.000000, 4198.974121, 4198.974121, 4209.743652, 4210.256348, 4274.871582, 4195.384277, 4211.281738, 4221.538574, 4210.769043, 3573.000000, 8295.000000, 7904.000000, 0.000000, 0.000000, 0.000000, 25865.000000, 183.589737, 4.000000, 4.000000, 4.000000, 4.000000, 4.000000, 4.000000, 4.000000, 4.000000, 4.000000, 4.000000, 4.000000, 4.000000, 4.000000, 4.000000, 4.000000, 4.000000
84.000000, 0.000000, 4221.025391, 4217.948730, 4223.589844, 4201.025391, 4202.051270, 4208.717773, 4202.563965, 4212.820313, 4213.333008, 4290.769043, 4207.179199, 4222.563965, 4237.948730, 4224.102539, 3259.000000, 8295.000000, 7904.000000, 0.000000, 0.000000, 0.000000, 25865.000000, 191.282043, 4.000000, 4.000000, 4.000000, 4.000000, 4.000000, 4.000000, 4.000000, 4.000000, 4.000000, 4.000000, 4.000000, 4.000000, 4.000000, 4.000000, 4.000000, 4.000000
85.000000, 0.000000, 4215.384277, 4210.769043, 4212.820313, 4198.461426, 4205.641113, 4208.205078, 4206.666504, 4206.666504, 4208.205078, 4288.717773, 4206.153809, 4219.487305, 4240.512695, 4225.127930, 3468.000000, 8299.000000, 7913.000000, 0.000000, 0.000000, 0.000000, 25865.000000, 199.487167, 4.000000, 4.000000, 4.000000, 4.000000, 4.000000, 4.000000, 4.000000, 4.000000, 4.000000, 4.000000, 4.000000, 4.000000, 4.000000, 4.000000, 4.000000, 4.000000
86.000000, 0.000000, 4204.615234, 4203.076660, 4198.461426, 4197.948730, 4200.000000, 4197.948730, 4200.512695, 4199.487305, 4203.076660, 4281.025391, 4200.512695, 4216.410156, 4234.871582, 4215.897461, 3308.000000, 8299.000000, 7913.000000, 0.000000, 0.000000, 0.000000, 25865.000000, 207.692307, 4.000000, 4.000000, 4.000000, 4.000000, 4.000000, 4.000000, 4.000000, 4.000000, 4.000000, 4.000000, 4.000000, 4.000000, 4.000000, 4.000000, 4.000000, 4.000000
87.000000, 0.000000, 4185.127930, 4196.922852, 4180.512695, 4189.230469, 4199.487305, 4190.769043, 4186.666504, 4205.641113, 4199.487305, 4270.256348, 4185.641113, 4204.102539, 4222.563965, 4195.384277, 3573.000000, 8293.000000, 7938.000000, 0.000000, 0.000000, 0.000000, 25865.000000, 215.384613, 4.000000, 4.000000, 4.000000, 4.000000, 4.000000, 4.000000, 4.000000, 4.000000, 4.000000, 4.000000, 4.000000, 4.000000, 4.000000, 4.000000, 4.000000, 4.000000
88.000000, 0.000000, 4175.384277, 4193.846191, 4168.205078, 4186.666504, 4204.102539, 4185.641113, 4181.538574, 4213.333008, 4198.461426, 4261.025391, 4172.820313, 4192.307617, 4213.846191, 4184.102539, 3259.000000, 8293.000000, 7938.000000, 0.000000, 0.000000, 0.000000, 25865.000000, 223.589737, 4.000000, 4.000000, 4.000000, 4.000000, 4.000000, 4.000000, 4.000000, 4.000000, 4.000000, 4.000000, 4.000000, 4.000000, 4.000000, 4.000000, 4.000000, 4.000000
89.000000, 0.000000, 4181.538574, 4195.897461, 4173.846191, 4195.384277, 4209.230469, 4190.769043, 4191.281738, 4198.461426, 4196.410156, 4256.410156, 4170.769043, 4195.384277, 4215.384277, 4190.769043, 3468.000000, 8296.000000, 7947.000000, 0.000000, 0.000000, 0.000000, 25865.000000, 231.282043, 4.000000, 4.000000, 4.000000, 4.000000, 4.000000, 4.000000, 4.000000, 4.000000, 4.000000, 4.000000, 4.000000, 4.000000, 4.000000, 4.000000, 4.000000, 4.000000
90.000000, 0.000000, 4188.205078, 4198.461426, 4186.666504, 4193.846191, 4207.692383, 4202.563965, 4192.307617, 4170.769043, 4187.692383, 4254.358887, 4170.256348, 4196.410156, 4215.384277, 4195.897461, 3308.000000, 8296.000000, 7947.000000, 0.000000, 0.000000, 0.000000, 25865.000000, 239.487167, 4.000000, 4.000000, 4.000000, 4.000000, 4.000000, 4.000000, 4.000000, 4.000000, 4.000000, 4.000000, 4.000000, 4.000000, 4.000000, 4.000000, 4.000000, 4.000000
91.000000, 0.000000, 4193.333008, 4196.410156, 4196.410156, 4192.820313, 4197.948730, 4203.076660, 4183.589844, 4175.897461, 4185.127930, 4256.922852, 4169.230469, 4195.897461, 4213.333008, 4198.461426, 3573.000000, 8294.000000, 7975.000000, 0.000000, 0.000000, 0.000000, 25865.000000, 247.179474, 4.000000, 4.000000, 4.000000, 4.000000, 4.000000, 4.000000, 4.000000, 4.000000, 4.000000, 4.000000, 4.000000, 4.000000, 4.000000, 4.000000, 4.000000, 4.000000
92.000000, 0.000000, 4197.436035, 4193.333008, 4203.076660, 4193.333008, 4196.922852, 4200.512695, 4181.538574, 4193.846191, 4191.281738, 4264.102539, 4172.307617, 4200.000000, 4218.461426, 4203.589844, 3259.000000, 8294.000000, 7975.000000, 0.000000, 0.000000, 0.000000, 25865.000000, 255.384613, 4.000000, 4.000000, 4.000000, 4.000000, 4.000000, 4.000000, 4.000000, 4.000000, 4.000000, 4.000000, 4.000000, 4.000000, 4.000000, 4.000000, 4.000000, 4.000000
93.000000, 0.000000, 4193.333008, 4188.717773, 4204.102539, 4192.307617, 4200.000000, 4207.179199, 4187.179199, 4178.974121, 4183.589844, 4260.512695, 4171.281738, 4193.333008, 4218.974121, 4197.948730, 3468.000000, 8287.000000, 7995.000000, 0.000000, 0.000000, 0.000000, 25865.000000, 263.076904, 4.000000, 4.000000, 4.000000, 4.000000, 4.000000, 4.000000, 4.000000, 4.000000, 4.000000, 4.000000, 4.000000, 4.000000, 4.000000, 4.000000, 4.000000, 4.000000
94.000000, 0.000000, 4188.717773, 4189.743652, 4199.487305, 4193.846191, 4190.769043, 4216.922852, 4205.127930, 4183.076660, 4181.025391, 4251.281738, 4168.717773, 4189.230469, 4214.358887, 4186.666504, 3308.000000, 8287.000000, 7995.000000, 0.000000, 0.000000, 0.000000, 25865.000000, 271.282043, 4.000000, 4.000000, 4.000000, 4.000000, 4.000000, 4.000000, 4.000000, 4.000000, 4.000000, 4.000000, 4.000000, 4.000000, 4.000000, 4.000000, 4.000000, 4.000000
95.000000, 0.000000, 4188.717773, 4191.794922, 4190.256348, 4187.692383, 4178.974121, 4217.436035, 4220.000000, 4215.897461, 4193.846191, 4250.769043, 4167.692383, 4194.358887, 4216.922852, 4178.461426, 3573.000000, 8285.000000, 8015.000000, 0.000000, 0.000000, 0.000000, 25865.000000, 278.974365, 4.000000, 4.000000, 4.000000, 4.000000, 4.000000, 4.000000, 4.000000, 4.000000, 4.000000, 4.000000, 4.000000, 4.000000, 4.000000, 4.000000, 4.000000, 4.000000
96.000000, 0.000000, 4182.051270, 4185.641113, 4179.487305, 4185.641113, 4180.000000, 4206.666504, 4207.692383, 4206.666504, 4188.205078, 4251.794922, 4160.512695, 4192.307617, 4215.897461, 4170.769043, 3259.000000, 8285.000000, 8015.000000, 0.000000, 0.000000, 0.000000, 25865.000000, 287.179474, 4.000000, 4.000000, 4.000000, 4.000000, 4.000000, 4.000000, 4.000000, 4.000000, 4.000000, 4.000000, 4.000000, 4.000000, 4.000000, 4.000000, 4.000000, 4.000000
97.000000, 0.000000, 4172.307617, 4181.025391, 4178.461426, 4185.641113, 4192.820313, 4199.487305, 4191.794922, 4177.948730, 4168.205078, 4245.641113, 4151.794922, 4187.179199, 4201.025391, 4166.666504, 3468.000000, 8275.000000, 8017.000000, 0.000000, 0.000000, 0.000000, 25865.000000, 295.384613, 4.000000, 4.000000, 4.000000, 4.000000, 4.000000, 4.000000, 4.000000, 4.000000, 4.000000, 4.000000, 4.000000, 4.000000, 4.000000, 4.000000, 4.000000, 4.000000
98.000000, 0.000000, 4178.461426, 4188.717773, 4192.820313, 4190.769043, 4200.512695, 4202.051270, 4201.025391, 4181.538574, 4169.743652, 4243.076660, 4156.922852, 4197.436035, 4200.000000, 4174.358887, 3308.000000, 8275.000000, 8017.000000, 0.000000, 0.000000, 0.000000, 25865.000000, 303.076904, 4.000000, 4.000000, 4.000000, 4.000000, 4.000000, 4.000000, 4.000000, 4.000000, 4.000000, 4.000000, 4.000000, 4.000000, 4.000000, 4.000000, 4.000000, 4.000000
99.000000, 0.000000, 4192.307617, 4198.461426, 4205.127930, 4201.538574, 4198.461426, 4202.563965, 4202.051270, 4191.281738, 4181.025391, 4255.897461, 4170.256348, 4205.127930, 4217.948730, 4188.717773, 3573.000000, 8265.000000, 8022.000000, 0.000000, 0.000000, 0.000000, 25865.000000, 310.769226, 4.000000, 4.000000, 4.000000, 4.000000, 4.000000, 4.000000, 4.000000, 4.000000, 4.000000, 4.000000, 4.000000, 4.000000, 4.000000, 4.000000, 4.000000, 4.000000
100.000000, 0.000000, 4193.846191, 4194.871582, 4202.563965, 4195.897461, 4203.589844, 4197.436035, 4183.589844, 4181.538574, 4177.948730, 4264.102539, 4168.205078, 4197.436035, 4210.769043, 4188.205078, 3259.000000, 8265.000000, 8022.000000, 0.000000, 0.000000, 0.000000, 25865.000000, 318.974365, 4.000000, 4.000000, 4.000000, 4.000000, 4.000000, 4.000000, 4.000000, 4.000000, 4.000000, 4.000000, 4.000000, 4.000000, 4.000000, 4.000000, 4.000000, 4.000000
101.000000, 0.000000, 4182.051270, 4184.102539, 4192.820313, 4190.769043, 4218.461426, 4202.051270, 4182.051270, 4178.461426, 4176.922852, 4264.615234, 4161.025391, 4195.384277, 4191.281738, 4177.436035, 3468.000000, 8248.000000, 8046.000000, 0.000000, 0.000000, 0.000000, 25865.000000, 327.179474, 4.000000, 4.000000, 4.000000, 4.000000, 4.000000, 4.000000, 4.000000, 4.000000, 4.000000, 4.000000, 4.000000, 4.000000, 4.000000, 4.000000, 4.000000, 4.000000
102.000000, 0.000000, 4178.974121, 4183.076660, 4187.179199, 4193.333008, 4223.589844, 4216.922852, 4202.563965, 4195.384277, 4192.820313, 4278.461426, 4173.846191, 4202.563965, 4211.281738, 4184.615234, 3308.000000, 8248.000000, 8046.000000, 0.000000, 0.000000, 0.000000, 25865.000000, 334.871796, 4.000000, 4.000000, 4.000000, 4.000000, 4.000000, 4.000000, 4.000000, 4.000000, 4.000000, 4.000000, 4.000000, 4.000000, 4.000000, 4.000000, 4.000000, 4.000000
103.000000, 0.000000, 4193.846191, 4194.358887, 4188.717773, 4193.846191, 4221.538574, 4222.563965, 4208.717773, 4210.256348, 4204.615234, 4297.948730, 4198.974121, 4214.358887, 4246.153809, 4206.666504, 3573.000000, 8240.000000, 8050.000000, 0.000000, 0.000000, 0.000000, 25865.000000, 343.076904, 4.000000, 4.000000, 4.000000, 4.000000, 4.000000, 4.000000, 4.000000, 4.000000, 4.000000, 4.000000, 4.000000, 4.000000, 4.000000, 4.000000, 4.000000, 4.000000
104.000000, 0.000000, 4200.512695, 4196.922852, 4192.307617, 4195.897461, 4216.410156, 4210.769043, 4199.487305, 4212.820313, 4202.563965, 4302.051270, 4211.794922, 4227.692383, 4257.948730, 4217.436035, 3259.000000, 8240.000000, 8050.000000, 0.000000, 0.000000, 0.000000, 25865.000000, 350.769226, 4.000000, 4.000000, 4.000000, 4.000000, 4.000000, 4.000000, 4.000000, 4.000000, 4.000000, 4.000000, 4.000000, 4.000000, 4.000000, 4.000000, 4.000000, 4.000000
105.000000, 0.000000, 4198.974121, 4190.256348, 4196.410156, 4188.717773, 4203.589844, 4204.102539, 4207.692383, 4214.871582, 4201.025391, 4303.589844, 4215.897461, 4242.051270, 4268.205078, 4225.127930, 3468.000000, 8221.000000, 8064.000000, 0.000000, 0.000000, 0.000000, 25865.000000, 358.974365, 4.000000, 4.000000, 4.000000, 4.000000, 4.000000, 4.000000, 4.000000, 4.000000, 4.000000, 4.000000, 4.000000, 4.000000, 4.000000, 4.000000, 4.000000, 4.000000
106.000000, 0.000000, 4206.153809, 4189.230469, 4207.179199, 4190.769043, 4199.487305, 4212.820313, 4219.487305, 4215.384277, 4206.153809, 4314.871582, 4227.692383, 4254.871582, 4284.615234, 4240.000000, 3308.000000, 8221.000000, 8064.000000, 0.000000, 0.000000, 0.000000, 25865.000000, 366.666656, 4.000000, 4.000000, 4.000000, 4.000000, 4.000000, 4.000000, 4.000000, 4.000000, 4.000000, 4.000000, 4.000000, 4.000000, 4.000000, 4.000000, 4.000000, 4.000000
107.000000, 0.000000, 4211.794922, 4192.820313, 4216.410156, 4198.974121, 4206.153809, 4220.512695, 4210.769043, 4205.127930, 4208.205078, 4316.410156, 4233.333008, 4251.281738, 4286.153809, 4244.102539, 3573.000000, 8211.000000, 8075.000000, 0.000000, 0.000000, 0.000000, 25865.000000, 374.358978, 4.000000, 4.000000, 4.000000, 4.000000, 4.000000, 4.000000, 4.000000, 4.000000, 4.000000, 4.000000, 4.000000, 4.000000, 4.000000, 4.000000, 4.000000, 4.000000
108.000000, 0.000000, 4207.179199, 4186.153809, 4217.436035, 4196.410156, 4203.076660, 4219.487305, 4198.974121, 4191.281738, 4202.051270, 4303.076660, 4221.538574, 4237.436035, 4279.487305, 4235.384277, 3259.000000, 8211.000000, 8075.000000, 0.000000, 0.000000, 0.000000, 25865.000000, 382.564087, 4.000000, 4.000000, 4.000000, 4.000000, 4.000000, 4.000000, 4.000000, 4.000000, 4.000000, 4.000000, 4.000000, 4.000000, 4.000000, 4.000000, 4.000000, 4.000000
109.000000, 0.000000, 4197.948730, 4170.769043, 4217.948730, 4192.820313, 4196.922852, 4212.820313, 4198.461426, 4183.589844, 4192.307617, 4292.307617, 4202.051270, 4231.281738, 4266.153809, 4223.589844, 3468.000000, 8201.000000, 8083.000000, 0.000000, 0.000000, 0.000000, 25865.000000, 390.769226, 4.000000, 4.000000, 4.000000, 4.000000, 4.000000, 4.000000, 4.000000, 4.000000, 4.000000, 4.000000, 4.000000, 4.000000, 4.000000, 4.000000, 4.000000, 4.000000
110.000000, 0.000000, 4191.281738, 4164.615234, 4214.871582, 4186.666504, 4200.000000, 4205.641113, 4199.487305, 4184.615234, 4184.102539, 4291.794922, 4194.871582, 4224.102539, 4249.743652, 4212.820313, 3308.000000, 8201.000000, 8083.000000, 0.000000, 0.000000, 0.000000, 25865.000000, 398.461517, 4.000000, 4.000000, 4.000000, 4.000000, 4.000000, 4.000000, 4.000000, 4.000000, 4.000000, 4.000000, 4.000000, 4.000000, 4.000000, 4.000000, 4.000000, 4.000000
111.000000, 0.000000, 4187.692383, 4167.179199, 4208.717773, 4186.153809, 4203.076660, 4200.512695, 4198.461426, 4194.871582, 4189.230469, 4293.846191, 4197.948730, 4215.897461, 4251.281738, 4211.794922, 3573.000000, 8184.000000, 8099.000000, 0.000000, 0.000000, 0.000000, 25865.000000, 406.666656, 4.000000, 4.000000, 4.000000, 4.000000, 4.000000, 4.000000, 4.000000, 4.000000, 4.000000, 4.000000, 4.000000, 4.000000, 4.000000, 4.000000, 4.000000, 4.000000
112.000000, 0.000000, 4184.615234, 4164.615234, 4206.153809, 4186.666504, 4195.897461, 4201.538574, 4200.000000, 4209.230469, 4202.563965, 4300.000000, 4197.436035, 4213.333008, 4261.538574, 4214.871582, 3259.000000, 8184.000000, 8099.000000, 0.000000, 0.000000, 0.000000, 25865.000000, 414.358978, 4.000000, 4.000000, 4.000000, 4.000000, 4.000000, 4.000000, 4.000000, 4.000000, 4.000000, 4.000000, 4.000000, 4.000000, 4.000000, 4.000000, 4.000000, 4.000000
113.000000, 0.000000, 4177.436035, 4154.358887, 4200.512695, 4178.974121, 4189.743652, 4201.025391, 4196.922852, 4203.589844, 4194.871582, 4296.410156, 4191.281738, 4201.025391, 4261.538574, 4208.205078, 3468.000000, 8177.000000, 8103.000000, 0.000000, 0.000000, 0.000000, 25865.000000, 422.564087, 4.000000, 4.000000, 4.000000, 4.000000, 4.000000, 4.000000, 4.000000, 4.000000, 4.000000, 4.000000, 4.000000, 4.000000, 4.000000, 4.000000, 4.000000, 4.000000
114.000000, 0.000000, 4168.717773, 4148.205078, 4184.102539, 4180.512695, 4197.436035, 4196.410156, 4196.410156, 4180.512695, 4169.230469, 4278.974121, 4186.153809, 4182.563965, 4258.974121, 4196.922852, 3308.000000, 8177.000000, 8103.000000, 0.000000, 0.000000, 0.000000, 25865.000000, 430.256409, 4.000000, 4.000000, 4.000000, 4.000000, 4.000000, 4.000000, 4.000000, 4.000000, 4.000000, 4.000000, 4.000000, 4.000000, 4.000000, 4.000000, 4.000000, 4.000000
115.000000, 0.000000, 4168.205078, 4156.922852, 4168.205078, 4181.538574, 4201.538574, 4202.051270, 4200.512695, 4172.820313, 4171.281738, 4281.538574, 4192.820313, 4184.102539, 4266.153809, 4200.000000, 3573.000000, 8158.000000, 8116.000000, 0.000000, 0.000000, 0.000000, 25865.000000, 437.948700, 4.000000, 4.000000, 4.000000, 4.000000, 4.000000, 4.000000, 4.000000, 4.000000, 4.000000, 4.000000, 4.000000, 4.000000, 4.000000, 4.000000, 4.000000, 4.000000
116.000000, 0.000000, 4171.281738, 4171.794922, 4168.717773, 4182.563965, 4198.461426, 4215.384277, 4201.538574, 4190.256348, 4193.846191, 4299.487305, 4205.127930, 4201.025391, 4276.410156, 4207.179199, 3259.000000, 8158.000000, 8116.000000, 0.000000, 0.000000, 0.000000, 25865.000000, 446.153839, 4.000000, 4.000000, 4.000000, 4.000000, 4.000000, 4.000000, 4.000000, 4.000000, 4.000000, 4.000000, 4.000000, 4.000000, 4.000000, 4.000000, 4.000000, 4.000000
117.000000, 0.000000, 4175.384277, 4181.538574, 4187.692383, 4188.205078, 4206.666504, 4220.000000, 4205.127930, 4209.230469, 4205.127930, 4305.127930, 4216.410156, 4221.025391, 4288.205078, 4215.897461, 3468.000000, 8155.000000, 8119.000000, 0.000000, 0.000000, 0.000000, 25865.000000, 454.358978, 4.000000, 4.000000, 4.000000, 4.000000, 4.000000, 4.000000, 4.000000, 4.000000, 4.000000, 4.000000, 4.000000, 4.000000, 4.000000, 4.000000, 4.000000, 4.000000
118.000000, 0.000000, 4194.358887, 4189.743652, 4218.974121, 4194.358887, 4220.000000, 4221.538574, 4214.358887, 4198.974121, 4205.127930, 4310.256348, 4226.153809, 4244.102539, 4299.487305, 4234.358887, 3308.000000, 8155.000000, 8119.000000, 0.000000, 0.000000, 0.000000, 25865.000000, 462.051270, 4.000000, 4.000000, 4.000000, 4.000000, 4.000000, 4.000000, 4.000000, 4.000000, 4.000000, 4.000000, 4.000000, 4.000000, 4.000000, 4.000000, 4.000000, 4.000000
119.000000, 0.000000, 4204.102539, 4188.717773, 4234.871582, 4201.025391, 4212.307617, 4219.487305, 4219.487305, 4185.641113, 4198.461426, 4309.743652, 4224.615234, 4248.205078, 4292.307617, 4242.051270, 3573.000000, 8149.000000, 8124.000000, 0.000000, 0.000000, 0.000000, 25865.000000, 470.256409, 4.000000, 4.000000, 4.000000, 4.000000, 4.000000, 4.000000, 4.000000, 4.000000, 4.000000, 4.000000, 4.000000, 4.000000, 4.000000, 4.000000, 4.000000, 4.000000
120.000000, 0.000000, 4192.820313, 4179.487305, 4226.666504, 4194.358887, 4203.076660, 4209.230469, 4212.820313, 4201.025391, 4193.846191, 4299.487305, 4216.410156, 4234.358887, 4278.974121, 4233.846191, 3259.000000, 8149.000000, 8124.000000, 0.000000, 0.000000, 0.000000, 25865.000000, 477.948700, 4.000000, 4.000000, 4.000000, 4.000000, 4.000000, 4.000000, 4.000000, 4.000000, 4.000000, 4.000000, 4.000000, 4.000000, 4.000000, 4.000000, 4.000000, 4.000000
121.000000, 0.000000, 4186.666504, 4173.333008, 4215.897461, 4189.743652, 4207.179199, 4206.666504, 4212.307617, 4223.076660, 4202.051270, 4300.000000, 4212.307617, 4230.769043, 4276.410156, 4232.307617, 3468.000000, 8136.000000, 8131.000000, 0.000000, 0.000000, 0.000000, 25865.000000, 486.153839, 4.000000, 4.000000, 4.000000, 4.000000, 4.000000, 4.000000, 4.000000, 4.000000, 4.000000, 4.000000, 4.000000, 4.000000, 4.000000, 4.000000, 4.000000, 4.000000
122.000000, 0.000000, 4183.589844, 4166.153809, 4203.589844, 4188.717773, 4202.563965, 4212.820313, 4217.948730, 4222.051270, 4204.102539, 4304.615234, 4204.102539, 4228.717773, 4271.794922, 4226.153809, 3308.000000, 8136.000000, 8131.000000, 0.000000, 0.000000, 0.000000, 25865.000000, 493.846130, 4.000000, 4.000000, 4.000000, 4.000000, 4.000000, 4.000000, 4.000000, 4.000000, 4.000000, 4.000000, 4.000000, 4.000000, 4.000000, 4.000000, 4.000000, 4.000000
123.000000, 0.000000, 4168.205078, 4157.436035, 4182.563965, 4176.410156, 4196.410156, 4207.692383, 4214.358887, 4212.820313, 4195.384277, 4299.487305, 4193.333008, 4208.717773, 4260.000000, 4202.563965, 3573.000000, 8125.000000, 8133.000000, 0.000000, 0.000000, 0.000000, 25865.000000, 502.051270, 4.000000, 4.000000, 4.000000, 4.000000, 4.000000, 4.000000, 4.000000, 4.000000, 4.000000, 4.000000, 4.000000, 4.000000, 4.000000, 4.000000, 4.000000, 4.000000
124.000000, 0.000000, 4155.897461, 4154.358887, 4168.205078, 4177.436035, 4199.487305, 4200.512695, 4214.358887, 4223.589844, 4198.974121, 4293.333008, 4185.127930, 4189.230469, 4249.230469, 4184.102539, 3259.000000, 8125.000000, 8133.000000, 0.000000, 0.000000, 0.000000, 25865.000000, 509.743591, 4.000000, 4.000000, 4.000000, 4.000000, 4.000000, 4.000000, 4.000000, 4.000000, 4.000000, 4.000000, 4.000000, 4.000000, 4.000000, 4.000000, 4.000000, 4.000000
125.000000, 0.000000, 4145.641113, 4152.820313, 4164.615234, 4180.512695, 4196.922852, 4205.127930, 4216.410156, 4224.102539, 4195.384277, 4285.641113, 4174.358887, 4175.897461, 4235.897461, 4168.717773, 3468.000000, 8112.000000, 8140.000000, 0.000000, 0.000000, 0.000000, 25865.000000, 517.948730, 4.000000, 4.000000, 4.000000, 4.000000, 4.000000, 4.000000, 4.000000, 4.000000, 4.000000, 4.000000, 4.000000, 4.000000, 4.000000, 4.000000, 4.000000, 4.000000
126.000000, 0.000000, 4141.025391, 4151.281738, 4163.589844, 4176.410156, 4190.256348, 4204.102539, 4206.153809, 4197.436035, 4175.384277, 4276.410156, 4166.666504, 4164.615234, 4230.256348, 4157.948730, 3308.000000, 8112.000000, 8140.000000, 0.000000, 0.000000, 0.000000, 25865.000000, 525.640991, 4.000000, 4.000000, 4.000000, 4.000000, 4.000000, 4.000000, 4.000000, 4.000000, 4.000000, 4.000000, 4.000000, 4.000000, 4.000000, 4.000000, 4.000000, 4.000000
127.000000, 0.000000, 4150.256348, 4154.358887, 4175.384277, 4179.487305, 4193.846191, 4199.487305, 4197.436035, 4175.897461, 4167.692383, 4268.717773, 4167.179199, 4168.205078, 4230.256348, 4161.025391, 53.000000, 8104.000000, 8147.000000, 0.000000, 0.000000, 0.000000, 25865.000000, 533.846130, 4.000000, 4.000000, 4.000000, 4.000000, 4.000000, 4.000000, 4.000000, 4.000000, 4.000000, 4.000000, 4.000000, 4.000000, 4.000000, 4.000000, 4.000000, 4.000000
0.000000, 0.000000, 4156.922852, 4155.384277, 4188.717773, 4179.487305, 4192.307617, 4202.051270, 4202.051270, 4171.794922, 4165.641113, 4262.051270, 4168.717773, 4182.563965, 4223.076660, 4167.179199, 3492.000000, 8104.000000, 8147.000000, 0.000000, 0.000000, 0.000000, 25865.000000, 541.538452, 4.000000, 4.000000, 4.000000, 4.000000, 4.000000, 4.000000, 4.000000, 4.000000, 4.000000, 4.000000, 4.000000, 4.000000, 4.000000, 4.000000, 4.000000, 4.000000
1.000000, 0.000000, 4163.589844, 4155.897461, 4187.692383, 4180.512695, 4183.589844, 4203.076660, 4203.076660, 4174.358887, 4163.589844, 4266.153809, 4182.051270, 4198.974121, 4232.820313, 4180.512695, 2279.000000, 8101.000000, 8139.000000, 0.000000, 0.000000, 0.000000, 25865.000000, 549.230774, 4.000000, 4.000000, 4.000000, 4.000000, 4.000000, 4.000000, 4.000000, 4.000000, 4.000000, 4.000000, 4.000000, 4.000000, 4.000000, 4.000000, 4.000000, 4.000000
2.000000, 0.000000, 4180.000000, 4167.692383, 4188.205078, 4181.538574, 4190.256348, 4200.512695, 4203.076660, 4170.769043, 4165.641113, 4280.000000, 4202.563965, 4212.307617, 4262.051270, 4208.205078, 3127.000000, 8101.000000, 8139.000000, 0.000000, 0.000000, 0.000000, 25865.000000, 556.923035, 4.000000, 4.000000, 4.000000, 4.000000, 4.000000, 4.000000, 4.000000, 4.000000, 4.000000, 4.000000, 4.000000, 4.000000, 4.000000, 4.000000, 4.000000, 4.000000
3.000000, 0.000000, 4196.410156, 4182.563965, 4198.974121, 4183.076660, 4204.102539, 4197.948730, 4201.025391, 4159.487305, 4159.487305, 4281.025391, 4212.307617, 4218.974121, 4277.436035, 4231.794922, 3551.000000, 8096.000000, 8137.000000, 0.000000, 0.000000, 0.000000, 25865.000000, 565.128174, 4.000000, 4.000000, 4.000000, 4.000000, 4.000000, 4.000000, 4.000000, 4.000000, 4.000000, 4.000000, 4.000000, 4.000000, 4.000000, 4.000000, 4.000000, 4.000000
4.000000, 0.000000, 4202.563965, 4188.717773, 4204.102539, 4191.281738, 4207.179199, 4200.000000, 4190.769043, 4148.205078, 4149.743652, 4278.461426, 4213.333008, 4222.051270, 4278.461426, 4239.487305, 3528.000000, 8096.000000, 8137.000000, 0.000000, 0.000000, 0.000000, 25865.000000, 572.820496, 4.000000, 4.000000, 4.000000, 4.000000, 4.000000, 4.000000, 4.000000, 4.000000, 4.000000, 4.000000, 4.000000, 4.000000, 4.000000, 4.000000, 4.000000, 4.000000
5.000000, 0.000000, 4203.589844, 4187.692383, 4201.538574, 4189.230469, 4206.153809, 4209.743652, 4192.307617, 4149.230469, 4156.922852, 4281.025391, 4215.384277, 4217.436035, 4279.487305, 4239.487305, 3580.000000, 8089.000000, 8134.000000, 0.000000, 0.000000, 0.000000, 25865.000000, 581.025635, 4.000000, 4.000000, 4.000000, 4.000000, 4.000000, 4.000000, 4.000000, 4.000000, 4.000000, 4.000000, 4.000000, 4.000000, 4.000000, 4.000000, 4.000000, 4.000000
6.000000, 0.000000, 4201.025391, 4184.615234, 4197.436035, 4186.153809, 4205.127930, 4215.897461, 4204.102539, 4164.615234, 4171.794922, 4282.051270, 4212.307617, 4209.743652, 4278.974121, 4233.846191, 3499.000000, 8089.000000, 8134.000000, 0.000000, 0.000000, 0.000000, 25865.000000, 588.717957, 4.000000, 4.000000, 4.000000, 4.000000, 4.000000, 4.000000, 4.000000, 4.000000, 4.000000, 4.000000, 4.000000, 4.000000, 4.000000, 4.000000, 4.000000, 4.000000
7.000000, 0.000000, 4194.871582, 4183.589844, 4195.897461, 4185.641113, 4204.102539, 4212.820313, 4208.717773, 4193.333008, 4188.205078, 4288.205078, 4217.436035, 4211.281738, 4288.205078, 4233.333008, 3411.000000, 8083.000000, 8143.000000, 0.000000, 0.000000, 0.000000, 25865.000000, 596.923035, 4.000000, 4.000000, 4.000000, 4.000000, 4.000000, 4.000000, 4.000000, 4.000000, 4.000000, 4.000000, 4.000000, 4.000000, 4.000000, 4.000000, 4.000000, 4.000000
8.000000, 0.000000, 4193.333008, 4185.641113, 4199.487305, 4182.563965, 4205.641113, 4212.307617, 4210.769043, 4212.820313, 4199.487305, 4300.000000, 4230.256348, 4218.461426, 4299.487305, 4242.051270, 3343.000000, 8083.000000, 8143.000000, 0.000000, 0.000000, 0.000000, 25865.000000, 605.128174, 4.000000, 4.000000, 4.000000, 4.000000, 4.000000, 4.000000, 4.000000, 4.000000, 4.000000, 4.000000, 4.000000, 4.000000, 4.000000, 4.000000, 4.000000, 4.000000
9.000000, 0.000000, 4194.358887, 4180.000000, 4200.512695, 4186.666504, 4200.000000, 4213.846191, 4217.436035, 4218.461426, 4202.051270, 4304.615234, 4232.307617, 4224.615234, 4294.871582, 4241.538574, 3446.000000, 8078.000000, 8141.000000, 0.000000, 0.000000, 0.000000, 25865.000000, 612.820496, 4.000000, 4.000000, 4.000000, 4.000000, 4.000000, 4.000000, 4.000000, 4.000000, 4.000000, 4.000000, 4.000000, 4.000000, 4.000000, 4.000000, 4.000000, 4.000000
10.000000, 0.000000, 4200.512695, 4172.307617, 4206.153809, 4186.666504, 4192.820313, 4215.384277, 4229.230469, 4238.974121, 4214.871582, 4310.256348, 4236.410156, 4233.846191, 4296.410156, 4245.127930, 3303.000000, 8078.000000, 8141.000000, 0.000000, 0.000000, 0.000000, 25865.000000, 620.512817, 4.000000, 4.000000, 4.000000, 4.000000, 4.000000, 4.000000, 4.000000, 4.000000, 4.000000, 4.000000, 4.000000, 4.000000, 4.000000, 4.000000, 4.000000, 4.000000
11.000000, 0.000000, 4209.230469, 4174.358887, 4217.436035, 4185.127930, 4198.461426, 4216.922852, 4237.948730, 4249.230469, 4222.563965, 4320.512695, 4248.205078, 4246.666504, 4310.256348, 4258.974121, 3576.000000, 8068.000000, 8137.000000, 0.000000, 0.000000, 0.000000, 25865.000000, 628.717957, 4.000000, 4.000000, 4.000000, 4.000000, 4.000000, 4.000000, 4.000000, 4.000000, 4.000000, 4.000000, 4.000000, 4.000000, 4.000000, 4.000000, 4.000000, 4.000000
12.000000, 0.000000, 4210.256348, 4174.358887, 4220.512695, 4179.487305, 4204.102539, 4210.256348, 4233.846191, 4233.333008, 4215.897461, 4326.666504, 4251.794922, 4254.871582, 4312.820313, 4266.153809, 3448.000000, 8068.000000, 8137.000000, 0.000000, 0.000000, 0.000000, 25865.000000, 636.410217, 4.000000, 4.000000, 4.000000, 4.000000, 4.000000, 4.000000, 4.000000, 4.000000, 4.000000, 4.000000, 4.000000, 4.000000, 4.000000, 4.000000, 4.000000, 4.000000
13.000000, 0.000000, 4211.281738, 4167.179199, 4221.025391, 4173.846191, 4198.461426, 4201.025391, 4228.717773, 4237.948730, 4222.563965, 4328.205078, 4247.692383, 4255.897461, 4306.153809, 4266.153809, 3466.000000, 8068.000000, 8141.000000, 0.000000, 0.000000, 0.000000, 25865.000000, 644.615356, 4.000000, 4.000000, 4.000000, 4.000000, 4.000000, 4.000000, 4.000000, 4.000000, 4.000000, 4.000000, 4.000000, 4.000000, 4.000000, 4.000000, 4.000000, 4.000000
14.000000, 0.000000, 4217.948730, 4166.666504, 4231.281738, 4182.051270, 4188.205078, 4202.563965, 4226.153809, 4256.922852, 4233.333008, 4328.205078, 4251.794922, 4256.922852, 4304.102539, 4269.230469, 3303.000000, 8068.000000, 8141.000000, 0.000000, 0.000000, 0.000000, 25865.000000, 652.307678, 4.000000, 4.000000, 4.000000, 4.000000, 4.000000, 4.000000, 4.000000, 4.000000, 4.000000, 4.000000, 4.000000, 4.000000, 4.000000, 4.000000, 4.000000, 4.000000
15.000000, 0.000000, 4214.358887, 4165.127930, 4226.666504, 4180.512695, 4185.127930, 4203.589844, 4227.179199, 4252.307617, 4225.641113, 4321.025391, 4246.666504, 4247.179199, 4297.948730, 4260.000000, 3576.000000, 8068.000000, 8140.000000, 0.000000, 0.000000, 0.000000, 25865.000000, 660.512817, 4.000000, 4.000000, 4.000000, 4.000000, 4.000000, 4.000000, 4.000000, 4.000000, 4.000000, 4.000000, 4.000000, 4.000000, 4.000000, 4.000000, 4.000000, 4.000000
16.000000, 0.000000, 4197.436035, 4158.974121, 4208.205078, 4175.897461, 4189.743652, 4200.512695, 4230.256348, 4234.871582, 4208.205078, 4306.666504, 4222.563965, 4226.153809, 4277.436035, 4236.922852, 0.000000, 8068.000000, 8140.000000, 0.000000, 0.000000, 0.000000, 25865.000000, 668.205139, 4.000000, 4.000000, 4.000000, 4.000000, 4.000000, 4.000000, 4.000000, 4.000000, 4.000000, 4.000000, 4.000000, 4.000000, 4.000000, 4.000000, 4.000000, 4.000000
17.000000, 0.000000, 4192.307617, 4165.127930, 4207.692383, 4182.051270, 4192.820313, 4200.512695, 4223.076660, 4212.307617, 4191.794922, 4293.333008, 4210.769043, 4215.897461, 4263.076660, 4226.153809, 0.000000, 8063.000000, 8138.000000, 0.000000, 0.000000, 0.000000, 25865.000000, 676.410217, 4.000000, 4.000000, 4.000000, 4.000000, 4.000000, 4.000000, 4.000000, 4.000000, 4.000000, 4.000000, 4.000000, 4.000000, 4.000000, 4.000000, 4.000000, 4.000000
18.000000, 0.000000, 4197.436035, 4175.384277, 4216.922852, 4185.127930, 4191.794922, 4203.589844, 4214.358887, 4201.025391, 4181.538574, 4284.615234, 4214.358887, 4219.487305, 4261.025391, 4226.153809, 0.000000, 8063.000000, 8138.000000, 0.000000, 0.000000, 0.000000, 25865.000000, 684.102539, 4.000000, 4.000000, 4.000000, 4.000000, 4.000000, 4.000000, 4.000000, 4.000000, 4.000000, 4.000000, 4.000000, 4.000000, 4.000000, 4.000000, 4.000000, 4.000000
19.000000, 0.000000, 4192.307617, 4172.820313, 4213.846191, 4185.641113, 4196.922852, 4205.127930, 4213.333008, 4211.794922, 4184.102539, 4280.512695, 4214.871582, 4218.974121, 4262.563965, 4220.000000, 0.000000, 8062.000000, 8136.000000, 0.000000, 0.000000, 0.000000, 25865.000000, 691.794861, 4.000000, 4.000000, 4.000000, 4.000000, 4.000000, 4.000000, 4.000000, 4.000000, 4.000000, 4.000000, 4.000000, 4.000000, 4.000000, 4.000000, 4.000000, 4.000000
20.000000, 0.000000, 4184.615234, 4170.769043, 4203.076660, 4179.487305, 4202.051270, 4196.410156, 4206.153809, 4213.333008, 4181.538574, 4278.974121, 4213.846191, 4211.794922, 4262.051270, 4217.436035, 0.000000, 8062.000000, 8136.000000, 0.000000, 0.000000, 0.000000, 25865.000000, 700.000000, 4.000000, 4.000000, 4.000000, 4.000000, 4.000000, 4.000000, 4.000000, 4.000000, 4.000000, 4.000000, 4.000000, 4.000000, 4.000000, 4.000000, 4.000000, 4.000000
21.000000, 0.000000, 4183.589844, 4171.794922, 4200.000000, 4178.974121, 4198.461426, 4184.102539, 4200.000000, 4192.820313, 4167.179199, 4274.871582, 4213.846191, 4211.281738, 4262.051270, 4222.563965, 0.000000, 8059.000000, 8136.000000, 0.000000, 0.000000, 0.000000, 25865.000000, 707.692261, 4.000000, 4.000000, 4.000000, 4.000000, 4.000000, 4.000000, 4.000000, 4.000000, 4.000000, 4.000000, 4.000000, 4.000000, 4.000000, 4.000000, 4.000000, 4.000000
22.000000, 0.000000, 4188.717773, 4171.794922, 4206.666504, 4184.615234, 4201.025391, 4189.743652, 4213.333008, 4185.641113, 4165.127930, 4273.846191, 4215.897461, 4220.512695, 4267.179199, 4229.230469, 0.000000, 8059.000000, 8136.000000, 0.000000, 0.000000, 0.000000, 25865.000000, 715.897400, 4.000000, 4.000000, 4.000000, 4.000000, 4.000000, 4.000000, 4.000000, 4.000000, 4.000000, 4.000000, 4.000000, 4.000000, 4.000000, 4.000000, 4.000000, 4.000000
23.000000, 0.000000, 4202.563965, 4180.512695, 4215.897461, 4184.615234, 4204.102539, 4194.871582, 4217.436035, 4199.487305, 4176.410156, 4280.512695, 4228.205078, 4229.230469, 4276.410156, 4240.512695, 0.000000, 8058.000000, 8136.000000, 0.000000, 0.000000, 0.000000, 25865.000000, 723.589722, 4.000000, 4.000000, 4.000000, 4.000000, 4.000000, 4.000000, 4.000000, 4.000000, 4.000000, 4.000000, 4.000000, 4.000000, 4.000000, 4.000000, 4.000000, 4.000000
24.000000, 0.000000, 4207.179199, 4181.025391, 4219.487305, 4185.127930, 4190.256348, 4185.641113, 4202.563965, 4196.410156, 4176.922852, 4279.487305, 4229.743652, 4229.743652, 4274.871582, 4244.102539, 0.000000, 8058.000000, 8136.000000, 0.000000, 0.000000, 0.000000, 25865.000000, 731.794861, 4.000000, 4.000000, 4.000000, 4.000000, 4.000000, 4.000000, 4.000000, 4.000000, 4.000000, 4.000000, 4.000000, 4.000000, 4.000000, 4.000000, 4.000000, 4.000000
25.000000, 0.000000, 4195.897461, 4169.230469, 4210.256348, 4178.461426, 4189.743652, 4187.692383, 4196.922852, 4172.820313, 4164.102539, 4261.538574, 4209.230469, 4218.974121, 4254.871582, 4230.769043, 0.000000, 8062.000000, 8138.000000, 0.000000, 0.000000, 0.000000, 25865.000000, 739.487183, 4.000000, 4.000000, 4.000000, 4.000000, 4.000000, 4.000000, 4.000000, 4.000000, 4.000000, 4.000000, 4.000000, 4.000000, 4.000000, 4.000000, 4.000000, 4.000000
26.000000, 0.000000, 4186.153809, 4159.487305, 4194.358887, 4174.871582, 4209.743652, 4202.051270, 4206.666504, 4178.974121, 4166.153809, 4244.102539, 4191.281738, 4206.666504, 4234.358887, 4212.820313, 0.000000, 8062.000000, 8138.000000, 0.000000, 0.000000, 0.000000, 25865.000000, 747.179443, 4.000000, 4.000000, 4.000000, 4.000000, 4.000000, 4.000000, 4.000000, 4.000000, 4.000000, 4.000000, 4.000000, 4.000000, 4.000000, 4.000000, 4.000000, 4.000000
27.000000, 0.000000, 4176.922852, 4154.871582, 4182.051270, 4173.333008, 4211.281738, 4207.692383, 4222.051270, 4214.871582, 4184.615234, 4242.563965, 4184.102539, 4197.948730, 4225.127930, 4198.974121, 0.000000, 8060.000000, 8138.000000, 0.000000, 0.000000, 0.000000, 25865.000000, 755.384583, 4.000000, 4.000000, 4.000000, 4.000000, 4.000000, 4.000000, 4.000000, 4.000000, 4.000000, 4.000000, 4.000000, 4.000000, 4.000000, 4.000000, 4.000000, 4.000000
28.000000, 0.000000, 4168.717773, 4155.384277, 4177.436035, 4166.153809, 4196.922852, 4203.589844, 4222.051270, 4221.538574, 4190.769043, 4248.717773, 4178.461426, 4188.717773, 4220.512695, 4188.717773, 0.000000, 8060.000000, 8138.000000, 0.000000, 0.000000, 0.000000, 25865.000000, 763.076904, 4.000000, 4.000000, 4.000000, 4.000000, 4.000000, 4.000000, 4.000000, 4.000000, 4.000000, 4.000000, 4.000000, 4.000000, 4.000000, 4.000000, 4.000000, 4.000000
29.000000, 0.000000, 4172.307617, 4163.076660, 4180.512695, 4173.333008, 4196.922852, 4194.871582, 4207.179199, 4201.538574, 4184.615234, 4246.153809, 4177.948730, 4187.692383, 4220.512695, 4187.692383, 0.000000, 8063.000000, 8139.000000, 0.000000, 0.000000, 0.000000, 25865.000000, 771.282043, 4.000000, 4.000000, 4.000000, 4.000000, 4.000000, 4.000000, 4.000000, 4.000000, 4.000000, 4.000000, 4.000000, 4.000000, 4.000000, 4.000000, 4.000000, 4.000000
30.000000, 0.000000, 4183.076660, 4180.000000, 4192.820313, 4182.051270, 4201.538574, 4188.717773, 4198.461426, 4194.871582, 4188.205078, 4250.769043, 4189.743652, 4198.461426, 4233.846191, 4203.076660, 0.000000, 8063.000000, 8139.000000, 0.000000, 0.000000, 0.000000, 25865.000000, 778.974365, 4.000000, 4.000000, 4.000000, 4.000000, 4.000000, 4.000000, 4.000000, 4.000000, 4.000000, 4.000000, 4.000000, 4.000000, 4.000000, 4.000000, 4.000000, 4.000000
31.000000, 0.000000, 4196.922852, 4197.436035, 4211.281738, 4189.743652, 4199.487305, 4189.230469, 4199.487305, 4205.127930, 4205.127930, 4272.307617, 4210.769043, 4214.358887, 4256.410156, 4225.127930, 0.000000, 8064.000000, 8146.000000, 0.000000, 0.000000, 0.000000, 25865.000000, 786.666626, 4.000000, 4.000000, 4.000000, 4.000000, 4.000000, 4.000000, 4.000000, 4.000000, 4.000000, 4.000000, 4.000000, 4.000000, 4.000000, 4.000000, 4.000000, 4.000000
32.000000, 0.000000, 4207.179199, 4203.076660, 4220.000000, 4196.410156, 4202.051270, 4185.641113, 4200.000000, 4215.897461, 4216.410156, 4285.641113, 4226.153809, 4226.666504, 4268.205078, 4235.897461, 0.000000, 8064.000000, 8146.000000, 0.000000, 0.000000, 0.000000, 25865.000000, 794.871765, 4.000000, 4.000000, 4.000000, 4.000000, 4.000000, 4.000000, 4.000000, 4.000000, 4.000000, 4.000000, 4.000000, 4.000000, 4.000000, 4.000000, 4.000000, 4.000000
33.000000, 0.000000, 4212.820313, 4200.512695, 4217.948730, 4189.743652, 4204.615234, 4187.179199, 4201.025391, 4212.820313, 4212.820313, 4283.589844, 4229.743652, 4231.281738, 4268.205078, 4238.461426, 0.000000, 8066.000000, 8145.000000, 0.000000, 0.000000, 0.000000, 25865.000000, 802.564087, 4.000000, 4.000000, 4.000000, 4.000000, 4.000000, 4.000000, 4.000000, 4.000000, 4.000000, 4.000000, 4.000000, 4.000000, 4.000000, 4.000000, 4.000000, 4.000000
34.000000, 0.000000, 4217.436035, 4201.538574, 4220.000000, 4190.769043, 4200.000000, 4195.897461, 4203.076660, 4204.615234, 4207.179199, 4279.487305, 4226.666504, 4233.333008, 4268.717773, 4243.076660, 0.000000, 8066.000000, 8145.000000, 0.000000, 0.000000, 0.000000, 25865.000000, 810.256409, 4.000000, 4.000000, 4.000000, 4.000000, 4.000000, 4.000000, 4.000000, 4.000000, 4.000000, 4.000000, 4.000000, 4.000000, 4.000000, 4.000000, 4.000000, 4.000000
35.000000, 0.000000, 4215.897461, 4200.512695, 4218.461426, 4191.794922, 4197.436035, 4191.794922, 4200.512695, 4205.641113, 4207.692383, 4275.384277, 4223.589844, 4229.743652, 4265.127930, 4241.538574, 0.000000, 8066.000000, 8135.000000, 0.000000, 0.000000, 0.000000, 25865.000000, 818.461548, 4.000000, 4.000000, 4.000000, 4.000000, 4.000000, 4.000000, 4.000000, 4.000000, 4.000000, 4.000000, 4.000000, 4.000000, 4.000000, 4.000000, 4.000000, 4.000000
36.000000, 0.000000, 4205.127930, 4190.769043, 4207.692383, 4183.589844, 4203.076660, 4189.230469, 4201.025391, 4207.179199, 4202.563965, 4263.589844, 4214.871582, 4218.461426, 4254.358887, 4222.051270, 0.000000, 8066.000000, 8135.000000, 0.000000, 0.000000, 0.000000, 25865.000000, 826.153809, 4.000000, 4.000000, 4.000000, 4.000000, 4.000000, 4.000000, 4.000000, 4.000000, 4.000000, 4.000000, 4.000000, 4.000000, 4.000000, 4.000000, 4.000000, 4.000000
37.000000, 0.000000, 4193.333008, 4183.589844, 4197.948730, 4180.000000, 4207.179199, 4193.333008, 4205.127930, 4196.410156, 4189.230469, 4250.256348, 4201.538574, 4204.615234, 4242.051270, 4202.051270, 0.000000, 8068.000000, 8131.000000, 0.000000, 0.000000, 0.000000, 25865.000000, 833.846130, 4.000000, 4.000000, 4.000000, 4.000000, 4.000000, 4.000000, 4.000000, 4.000000, 4.000000, 4.000000, 4.000000, 4.000000, 4.000000, 4.000000, 4.000000, 4.000000
38.000000, 0.000000, 4188.717773, 4187.179199, 4193.333008, 4180.000000, 4206.666504, 4196.922852, 4199.487305, 4183.589844, 4184.102539, 4248.205078, 4190.256348, 4196.922852, 4234.871582, 4196.410156, 0.000000, 8068.000000, 8131.000000, 0.000000, 0.000000, 0.000000, 25865.000000, 842.051270, 4.000000, 4.000000, 4.000000, 4.000000, 4.000000, 4.000000, 4.000000, 4.000000, 4.000000, 4.000000, 4.000000, 4.000000, 4.000000, 4.000000, 4.000000, 4.000000
39.000000, 0.000000, 4186.153809, 4190.256348, 4192.820313, 4182.563965, 4206.666504, 4196.410156, 4199.487305, 4186.666504, 4183.076660, 4243.589844, 4188.717773, 4201.538574, 4230.769043, 4198.974121, 0.000000, 8068.000000, 8133.000000, 0.000000, 0.000000, 0.000000, 25865.000000, 849.743591, 4.000000, 4.000000, 4.000000, 4.000000, 4.000000, 4.000000, 4.000000, 4.000000, 4.000000, 4.000000, 4.000000, 4.000000, 4.000000, 4.000000, 4.000000, 4.000000
40.000000, 0.000000, 4185.127930, 4185.127930, 4193.846191, 4179.487305, 4204.615234, 4190.769043, 4202.563965, 4200.512695, 4182.051270, 4233.333008, 4193.846191, 4209.230469, 4229.230469, 4205.127930, 0.000000, 8068.000000, 8133.000000, 0.000000, 0.000000, 0.000000, 25865.000000, 857.948669, 4.000000, 4.000000, 4.000000, 4.000000, 4.000000, 4.000000, 4.000000, 4.000000, 4.000000, 4.000000, 4.000000, 4.000000, 4.000000, 4.000000, 4.000000, 4.000000
41.000000, 0.000000, 4195.897461, 4191.281738, 4202.563965, 4178.974121, 4200.000000, 4188.717773, 4185.127930, 4204.615234, 4189.230469, 4238.461426, 4204.615234, 4216.922852, 4236.922852, 4221.538574, 0.000000, 8066.000000, 8132.000000, 0.000000, 0.000000, 0.000000, 25865.000000, 866.153809, 4.000000, 4.000000, 4.000000, 4.000000, 4.000000, 4.000000, 4.000000, 4.000000, 4.000000, 4.000000, 4.000000, 4.000000, 4.000000, 4.000000, 4.000000, 4.000000
42.000000, 0.000000, 4212.307617, 4205.641113, 4214.358887, 4191.794922, 4203.076660, 4196.922852, 4176.922852, 4196.410156, 4198.974121, 4250.256348, 4214.358887, 4225.641113, 4251.281738, 4239.487305, 0.000000, 8066.000000, 8132.000000, 0.000000, 0.000000, 0.000000, 25865.000000, 873.846130, 4.000000, 4.000000, 4.000000, 4.000000, 4.000000, 4.000000, 4.000000, 4.000000, 4.000000, 4.000000, 4.000000, 4.000000, 4.000000, 4.000000, 4.000000, 4.000000
43.000000, 0.000000, 4220.512695, 4212.307617, 4218.461426, 4192.820313, 4214.358887, 4206.666504, 4200.512695, 4192.307617, 4202.051270, 4253.846191, 4217.436035, 4229.230469, 4258.461426, 4247.179199, 0.000000, 8068.000000, 8142.000000, 0.000000, 0.000000, 0.000000, 25865.000000, 881.538452, 4.000000, 4.000000, 4.000000, 4.000000, 4.000000, 4.000000, 4.000000, 4.000000, 4.000000, 4.000000, 4.000000, 4.000000, 4.000000, 4.000000, 4.000000, 4.000000
44.000000, 0.000000, 4222.051270, 4214.358887, 4217.948730, 4192.820313, 4219.487305, 4209.743652, 4208.717773, 4206.153809, 4209.230469, 4260.000000, 4227.179199, 4232.820313, 4262.563965, 4252.307617, 0.000000, 8068.000000, 8142.000000, 0.000000, 0.000000, 0.000000, 25865.000000, 889.230774, 4.000000, 4.000000, 4.000000, 4.000000, 4.000000, 4.000000, 4.000000, 4.000000, 4.000000, 4.000000, 4.000000, 4.000000, 4.000000, 4.000000, 4.000000, 4.000000
45.000000, 0.000000, 4217.948730, 4206.666504, 4216.922852, 4191.281738, 4215.384277, 4211.794922, 4201.025391, 4221.025391, 4219.487305, 4264.102539, 4232.307617, 4238.461426, 4260.000000, 4247.692383, 0.000000, 8088.000000, 8156.000000, 0.000000, 0.000000, 0.000000, 25865.000000, 897.435852, 4.000000, 4.000000, 4.000000, 4.000000, 4.000000, 4.000000, 4.000000, 4.000000, 4.000000, 4.000000, 4.000000, 4.000000, 4.000000, 4.000000, 4.000000, 4.000000
46.000000, 0.000000, 4211.794922, 4188.205078, 4217.948730, 4181.538574, 4205.641113, 4215.384277, 4214.871582, 4210.769043, 4216.410156, 4256.922852, 4221.538574, 4236.922852, 4245.127930, 4232.820313, 0.000000, 8088.000000, 8156.000000, 0.000000, 0.000000, 0.000000, 25865.000000, 905.128174, 4.000000, 4.000000, 4.000000, 4.000000, 4.000000, 4.000000, 4.000000, 4.000000, 4.000000, 4.000000, 4.000000, 4.000000, 4.000000, 4.000000, 4.000000, 4.000000
47.000000, 0.000000, 4217.436035, 4184.615234, 4225.127930, 4186.666504, 4198.461426, 4214.871582, 4221.025391, 4210.256348, 4214.871582, 4260.512695, 4223.589844, 4234.871582, 4246.153809, 4238.974121, 0.000000, 8092.000000, 8158.000000, 0.000000, 0.000000, 0.000000, 25865.000000, 913.333313, 4.000000, 4.000000, 4.000000, 4.000000, 4.000000, 4.000000, 4.000000, 4.000000, 4.000000, 4.000000, 4.000000, 4.000000, 4.000000, 4.000000, 4.000000, 4.000000
48.000000, 0.000000, 4221.025391, 4186.666504, 4229.743652, 4187.179199, 4199.487305, 4205.641113, 4205.127930, 4233.846191, 4220.512695, 4263.589844, 4234.358887, 4235.897461, 4257.948730, 4248.717773, 0.000000, 8092.000000, 8158.000000, 0.000000, 0.000000, 0.000000, 25865.000000, 921.025635, 4.000000, 4.000000, 4.000000, 4.000000, 4.000000, 4.000000, 4.000000, 4.000000, 4.000000, 4.000000, 4.000000, 4.000000, 4.000000, 4.000000, 4.000000, 4.000000
49.000000, 0.000000, 4211.281738, 4174.358887, 4219.487305, 4178.461426, 4201.538574, 4200.000000, 4207.179199, 4228.717773, 4214.358887, 4248.717773, 4224.615234, 4231.794922, 4250.769043, 4235.897461, 0.000000, 8097.000000, 8161.000000, 0.000000, 0.000000, 0.000000, 25865.000000, 929.230774, 4.000000, 4.000000, 4.000000, 4.000000, 4.000000, 4.000000, 4.000000, 4.000000, 4.000000, 4.000000, 4.000000, 4.000000, 4.000000, 4.000000, 4.000000, 4.000000
50.000000, 0.000000, 4208.717773, 4173.846191, 4212.307617, 4181.025391, 4206.153809, 4213.333008, 4218.461426, 4207.692383, 4209.743652, 4244.615234, 4214.871582, 4228.205078, 4242.563965, 4231.281738, 0.000000, 8097.000000, 8161.000000, 0.000000, 0.000000, 0.000000, 25865.000000, 936.923035, 4.000000, 4.000000, 4.000000, 4.000000, 4.000000, 4.000000, 4.000000, 4.000000, 4.000000, 4.000000, 4.000000, 4.000000, 4.000000, 4.000000, 4.000000, 4.000000
51.000000, 0.000000, 4220.000000, 4185.641113, 4217.948730, 4188.205078, 4215.897461, 4217.436035, 4211.281738, 4220.000000, 4215.384277, 4248.205078, 4224.102539, 4229.743652, 4251.794922, 4247.179199, 0.000000, 8116.000000, 8172.000000, 0.000000, 0.000000, 0.000000, 25865.000000, 944.615356, 4.000000, 4.000000, 4.000000, 4.000000, 4.000000, 4.000000, 4.000000, 4.000000, 4.000000, 4.000000, 4.000000, 4.000000, 4.000000, 4.000000, 4.000000, 4.000000
52.000000, 0.000000, 4219.487305, 4186.153809, 4221.025391, 4191.281738, 4217.436035, 4202.051270, 4196.410156, 4223.076660, 4209.230469, 4237.948730, 4221.538574, 4226.666504, 4249.743652, 4247.692383, 0.000000, 8116.000000, 8172.000000, 0.000000, 0.000000, 0.000000, 25865.000000, 952.820496, 4.000000, 4.000000, 4.000000, 4.000000, 4.000000, 4.000000, 4.000000, 4.000000, 4.000000, 4.000000, 4.000000, 4.000000, 4.000000, 4.000000, 4.000000, 4.000000
53.000000, 0.000000, 4205.641113, 4181.025391, 4211.794922, 4184.102539, 4216.922852, 4194.871582, 4197.436035, 4198.974121, 4198.461426, 4227.692383, 4206.153809, 4215.384277, 4236.410156, 4230.769043, 0.000000, 8116.000000, 8171.000000, 0.000000, 0.000000, 0.000000, 25865.000000, 960.512817, 4.000000, 4.000000, 4.000000, 4.000000, 4.000000, 4.000000, 4.000000, 4.000000, 4.000000, 4.000000, 4.000000, 4.000000, 4.000000, 4.000000, 4.000000, 4.000000
54.000000, 0.000000, 4198.974121, 4175.897461, 4201.025391, 4184.615234, 4215.897461, 4197.948730, 4210.256348, 4194.871582, 4194.358887, 4221.538574, 4199.487305, 4205.127930, 4228.717773, 4218.461426, 0.000000, 8116.000000, 8171.000000, 0.000000, 0.000000, 0.000000, 25865.000000, 968.205078, 4.000000, 4.000000, 4.000000, 4.000000, 4.000000, 4.000000, 4.000000, 4.000000, 4.000000, 4.000000, 4.000000, 4.000000, 4.000000, 4.000000, 4.000000, 4.000000
55.000000, 0.000000, 4197.436035, 4171.281738, 4200.512695, 4188.717773, 4205.641113, 4188.717773, 4203.076660, 4196.922852, 4186.153809, 4212.820313, 4196.922852, 4202.563965, 4218.974121, 4212.307617, 0.000000, 8124.000000, 8177.000000, 0.000000, 0.000000, 0.000000, 25865.000000, 976.410217, 4.000000, 4.000000, 4.000000, 4.000000, 4.000000, 4.000000, 4.000000, 4.000000, 4.000000, 4.000000, 4.000000, 4.000000, 4.000000, 4.000000, 4.000000, 4.000000
56.000000, 0.000000, 4200.512695, 4179.487305, 4210.769043, 4188.717773, 4205.641113, 4180.000000, 4178.461426, 4189.743652, 4180.512695, 4213.333008, 4196.922852, 4207.692383, 4216.410156, 4213.333008, 0.000000, 8124.000000, 8177.000000, 0.000000, 0.000000, 0.000000, 25865.000000, 984.102539, 4.000000, 4.000000, 4.000000, 4.000000, 4.000000, 4.000000, 4.000000, 4.000000, 4.000000, 4.000000, 4.000000, 4.000000, 4.000000, 4.000000, 4.000000, 4.000000
57.000000, 0.000000, 4203.076660, 4187.179199, 4217.948730, 4193.333008, 4219.487305, 4194.358887, 4185.641113, 4193.846191, 4184.102539, 4217.948730, 4197.948730, 4212.820313, 4222.563965, 4214.358887, 0.000000, 8125.000000, 8175.000000, 0.000000, 0.000000, 0.000000, 25865.000000, 991.794861, 4.000000, 4.000000, 4.000000, 4.000000, 4.000000, 4.000000, 4.000000, 4.000000, 4.000000, 4.000000, 4.000000, 4.000000, 4.000000, 4.000000, 4.000000, 4.000000
58.000000, 0.000000, 4201.538574, 4181.538574, 4215.384277, 4190.769043, 4221.025391, 4209.743652, 4215.897461, 4207.179199, 4189.230469, 4215.897461, 4198.461426, 4212.307617, 4221.538574, 4212.307617, 0.000000, 8125.000000, 8175.000000, 0.000000, 0.000000, 0.000000, 25865.000000, 1000.000000, 4.000000, 4.000000, 4.000000, 4.000000, 4.000000, 4.000000, 4.000000, 4.000000, 4.000000, 4.000000, 4.000000, 4.000000, 4.000000, 4.000000, 4.000000, 4.000000
59.000000, 0.000000, 4202.563965, 4178.974121, 4212.820313, 4188.205078, 4215.384277, 4205.127930, 4215.384277, 4211.794922, 4195.384277, 4215.384277, 4200.512695, 4213.333008, 4217.948730, 4213.333008, 0.000000, 8136.000000, 8180.000000, 0.000000, 0.000000, 0.000000, 25866.000000, 7.692307, 4.000000, 4.000000, 4.000000, 4.000000, 4.000000, 4.000000, 4.000000, 4.000000, 4.000000, 4.000000, 4.000000, 4.000000, 4.000000, 4.000000, 4.000000, 4.000000
60.000000, 0.000000, 4206.153809, 4180.000000, 4219.487305, 4192.820313, 4218.974121, 4204.102539, 4204.102539, 4204.615234, 4191.281738, 4217.436035, 4202.051270, 4220.000000, 4224.102539, 4219.487305, 0.000000, 8136.000000, 8180.000000, 0.000000, 0.000000, 0.000000, 25866.000000, 15.384615, 4.000000, 4.000000, 4.000000, 4.000000, 4.000000, 4.000000, 4.000000, 4.000000, 4.000000, 4.000000, 4.000000, 4.000000, 4.000000, 4.000000, 4.000000, 4.000000
61.000000, 0.000000, 4211.281738, 4182.563965, 4228.205078, 4192.820313, 4222.051270, 4215.897461, 4212.820313, 4198.461426, 4183.076660, 4217.948730, 4208.717773, 4227.179199, 4233.333008, 4229.230469, 0.000000, 8137.000000, 8182.000000, 0.000000, 0.000000, 0.000000, 25866.000000, 23.589743, 4.000000, 4.000000, 4.000000, 4.000000, 4.000000, 4.000000, 4.000000, 4.000000, 4.000000, 4.000000, 4.000000, 4.000000, 4.000000, 4.000000, 4.000000, 4.000000
62.000000, 0.000000, 4215.897461, 4184.102539, 4230.256348, 4196.922852, 4216.410156, 4215.897461, 4217.436035, 4206.153809, 4189.743652, 4218.461426, 4216.410156, 4234.358887, 4233.846191, 4235.384277, 0.000000, 8137.000000, 8182.000000, 0.000000, 0.000000, 0.000000, 25866.000000, 31.282051, 4.000000, 4.000000, 4.000000, 4.000000, 4.000000, 4.000000, 4.000000, 4.000000, 4.000000, 4.000000, 4.000000, 4.000000, 4.000000, 4.000000, 4.000000, 4.000000
63.000000, 0.000000, 4213.333008, 4182.563965, 4226.153809, 4194.358887, 4216.922852, 4208.717773, 4211.794922, 4207.179199, 4194.871582, 4213.333008, 4214.871582, 4232.307617, 4232.820313, 4235.384277, 0.000000, 8136.000000, 8184.000000, 0.000000, 0.000000, 0.000000, 25866.000000, 38.974358, 4.000000, 4.000000, 4.000000, 4.000000, 4.000000, 4.000000, 4.000000, 4.000000, 4.000000, 4.000000, 4.000000, 4.000000, 4.000000, 4.000000, 4.000000, 4.000000
64.000000, 0.000000, 4204.102539, 4178.461426, 4218.974121, 4187.692383, 4221.538574, 4197.948730, 4199.487305, 4178.461426, 4182.051270, 4207.179199, 4209.230469, 4221.025391, 4230.769043, 4231.794922, 3492.000000, 8136.000000, 8184.000000, 0.000000, 0.000000, 0.000000, 25866.000000, 47.179485, 4.000000, 4.000000, 4.000000, 4.000000, 4.000000, 4.000000, 4.000000, 4.000000, 4.000000, 4.000000, 4.000000, 4.000000, 4.000000, 4.000000, 4.000000, 4.000000
65.000000, 0.000000, 4202.563965, 4175.897461, 4213.846191, 4186.666504, 4215.384277, 4185.127930, 4183.076660, 4163.589844, 4174.871582, 4208.717773, 4210.256348, 4216.410156, 4228.205078, 4227.179199, 2283.000000, 8129.000000, 8189.000000, 0.000000, 0.000000, 0.000000, 25866.000000, 55.384613, 4.000000, 4.000000, 4.000000, 4.000000, 4.000000, 4.000000, 4.000000, 4.000000, 4.000000, 4.000000, 4.000000, 4.000000, 4.000000, 4.000000, 4.000000, 4.000000
66.000000, 0.000000, 4213.846191, 4180.512695, 4220.512695, 4185.127930, 4209.743652, 4189.230469, 4186.153809, 4189.230469, 4191.281738, 4220.512695, 4218.974121, 4228.205078, 4236.922852, 4234.358887, 3127.000000, 8129.000000, 8189.000000, 0.000000, 0.000000, 0.000000, 25866.000000, 63.076923, 4.000000, 4.000000, 4.000000, 4.000000, 4.000000, 4.000000, 4.000000, 4.000000, 4.000000, 4.000000, 4.000000, 4.000000, 4.000000, 4.000000, 4.000000, 4.000000
67.000000, 0.000000, 4218.461426, 4181.025391, 4229.230469, 4188.205078, 4211.281738, 4203.589844, 4204.615234, 4217.436035, 4211.281738, 4225.127930, 4227.179199, 4236.922852, 4248.205078, 4245.641113, 3553.000000, 8134.000000, 8185.000000, 0.000000, 0.000000, 0.000000, 25866.000000, 70.769226, 4.000000, 4.000000, 4.000000, 4.000000, 4.000000, 4.000000, 4.000000, 4.000000, 4.000000, 4.000000, 4.000000, 4.000000, 4.000000, 4.000000, 4.000000, 4.000000
68.000000, 0.000000, 4215.384277, 4176.922852, 4229.230469, 4185.641113, 4208.205078, 4202.563965, 4203.076660, 4221.025391, 4217.948730, 4222.563965, 4230.256348, 4233.333008, 4246.666504, 4247.692383, 3531.000000, 8134.000000, 8185.000000, 0.000000, 0.000000, 0.000000, 25866.000000, 78.461540, 4.000000, 4.000000, 4.000000, 4.000000, 4.000000, 4.000000, 4.000000, 4.000000, 4.000000, 4.000000, 4.000000, 4.000000, 4.000000, 4.000000, 4.000000, 4.000000
69.000000, 0.000000, 4220.000000, 4174.871582, 4231.281738, 4182.051270, 4196.410156, 4196.410156, 4195.384277, 4213.333008, 4213.846191, 4225.127930, 4227.692383, 4232.307617, 4242.563965, 4249.230469, 3566.000000, 8141.000000, 8190.000000, 0.000000, 0.000000, 0.000000, 25866.000000, 86.666664, 4.000000, 4.000000, 4.000000, 4.000000, 4.000000, 4.000000, 4.000000, 4.000000, 4.000000, 4.000000, 4.000000, 4.000000, 4.000000, 4.000000, 4.000000, 4.000000
70.000000, 0.000000, 4221.538574, 4171.281738, 4234.871582, 4185.127930, 4182.563965, 4197.436035, 4209.743652, 4216.410156, 4206.666504, 4224.615234, 4221.538574, 4235.384277, 4240.512695, 4247.179199, 3497.000000, 8141.000000, 8190.000000, 0.000000, 0.000000, 0.000000, 25866.000000, 94.871796, 4.000000, 4.000000, 4.000000, 4.000000, 4.000000, 4.000000, 4.000000, 4.000000, 4.000000, 4.000000, 4.000000, 4.000000, 4.000000, 4.000000, 4.000000, 4.000000
71.000000, 0.000000, 4213.846191, 4168.717773, 4230.256348, 4180.000000, 4179.487305, 4192.820313, 4213.333008, 4217.948730, 4204.615234, 4218.974121, 4219.487305, 4229.743652, 4239.487305, 4239.487305, 3484.000000, 8136.000000, 8188.000000, 0.000000, 0.000000, 0.000000, 25866.000000, 102.564102, 4.000000, 4.000000, 4.000000, 4.000000, 4.000000, 4.000000, 4.000000, 4.000000, 4.000000, 4.000000, 4.000000, 4.000000, 4.000000, 4.000000, 4.000000, 4.000000
72.000000, 0.000000, 4210.769043, 4169.743652, 4222.563965, 4182.051270, 4192.307617, 4183.076660, 4191.281738, 4204.615234, 4203.076660, 4215.384277, 4221.538574, 4224.102539, 4234.871582, 4232.820313, 3343.000000, 8136.000000, 8188.000000, 0.000000, 0.000000, 0.000000, 25866.000000, 110.769226, 4.000000, 4.000000, 4.000000, 4.000000, 4.000000, 4.000000, 4.000000, 4.000000, 4.000000, 4.000000, 4.000000, 4.000000, 4.000000, 4.000000, 4.000000, 4.000000
73.000000, 0.000000, 4201.025391, 4172.820313, 4211.281738, 4187.179199, 4200.000000, 4180.512695, 4180.512695, 4191.794922, 4194.358887, 4210.769043, 4214.358887, 4215.384277, 4225.127930, 4220.512695, 3524.000000, 8134.000000, 8189.000000, 0.000000, 0.000000, 0.000000, 25866.000000, 118.461533, 4.000000, 4.000000, 4.000000, 4.000000, 4.000000, 4.000000, 4.000000, 4.000000, 4.000000, 4.000000, 4.000000, 4.000000, 4.000000, 4.000000, 4.000000, 4.000000
74.000000, 0.000000, 4187.179199, 4176.410156, 4198.461426, 4185.641113, 4200.512695, 4190.256348, 4191.281738, 4190.769043, 4185.641113, 4197.436035, 4199.487305, 4196.410156, 4215.384277, 4201.538574, 3305.000000, 8134.000000, 8189.000000, 0.000000, 0.000000, 0.000000, 25866.000000, 126.153847, 4.000000, 4.000000, 4.000000, 4.000000, 4.000000, 4.000000, 4.000000, 4.000000, 4.000000, 4.000000, 4.000000, 4.000000, 4.000000, 4.000000, 4.000000, 4.000000
75.000000, 0.000000, 4186.153809, 4183.589844, 4196.922852, 4189.743652, 4209.743652, 4200.512695, 4192.307617, 4187.179199, 4184.615234, 4186.153809, 4192.307617, 4187.179199, 4208.717773, 4193.333008, 3576.000000, 8133.000000, 8182.000000, 0.000000, 0.000000, 0.000000, 25866.000000, 134.358978, 4.000000, 4.000000, 4.000000, 4.000000, 4.000000, 4.000000, 4.000000, 4.000000, 4.000000, 4.000000, 4.000000, 4.000000, 4.000000, 4.000000, 4.000000, 4.000000
76.000000, 0.000000, 4190.769043, 4192.307617, 4201.538574, 4193.333008, 4215.384277, 4201.025391, 4181.538574, 4182.051270, 4186.153809, 4185.641113, 4197.436035, 4195.384277, 4209.743652, 4198.974121, 3506.000000, 8133.000000, 8182.000000, 0.000000, 0.000000, 0.000000, 25866.000000, 142.051285, 4.000000, 4.000000, 4.000000, 4.000000, 4.000000, 4.000000, 4.000000, 4.000000, 4.000000, 4.000000, 4.000000, 4.000000, 4.000000, 4.000000, 4.000000, 4.000000
77.000000, 0.000000, 4191.281738, 4197.948730, 4202.051270, 4197.436035, 4214.871582, 4200.512695, 4186.153809, 4183.076660, 4182.051270, 4184.102539, 4200.000000, 4201.538574, 4212.307617, 4200.000000, 3466.000000, 8133.000000, 8177.000000, 0.000000, 0.000000, 0.000000, 25866.000000, 150.256409, 4.000000, 4.000000, 4.000000, 4.000000, 4.000000, 4.000000, 4.000000, 4.000000, 4.000000, 4.000000, 4.000000, 4.000000, 4.000000, 4.000000, 4.000000, 4.000000
78.000000, 0.000000, 4193.333008, 4201.025391, 4204.615234, 4196.410156, 4218.974121, 4200.512695, 4198.461426, 4186.153809, 4182.563965, 4181.538574, 4198.461426, 4204.102539, 4212.307617, 4198.974121, 3305.000000, 8133.000000, 8177.000000, 0.000000, 0.000000, 0.000000, 25866.000000, 158.461533, 4.000000, 4.000000, 4.000000, 4.000000, 4.000000, 4.000000, 4.000000, 4.000000, 4.000000, 4.000000, 4.000000, 4.000000, 4.000000, 4.000000, 4.000000, 4.000000
79.000000, 0.000000, 4201.538574, 4202.563965, 4211.281738, 4194.358887, 4221.025391, 4192.307617, 4192.820313, 4189.230469, 4185.127930, 4183.589844, 4201.025391, 4212.820313, 4210.769043, 4207.692383, 3576.000000, 8140.000000, 8175.000000, 0.000000, 0.000000, 0.000000, 25866.000000, 166.153839, 4.000000, 4.000000, 4.000000, 4.000000, 4.000000, 4.000000, 4.000000, 4.000000, 4.000000, 4.000000, 4.000000, 4.000000, 4.000000, 4.000000, 4.000000, 4.000000
80.000000, 0.000000, 4207.692383, 4201.025391, 4218.974121, 4197.948730, 4214.358887, 4183.589844, 4181.538574, 4186.666504, 4185.127930, 4185.641113, 4204.615234, 4220.000000, 4213.333008, 4217.436035, 3506.000000, 8140.000000, 8175.000000, 0.000000, 0.000000, 0.000000, 25866.000000, 173.846146, 4.000000, 4.000000, 4.000000, 4.000000, 4.000000, 4.000000, 4.000000, 4.000000, 4.000000, 4.000000, 4.000000, 4.000000, 4.000000, 4.000000, 4.000000, 4.000000
81.000000, 0.000000, 4209.230469, 4196.410156, 4225.127930, 4193.333008, 4205.641113, 4188.205078, 4187.692383, 4186.666504, 4192.307617, 4187.179199, 4206.153809, 4220.000000, 4217.436035, 4218.974121, 3466.000000, 8144.000000, 8181.000000, 0.000000, 0.000000, 0.000000, 25866.000000, 182.051285, 4.000000, 4.000000, 4.000000, 4.000000, 4.000000, 4.000000, 4.000000, 4.000000, 4.000000, 4.000000, 4.000000, 4.000000, 4.000000, 4.000000, 4.000000, 4.000000
82.000000, 0.000000, 4212.307617, 4191.281738, 4229.230469, 4193.846191, 4205.127930, 4197.436035, 4201.025391, 4197.436035, 4200.512695, 4194.358887, 4209.743652, 4230.256348, 4217.948730, 4222.563965, 3305.000000, 8144.000000, 8181.000000, 0.000000, 0.000000, 0.000000, 25866.000000, 190.256409, 4.000000, 4.000000, 4.000000, 4.000000, 4.000000, 4.000000, 4.000000, 4.000000, 4.000000, 4.000000, 4.000000, 4.000000, 4.000000, 4.000000, 4.000000, 4.000000
83.000000, 0.000000, 4211.281738, 4189.743652, 4227.179199, 4196.410156, 4208.205078, 4203.076660, 4207.692383, 4208.205078, 4201.538574, 4201.538574, 4216.922852, 4237.948730, 4218.974121, 4231.794922, 3576.000000, 8156.000000, 8182.000000, 0.000000, 0.000000, 0.000000, 25866.000000, 197.948715, 4.000000, 4.000000, 4.000000, 4.000000, 4.000000, 4.000000, 4.000000, 4.000000, 4.000000, 4.000000, 4.000000, 4.000000, 4.000000, 4.000000, 4.000000, 4.000000
84.000000, 0.000000, 4207.692383, 4186.666504, 4220.000000, 4190.256348, 4202.563965, 4196.410156, 4196.410156, 4202.051270, 4201.025391, 4195.897461, 4216.410156, 4223.589844, 4218.461426, 4232.820313, 3506.000000, 8156.000000, 8182.000000, 0.000000, 0.000000, 0.000000, 25866.000000, 205.641022, 4.000000, 4.000000, 4.000000, 4.000000, 4.000000, 4.000000, 4.000000, 4.000000, 4.000000, 4.000000, 4.000000, 4.000000, 4.000000, 4.000000, 4.000000, 4.000000
85.000000, 0.000000, 4207.692383, 4186.153809, 4216.922852, 4192.820313, 4197.948730, 4188.205078, 4181.538574, 4188.205078, 4200.000000, 4188.205078, 4208.205078, 4214.871582, 4218.461426, 4226.153809, 3466.000000, 8158.000000, 8183.000000, 0.000000, 0.000000, 0.000000, 25866.000000, 213.846146, 4.000000, 4.000000, 4.000000, 4.000000, 4.000000, 4.000000, 4.000000, 4.000000, 4.000000, 4.000000, 4.000000, 4.000000, 4.000000, 4.000000, 4.000000, 4.000000
86.000000, 0.000000, 4204.615234, 4188.717773, 4214.871582, 4191.281738, 4204.615234, 4195.897461, 4188.717773, 4187.692383, 4193.333008, 4187.692383, 4202.563965, 4216.410156, 4216.922852, 4221.538574, 3305.000000, 8158.000000, 8183.000000, 0.000000, 0.000000, 0.000000, 25866.000000, 222.051270, 4.000000, 4.000000, 4.000000, 4.000000, 4.000000, 4.000000, 4.000000, 4.000000, 4.000000, 4.000000, 4.000000, 4.000000, 4.000000, 4.000000, 4.000000, 4.000000
87.000000, 0.000000, 4196.410156, 4186.153809, 4207.692383, 4186.666504, 4204.615234, 4197.948730, 4196.410156, 4185.127930, 4186.153809, 4182.563965, 4195.384277, 4203.076660, 4207.692383, 4215.384277, 3576.000000, 8169.000000, 8185.000000, 0.000000, 0.000000, 0.000000, 25866.000000, 229.743591, 4.000000, 4.000000, 4.000000, 4.000000, 4.000000, 4.000000, 4.000000, 4.000000, 4.000000, 4.000000, 4.000000, 4.000000, 4.000000, 4.000000, 4.000000, 4.000000
88.000000, 0.000000, 4189.743652, 4182.051270, 4197.948730, 4186.153809, 4198.461426, 4183.076660, 4183.076660, 4171.794922, 4177.948730, 4170.256348, 4186.153809, 4185.641113, 4201.025391, 4205.641113, 3506.000000, 8169.000000, 8185.000000, 0.000000, 0.000000, 0.000000, 25866.000000, 237.435898, 4.000000, 4.000000, 4.000000, 4.000000, 4.000000, 4.000000, 4.000000, 4.000000, 4.000000, 4.000000, 4.000000, 4.000000, 4.000000, 4.000000, 4.000000, 4.000000
89.000000, 0.000000, 4188.717773, 4183.589844, 4190.769043, 4181.538574, 4200.000000, 4178.974121, 4177.948730, 4168.205078, 4174.358887, 4167.692383, 4186.153809, 4182.051270, 4203.076660, 4200.000000, 3466.000000, 8183.000000, 8169.000000, 0.000000, 0.000000, 0.000000, 25866.000000, 245.641022, 4.000000, 4.000000, 4.000000, 4.000000, 4.000000, 4.000000, 4.000000, 4.000000, 4.000000, 4.000000, 4.000000, 4.000000, 4.000000, 4.000000, 4.000000, 4.000000
90.000000, 0.000000, 4192.307617, 4189.743652, 4192.820313, 4187.692383, 4201.538574, 4186.666504, 4187.179199, 4175.897461, 4178.461426, 4174.358887, 4194.871582, 4188.717773, 4209.743652, 4205.641113, 3305.000000, 8183.000000, 8169.000000, 0.000000, 0.000000, 0.000000, 25866.000000, 253.846146, 4.000000, 4.000000, 4.000000, 4.000000, 4.000000, 4.000000, 4.000000, 4.000000, 4.000000, 4.000000, 4.000000, 4.000000, 4.000000, 4.000000, 4.000000, 4.000000
91.000000, 0.000000, 4200.512695, 4199.487305, 4200.512695, 4194.358887, 4197.436035, 4186.153809, 4185.641113, 4184.615234, 4186.153809, 4182.051270, 4202.563965, 4196.922852, 4216.410156, 4215.384277, 3576.000000, 8191.000000, 8168.000000, 0.000000, 0.000000, 0.000000, 25866.000000, 261.538452, 4.000000, 4.000000, 4.000000, 4.000000, 4.000000, 4.000000, 4.000000, 4.000000, 4.000000, 4.000000, 4.000000, 4.000000, 4.000000, 4.000000, 4.000000, 4.000000
92.000000, 0.000000, 4206.153809, 4206.666504, 4205.641113, 4195.897461, 4200.000000, 4187.179199, 4184.102539, 4200.000000, 4197.436035, 4191.281738, 4209.230469, 4206.666504, 4221.025391, 4218.974121, 3506.000000, 8191.000000, 8168.000000, 0.000000, 0.000000, 0.000000, 25866.000000, 269.230774, 4.000000, 4.000000, 4.000000, 4.000000, 4.000000, 4.000000, 4.000000, 4.000000, 4.000000, 4.000000, 4.000000, 4.000000, 4.000000, 4.000000, 4.000000, 4.000000
93.000000, 0.000000, 4201.025391, 4198.974121, 4200.512695, 4193.333008, 4205.641113, 4187.692383, 4187.179199, 4199.487305, 4198.461426, 4194.358887, 4213.333008, 4209.743652, 4220.512695, 4214.871582, 3466.000000, 8198.000000, 8165.000000, 0.000000, 0.000000, 0.000000, 25866.000000, 277.435883, 4.000000, 4.000000, 4.000000, 4.000000, 4.000000, 4.000000, 4.000000, 4.000000, 4.000000, 4.000000, 4.000000, 4.000000, 4.000000, 4.000000, 4.000000, 4.000000
94.000000, 0.000000, 4194.358887, 4190.256348, 4195.897461, 4186.153809, 4207.179199, 4185.127930, 4182.051270, 4185.641113, 4193.846191, 4190.769043, 4209.230469, 4204.102539, 4219.487305, 4211.281738, 3305.000000, 8198.000000, 8165.000000, 0.000000, 0.000000, 0.000000, 25866.000000, 285.641022, 4.000000, 4.000000, 4.000000, 4.000000, 4.000000, 4.000000, 4.000000, 4.000000, 4.000000, 4.000000, 4.000000, 4.000000, 4.000000, 4.000000, 4.000000, 4.000000
95.000000, 0.000000, 4193.333008, 4190.769043, 4199.487305, 4189.230469, 4207.179199, 4190.769043, 4182.563965, 4190.769043, 4196.922852, 4191.281738, 4206.153809, 4202.563965, 4220.000000, 4213.333008, 3576.000000, 8202.000000, 8161.000000, 0.000000, 0.000000, 0.000000, 25866.000000, 293.333313, 4.000000, 4.000000, 4.000000, 4.000000, 4.000000, 4.000000, 4.000000, 4.000000, 4.000000, 4.000000, 4.000000, 4.000000, 4.000000, 4.000000, 4.000000, 4.000000
96.000000, 0.000000, 4191.281738, 4189.743652, 4201.025391, 4190.256348, 4206.153809, 4193.333008, 4189.743652, 4194.358887, 4196.410156, 4189.230469, 4205.641113, 4204.615234, 4215.897461, 4211.794922, 3506.000000, 8202.000000, 8161.000000, 0.000000, 0.000000, 0.000000, 25866.000000, 301.025635, 4.000000, 4.000000, 4.000000, 4.000000, 4.000000, 4.000000, 4.000000, 4.000000, 4.000000, 4.000000, 4.000000, 4.000000, 4.000000, 4.000000, 4.000000, 4.000000
97.000000, 0.000000, 4188.717773, 4189.230469, 4201.538574, 4190.769043, 4207.692383, 4190.256348, 4188.717773, 4183.589844, 4185.641113, 4185.127930, 4202.563965, 4204.102539, 4214.871582, 4205.641113, 3466.000000, 8205.000000, 8157.000000, 0.000000, 0.000000, 0.000000, 25866.000000, 309.230774, 4.000000, 4.000000, 4.000000, 4.000000, 4.000000, 4.000000, 4.000000, 4.000000, 4.000000, 4.000000, 4.000000, 4.000000, 4.000000, 4.000000, 4.000000, 4.000000
98.000000, 0.000000, 4192.307617, 4196.922852, 4204.102539, 4194.871582, 4206.666504, 4196.410156, 4186.666504, 4180.512695, 4181.025391, 4180.512695, 4200.512695, 4203.589844, 4214.358887, 4201.538574, 3305.000000, 8205.000000, 8157.000000, 0.000000, 0.000000, 0.000000, 25866.000000, 316.923065, 4.000000, 4.000000, 4.000000, 4.000000, 4.000000, 4.000000, 4.000000, 4.000000, 4.000000, 4.000000, 4.000000, 4.000000, 4.000000, 4.000000, 4.000000, 4.000000
99.000000, 0.000000, 4199.487305, 4203.589844, 4205.641113, 4191.281738, 4201.025391, 4201.025391, 4192.820313, 4185.641113, 4184.102539, 4173.846191, 4198.974121, 4199.487305, 4205.641113, 4202.563965, 3576.000000, 8204.000000, 8158.000000, 0.000000, 0.000000, 0.000000, 25866.000000, 324.615387, 4.000000, 4.000000, 4.000000, 4.000000, 4.000000, 4.000000, 4.000000, 4.000000, 4.000000, 4.000000, 4.000000, 4.000000, 4.000000, 4.000000, 4.000000, 4.000000
100.000000, 0.000000, 4205.127930, 4204.615234, 4207.692383, 4195.897461, 4204.615234, 4195.897461, 4196.410156, 4190.256348, 4189.743652, 4174.871582, 4202.563965, 4204.102539, 4207.692383, 4208.205078, 3506.000000, 8204.000000, 8158.000000, 0.000000, 0.000000, 0.000000, 25866.000000, 332.820496, 4.000000, 4.000000, 4.000000, 4.000000, 4.000000, 4.000000, 4.000000, 4.000000, 4.000000, 4.000000, 4.000000, 4.000000, 4.000000, 4.000000, 4.000000, 4.000000
101.000000, 0.000000, 4212.307617, 4213.846191, 4216.410156, 4201.025391, 4220.000000, 4200.000000, 4199.487305, 4197.948730, 4201.025391, 4189.230469, 4214.871582, 4221.025391, 4224.102539, 4220.000000, 3466.000000, 8206.000000, 8162.000000, 0.000000, 0.000000, 0.000000, 25866.000000, 341.025635, 4.000000, 4.000000, 4.000000, 4.000000, 4.000000, 4.000000, 4.000000, 4.000000, 4.000000, 4.000000, 4.000000, 4.000000, 4.000000, 4.000000, 4.000000, 4.000000
102.000000, 0.000000, 4222.563965, 4221.025391, 4224.615234, 4201.025391, 4222.563965, 4204.615234, 4203.076660, 4195.384277, 4204.102539, 4196.410156, 4223.076660, 4228.717773, 4227.179199, 4227.179199, 3305.000000, 8206.000000, 8162.000000, 0.000000, 0.000000, 0.000000, 25866.000000, 348.717926, 4.000000, 4.000000, 4.000000, 4.000000, 4.000000, 4.000000, 4.000000, 4.000000, 4.000000, 4.000000, 4.000000, 4.000000, 4.000000, 4.000000, 4.000000, 4.000000
103.000000, 0.000000, 4216.410156, 4209.230469, 4220.000000, 4198.461426, 4207.692383, 4191.794922, 4195.897461, 4187.179199, 4195.897461, 4185.641113, 4212.820313, 4220.512695, 4214.871582, 4220.512695, 3576.000000, 8207.000000, 8155.000000, 0.000000, 0.000000, 0.000000, 25866.000000, 356.410248, 4.000000, 4.000000, 4.000000, 4.000000, 4.000000, 4.000000, 4.000000, 4.000000, 4.000000, 4.000000, 4.000000, 4.000000, 4.000000, 4.000000, 4.000000, 4.000000
104.000000, 0.000000, 4203.076660, 4195.897461, 4211.281738, 4188.717773, 4201.538574, 4179.487305, 4181.025391, 4187.179199, 4187.179199, 4174.871582, 4201.538574, 4210.256348, 4210.769043, 4212.307617, 3506.000000, 8207.000000, 8155.000000, 0.000000, 0.000000, 0.000000, 25866.000000, 364.615387, 4.000000, 4.000000, 4.000000, 4.000000, 4.000000, 4.000000, 4.000000, 4.000000, 4.000000, 4.000000, 4.000000, 4.000000, 4.000000, 4.000000, 4.000000, 4.000000
105.000000, 0.000000, 4207.692383, 4199.487305, 4213.333008, 4191.281738, 4205.127930, 4183.076660, 4180.000000, 4184.615234, 4182.563965, 4172.820313, 4198.974121, 4207.179199, 4210.769043, 4212.307617, 3466.000000, 8209.000000, 8159.000000, 0.000000, 0.000000, 0.000000, 25866.000000, 372.820496, 4.000000, 4.000000, 4.000000, 4.000000, 4.000000, 4.000000, 4.000000, 4.000000, 4.000000, 4.000000, 4.000000, 4.000000, 4.000000, 4.000000, 4.000000, 4.000000
106.000000, 0.000000, 4215.897461, 4205.641113, 4213.333008, 4195.384277, 4201.538574, 4194.871582, 4192.820313, 4180.000000, 4184.102539, 4172.820313, 4197.948730, 4205.127930, 4207.179199, 4214.358887, 3305.000000, 8209.000000, 8159.000000, 0.000000, 0.000000, 0.000000, 25866.000000, 380.512817, 4.000000, 4.000000, 4.000000, 4.000000, 4.000000, 4.000000, 4.000000, 4.000000, 4.000000, 4.000000, 4.000000, 4.000000, 4.000000, 4.000000, 4.000000, 4.000000
107.000000, 0.000000, 4201.538574, 4182.051270, 4203.589844, 4180.512695, 4187.692383, 4198.461426, 4203.589844, 4186.153809, 4186.153809, 4172.307617, 4196.410156, 4203.589844, 4202.051270, 4205.641113, 3576.000000, 8209.000000, 8156.000000, 0.000000, 0.000000, 0.000000, 25866.000000, 388.205109, 4.000000, 4.000000, 4.000000, 4.000000, 4.000000, 4.000000, 4.000000, 4.000000, 4.000000, 4.000000, 4.000000, 4.000000, 4.000000, 4.000000, 4.000000, 4.000000
108.000000, 0.000000, 4187.179199, 4159.487305, 4198.461426, 4171.281738, 4189.230469, 4198.974121, 4203.076660, 4194.871582, 4191.281738, 4174.871582, 4198.974121, 4204.615234, 4200.000000, 4197.436035, 3506.000000, 8209.000000, 8156.000000, 0.000000, 0.000000, 0.000000, 25866.000000, 396.410248, 4.000000, 4.000000, 4.000000, 4.000000, 4.000000, 4.000000, 4.000000, 4.000000, 4.000000, 4.000000, 4.000000, 4.000000, 4.000000, 4.000000, 4.000000, 4.000000
109.000000, 0.000000, 4190.769043, 4174.358887, 4202.563965, 4174.358887, 4203.076660, 4202.563965, 4198.974121, 4200.512695, 4201.538574, 4180.512695, 4199.487305, 4204.615234, 4200.000000, 4200.000000, 3466.000000, 8209.000000, 8158.000000, 0.000000, 0.000000, 0.000000, 25866.000000, 404.102539, 4.000000, 4.000000, 4.000000, 4.000000, 4.000000, 4.000000, 4.000000, 4.000000, 4.000000, 4.000000, 4.000000, 4.000000, 4.000000, 4.000000, 4.000000, 4.000000
110.000000, 0.000000, 4192.820313, 4191.794922, 4201.538574, 4180.512695, 4201.025391, 4200.000000, 4202.051270, 4200.000000, 4199.487305, 4171.794922, 4190.256348, 4202.563965, 4192.820313, 4199.487305, 3305.000000, 8209.000000, 8158.000000, 0.000000, 0.000000, 0.000000, 25866.000000, 412.307678, 4.000000, 4.000000, 4.000000, 4.000000, 4.000000, 4.000000, 4.000000, 4.000000, 4.000000, 4.000000, 4.000000, 4.000000, 4.000000, 4.000000, 4.000000, 4.000000
111.000000, 0.000000, 4189.743652, 4192.820313, 4195.384277, 4184.615234, 4196.922852, 4199.487305, 4199.487305, 4192.307617, 4186.666504, 4160.000000, 4183.589844, 4199.487305, 4181.538574, 4190.769043, 3576.000000, 8213.000000, 8161.000000, 0.000000, 0.000000, 0.000000, 25866.000000, 420.000000, 4.000000, 4.000000, 4.000000, 4.000000, 4.000000, 4.000000, 4.000000, 4.000000, 4.000000, 4.000000, 4.000000, 4.000000, 4.000000, 4.000000, 4.000000, 4.000000
112.000000, 0.000000, 4191.281738, 4200.000000, 4197.436035, 4200.000000, 4203.076660, 4200.512695, 4187.179199, 4183.076660, 4185.127930, 4158.974121, 4188.205078, 4196.410156, 4177.436035, 4186.666504, 3506.000000, 8213.000000, 8161.000000, 0.000000, 0.000000, 0.000000, 25866.000000, 428.205109, 4.000000, 4.000000, 4.000000, 4.000000, 4.000000, 4.000000, 4.000000, 4.000000, 4.000000, 4.000000, 4.000000, 4.000000, 4.000000, 4.000000, 4.000000, 4.000000
113.000000, 0.000000, 4195.384277, 4216.410156, 4202.051270, 4224.615234, 4204.615234, 4193.846191, 4182.563965, 4175.384277, 4183.076660, 4156.922852, 4184.102539, 4192.307617, 4173.846191, 4186.666504, 3466.000000, 8218.000000, 8162.000000, 0.000000, 0.000000, 0.000000, 25866.000000, 435.897430, 4.000000, 4.000000, 4.000000, 4.000000, 4.000000, 4.000000, 4.000000, 4.000000, 4.000000, 4.000000, 4.000000, 4.000000, 4.000000, 4.000000, 4.000000, 4.000000
114.000000, 0.000000, 4198.974121, 4228.205078, 4201.025391, 4227.179199, 4202.563965, 4186.666504, 4184.102539, 4167.692383, 4173.333008, 4153.333008, 4173.333008, 4189.743652, 4166.666504, 4180.512695, 3305.000000, 8218.000000, 8162.000000, 0.000000, 0.000000, 0.000000, 25866.000000, 444.102539, 4.000000, 4.000000, 4.000000, 4.000000, 4.000000, 4.000000, 4.000000, 4.000000, 4.000000, 4.000000, 4.000000, 4.000000, 4.000000, 4.000000, 4.000000, 4.000000
115.000000, 0.000000, 4200.512695, 4234.871582, 4198.974121, 4224.102539, 4205.127930, 4186.666504, 4181.538574, 4158.461426, 4168.717773, 4152.820313, 4168.205078, 4188.205078, 4159.487305, 4172.307617, 3576.000000, 8221.000000, 8157.000000, 0.000000, 0.000000, 0.000000, 25866.000000, 451.794861, 4.000000, 4.000000, 4.000000, 4.000000, 4.000000, 4.000000, 4.000000, 4.000000, 4.000000, 4.000000, 4.000000, 4.000000, 4.000000, 4.000000, 4.000000, 4.000000
116.000000, 0.000000, 4192.820313, 4233.333008, 4195.384277, 4227.179199, 4204.615234, 4184.615234, 4179.487305, 4154.358887, 4170.769043, 4148.717773, 4160.512695, 4182.051270, 4148.205078, 4164.102539, 3506.000000, 8221.000000, 8157.000000, 0.000000, 0.000000, 0.000000, 25866.000000, 460.000000, 4.000000, 4.000000, 4.000000, 4.000000, 4.000000, 4.000000, 4.000000, 4.000000, 4.000000, 4.000000, 4.000000, 4.000000, 4.000000, 4.000000, 4.000000, 4.000000
117.000000, 0.000000, 4194.871582, 4240.512695, 4199.487305, 4229.743652, 4205.641113, 4185.641113, 4185.641113, 4163.589844, 4170.769043, 4146.153809, 4156.410156, 4181.538574, 4143.589844, 4164.102539, 3466.000000, 8236.000000, 8157.000000, 0.000000, 0.000000, 0.000000, 25866.000000, 467.692291, 4.000000, 4.000000, 4.000000, 4.000000, 4.000000, 4.000000, 4.000000, 4.000000, 4.000000, 4.000000, 4.000000, 4.000000, 4.000000, 4.000000, 4.000000, 4.000000
118.000000, 0.000000, 4210.769043, 4260.000000, 4212.307617, 4240.512695, 4214.871582, 4195.897461, 4183.589844, 4166.153809, 4166.666504, 4150.769043, 4165.127930, 4189.743652, 4150.256348, 4167.179199, 3305.000000, 8236.000000, 8157.000000, 0.000000, 0.000000, 0.000000, 25866.000000, 475.384613, 4.000000, 4.000000, 4.000000, 4.000000, 4.000000, 4.000000, 4.000000, 4.000000, 4.000000, 4.000000, 4.000000, 4.000000, 4.000000, 4.000000, 4.000000, 4.000000
119.000000, 0.000000, 4212.820313, 4267.692383, 4212.820313, 4238.974121, 4222.051270, 4196.922852, 4172.820313, 4162.051270, 4169.743652, 4155.897461, 4167.692383, 4190.769043, 4148.717773, 4164.615234, 3576.000000, 8242.000000, 8155.000000, 0.000000, 0.000000, 0.000000, 25866.000000, 483.589722, 4.000000, 4.000000, 4.000000, 4.000000, 4.000000, 4.000000, 4.000000, 4.000000, 4.000000, 4.000000, 4.000000, 4.000000, 4.000000, 4.000000, 4.000000, 4.000000
120.000000, 0.000000, 4208.205078, 4272.820313, 4208.717773, 4236.410156, 4221.538574, 4187.692383, 4170.769043, 4169.743652, 4181.538574, 4154.871582, 4161.025391, 4188.205078, 4143.589844, 4163.589844, 3506.000000, 8242.000000, 8155.000000, 0.000000, 0.000000, 0.000000, 25866.000000, 491.282043, 4.000000, 4.000000, 4.000000, 4.000000, 4.000000, 4.000000, 4.000000, 4.000000, 4.000000, 4.000000, 4.000000, 4.000000, 4.000000, 4.000000, 4.000000, 4.000000
121.000000, 0.000000, 4212.307617, 4277.436035, 4211.794922, 4240.000000, 4216.922852, 4183.076660, 4174.871582, 4177.948730, 4177.948730, 4148.205078, 4152.820313, 4188.205078, 4136.922852, 4161.025391, 3466.000000, 8249.000000, 8152.000000, 0.000000, 0.000000, 0.000000, 25866.000000, 499.487152, 4.000000, 4.000000, 4.000000, 4.000000, 4.000000, 4.000000, 4.000000, 4.000000, 4.000000, 4.000000, 4.000000, 4.000000, 4.000000, 4.000000, 4.000000, 4.000000
122.000000, 0.000000, 4214.358887, 4273.333008, 4208.205078, 4234.871582, 4215.384277, 4182.563965, 4170.769043, 4161.025391, 4159.487305, 4138.974121, 4145.127930, 4178.461426, 4125.641113, 4152.820313, 3305.000000, 8249.000000, 8152.000000, 0.000000, 0.000000, 0.000000, 25866.000000, 507.179474, 4.000000, 4.000000, 4.000000, 4.000000, 4.000000, 4.000000, 4.000000, 4.000000, 4.000000, 4.000000, 4.000000, 4.000000, 4.000000, 4.000000, 4.000000, 4.000000
123.000000, 0.000000, 4212.820313, 4273.333008, 4205.641113, 4237.436035, 4219.487305, 4184.102539, 4164.615234, 4147.692383, 4160.512695, 4137.948730, 4146.153809, 4174.871582, 4126.153809, 4151.794922, 3576.000000, 8253.000000, 8150.000000, 0.000000, 0.000000, 0.000000, 25866.000000, 515.384583, 4.000000, 4.000000, 4.000000, 4.000000, 4.000000, 4.000000, 4.000000, 4.000000, 4.000000, 4.000000, 4.000000, 4.000000, 4.000000, 4.000000, 4.000000, 4.000000
124.000000, 0.000000, 4218.974121, 4283.076660, 4218.461426, 4242.563965, 4227.179199, 4188.205078, 4167.692383, 4167.179199, 4173.333008, 4145.641113, 4158.974121, 4187.692383, 4140.000000, 4164.615234, 3506.000000, 8253.000000, 8150.000000, 0.000000, 0.000000, 0.000000, 25866.000000, 523.076904, 4.000000, 4.000000, 4.000000, 4.000000, 4.000000, 4.000000, 4.000000, 4.000000, 4.000000, 4.000000, 4.000000, 4.000000, 4.000000, 4.000000, 4.000000, 4.000000
125.000000, 0.000000, 4223.589844, 4282.051270, 4221.538574, 4242.563965, 4230.256348, 4185.127930, 4167.692383, 4168.205078, 4163.076660, 4147.179199, 4162.563965, 4189.230469, 4145.127930, 4171.281738, 3466.000000, 8257.000000, 8147.000000, 0.000000, 0.000000, 0.000000, 25866.000000, 531.282043, 4.000000, 4.000000, 4.000000, 4.000000, 4.000000, 4.000000, 4.000000, 4.000000, 4.000000, 4.000000, 4.000000, 4.000000, 4.000000, 4.000000, 4.000000, 4.000000
126.000000, 0.000000, 4213.846191, 4268.717773, 4205.641113, 4235.897461, 4220.000000, 4179.487305, 4164.615234, 4139.487305, 4143.589844, 4132.820313, 4149.743652, 4175.384277, 4135.897461, 4162.563965, 3305.000000, 8257.000000, 8147.000000, 0.000000, 0.000000, 0.000000, 25866.000000, 538.974365, 4.000000, 4.000000, 4.000000, 4.000000, 4.000000, 4.000000, 4.000000, 4.000000, 4.000000, 4.000000, 4.000000, 4.000000, 4.000000, 4.000000, 4.000000, 4.000000
127.000000, 0.000000, 4203.589844, 4261.025391, 4198.461426, 4226.666504, 4216.922852, 4188.205078, 4174.871582, 4128.717773, 4135.384277, 4114.871582, 4137.436035, 4165.641113, 4119.487305, 4146.666504, 53.000000, 8262.000000, 8144.000000, 0.000000, 0.000000, 0.000000, 25866.000000, 546.666626, 4.000000, 4.000000, 4.000000, 4.000000, 4.000000, 4.000000, 4.000000, 4.000000, 4.000000, 4.000000, 4.000000, 4.000000, 4.000000, 4.000000, 4.000000, 4.000000
0.000000, 0.000000, 4200.512695, 4256.922852, 4202.051270, 4233.333008, 4226.666504, 4203.076660, 4187.179199, 4143.589844, 4138.974121, 4111.281738, 4130.769043, 4165.127930, 4105.641113, 4141.025391, 3492.000000, 8262.000000, 8144.000000, 0.000000, 0.000000, 0.000000, 25866.000000, 554.871765, 4.000000, 4.000000, 4.000000, 4.000000, 4.000000, 4.000000, 4.000000, 4.000000, 4.000000, 4.000000, 4.000000, 4.000000, 4.000000, 4.000000, 4.000000, 4.000000
1.000000, 0.000000, 4200.000000, 4250.256348, 4204.102539, 4235.384277, 4226.153809, 4202.563965, 4187.179199, 4165.641113, 4156.922852, 4122.563965, 4134.871582, 4169.743652, 4110.256348, 4149.743652, 2280.000000, 8263.000000, 8145.000000, 0.000000, 0.000000, 0.000000, 25866.000000, 562.564087, 4.000000, 4.000000, 4.000000, 4.000000, 4.000000, 4.000000, 4.000000, 4.000000, 4.000000, 4.000000, 4.000000, 4.000000, 4.000000, 4.000000, 4.000000, 4.000000
2.000000, 0.000000, 4200.512695, 4246.666504, 4200.512695, 4229.743652, 4215.384277, 4187.692383, 4187.179199, 4175.897461, 4168.717773, 4133.846191, 4146.153809, 4180.000000, 4122.563965, 4153.333008, 3127.000000, 8263.000000, 8145.000000, 0.000000, 0.000000, 0.000000, 25866.000000, 570.256409, 4.000000, 4.000000, 4.000000, 4.000000, 4.000000, 4.000000, 4.000000, 4.000000, 4.000000, 4.000000, 4.000000, 4.000000, 4.000000, 4.000000, 4.000000, 4.000000
3.000000, 0.000000, 4207.179199, 4258.461426, 4202.563965, 4233.333008, 4211.794922, 4181.538574, 4184.102539, 4164.615234, 4167.179199, 4146.153809, 4155.897461, 4190.769043, 4131.281738, 4158.461426, 3552.000000, 8265.000000, 8144.000000, 0.000000, 0.000000, 0.000000, 25866.000000, 578.461548, 4.000000, 4.000000, 4.000000, 4.000000, 4.000000, 4.000000, 4.000000, 4.000000, 4.000000, 4.000000, 4.000000, 4.000000, 4.000000, 4.000000, 4.000000, 4.000000
4.000000, 0.000000, 4215.897461, 4275.384277, 4211.794922, 4238.461426, 4219.487305, 4184.102539, 4173.846191, 4159.487305, 4168.205078, 4157.436035, 4164.102539, 4194.871582, 4141.025391, 4173.333008, 3535.000000, 8265.000000, 8144.000000, 0.000000, 0.000000, 0.000000, 25866.000000, 586.153809, 4.000000, 4.000000, 4.000000, 4.000000, 4.000000, 4.000000, 4.000000, 4.000000, 4.000000, 4.000000, 4.000000, 4.000000, 4.000000, 4.000000, 4.000000, 4.000000
5.000000, 0.000000, 4215.897461, 4273.846191, 4211.794922, 4240.512695, 4218.974121, 4180.000000, 4174.871582, 4172.307617, 4170.769043, 4155.384277, 4167.692383, 4192.307617, 4143.076660, 4172.307617, 3566.000000, 8263.000000, 8154.000000, 0.000000, 0.000000, 0.000000, 25866.000000, 593.846130, 4.000000, 4.000000, 4.000000, 4.000000, 4.000000, 4.000000, 4.000000, 4.000000, 4.000000, 4.000000, 4.000000, 4.000000, 4.000000, 4.000000, 4.000000, 4.000000
6.000000, 0.000000, 4207.179199, 4267.179199, 4200.000000, 4225.641113, 4211.281738, 4178.461426, 4185.127930, 4172.820313, 4175.384277, 4155.897461, 4163.589844, 4184.615234, 4140.512695, 4156.410156, 3501.000000, 8263.000000, 8154.000000, 0.000000, 0.000000, 0.000000, 25866.000000, 602.051270, 4.000000, 4.000000, 4.000000, 4.000000, 4.000000, 4.000000, 4.000000, 4.000000, 4.000000, 4.000000, 4.000000, 4.000000, 4.000000, 4.000000, 4.000000, 4.000000
7.000000, 0.000000, 4200.000000, 4262.563965, 4189.230469, 4206.153809, 4208.717773, 4185.641113, 4183.589844, 4162.051270, 4183.589844, 4159.487305, 4154.871582, 4174.871582, 4136.922852, 4153.333008, 3506.000000, 8266.000000, 8150.000000, 0.000000, 0.000000, 0.000000, 25866.000000, 609.743591, 4.000000, 4.000000, 4.000000, 4.000000, 4.000000, 4.000000, 4.000000, 4.000000, 4.000000, 4.000000, 4.000000, 4.000000, 4.000000, 4.000000, 4.000000, 4.000000
8.000000, 0.000000, 4191.281738, 4254.871582, 4184.615234, 4201.538574, 4208.717773, 4184.102539, 4181.025391, 4170.769043, 4186.666504, 4149.230469, 4149.743652, 4165.641113, 4127.692383, 4149.743652, 3349.000000, 8266.000000, 8150.000000, 0.000000, 0.000000, 0.000000, 25866.000000, 617.948730, 4.000000, 4.000000, 4.000000, 4.000000, 4.000000, 4.000000, 4.000000, 4.000000, 4.000000, 4.000000, 4.000000, 4.000000, 4.000000, 4.000000, 4.000000, 4.000000
9.000000, 0.000000, 4186.666504, 4248.205078, 4181.025391, 4199.487305, 4207.692383, 4183.076660, 4190.769043, 4186.666504, 4184.615234, 4144.102539, 4151.794922, 4164.102539, 4122.563965, 4140.512695, 3529.000000, 8263.000000, 8152.000000, 0.000000, 0.000000, 0.000000, 25866.000000, 625.640991, 4.000000, 4.000000, 4.000000, 4.000000, 4.000000, 4.000000, 4.000000, 4.000000, 4.000000, 4.000000, 4.000000, 4.000000, 4.000000, 4.000000, 4.000000, 4.000000
10.000000, 0.000000, 4193.333008, 4247.179199, 4184.102539, 4202.563965, 4209.230469, 4194.358887, 4200.000000, 4186.666504, 4186.153809, 4155.384277, 4154.871582, 4170.769043, 4131.794922, 4145.641113, 3314.000000, 8263.000000, 8152.000000, 0.000000, 0.000000, 0.000000, 25866.000000, 633.846130, 4.000000, 4.000000, 4.000000, 4.000000, 4.000000, 4.000000, 4.000000, 4.000000, 4.000000, 4.000000, 4.000000, 4.000000, 4.000000, 4.000000, 4.000000, 4.000000
11.000000, 0.000000, 4196.922852, 4250.769043, 4188.717773, 4203.589844, 4213.846191, 4196.922852, 4196.410156, 4187.692383, 4188.717773, 4161.025391, 4156.922852, 4171.794922, 4138.461426, 4155.897461, 3577.000000, 8260.000000, 8149.000000, 0.000000, 0.000000, 0.000000, 25866.000000, 641.538452, 4.000000, 4.000000, 4.000000, 4.000000, 4.000000, 4.000000, 4.000000, 4.000000, 4.000000, 4.000000, 4.000000, 4.000000, 4.000000, 4.000000, 4.000000, 4.000000
12.000000, 0.000000, 4194.871582, 4252.307617, 4185.127930, 4200.512695, 4211.794922, 4192.820313, 4189.743652, 4187.179199, 4186.153809, 4154.871582, 4155.384277, 4166.666504, 4134.871582, 4152.307617, 3520.000000, 8260.000000, 8149.000000, 0.000000, 0.000000, 0.000000, 25866.000000, 649.230774, 4.000000, 4.000000, 4.000000, 4.000000, 4.000000, 4.000000, 4.000000, 4.000000, 4.000000, 4.000000, 4.000000, 4.000000, 4.000000, 4.000000, 4.000000, 4.000000
13.000000, 0.000000, 4186.666504, 4237.436035, 4178.974121, 4198.461426, 4200.512695, 4196.410156, 4195.897461, 4173.846191, 4182.051270, 4150.769043, 4149.743652, 4165.127930, 4124.102539, 4138.974121, 3470.000000, 8252.000000, 8154.000000, 0.000000, 0.000000, 0.000000, 25866.000000, 657.435852, 4.000000, 4.000000, 4.000000, 4.000000, 4.000000, 4.000000, 4.000000, 4.000000, 4.000000, 4.000000, 4.000000, 4.000000, 4.000000, 4.000000, 4.000000, 4.000000
14.000000, 0.000000, 4186.666504, 4232.307617, 4181.538574, 4194.358887, 4199.487305, 4202.563965, 4201.538574, 4174.358887, 4182.051270, 4154.358887, 4146.666504, 4166.153809, 4121.025391, 4140.000000, 3314.000000, 8252.000000, 8154.000000, 0.000000, 0.000000, 0.000000, 25866.000000, 665.640991, 4.000000, 4.000000, 4.000000, 4.000000, 4.000000, 4.000000, 4.000000, 4.000000, 4.000000, 4.000000, 4.000000, 4.000000, 4.000000, 4.000000, 4.000000, 4.000000
15.000000, 0.000000, 4197.948730, 4252.307617, 4186.666504, 4204.102539, 4211.281738, 4198.974121, 4193.846191, 4186.666504, 4185.641113, 4153.846191, 4152.820313, 4169.743652, 4128.717773, 4151.794922, 3577.000000, 8248.000000, 8161.000000, 0.000000, 0.000000, 0.000000, 25866.000000, 673.333313, 4.000000, 4.000000, 4.000000, 4.000000, 4.000000, 4.000000, 4.000000, 4.000000, 4.000000, 4.000000, 4.000000, 4.000000, 4.000000, 4.000000, 4.000000, 4.000000
16.000000, 0.000000, 4200.000000, 4256.410156, 4183.076660, 4207.692383, 4214.358887, 4188.717773, 4185.641113, 4179.487305, 4184.102539, 4144.615234, 4154.871582, 4168.717773, 4128.205078, 4152.307617, 0.000000, 8248.000000, 8161.000000, 0.000000, 0.000000, 0.000000, 25866.000000, 681.025635, 4.000000, 4.000000, 4.000000, 4.000000, 4.000000, 4.000000, 4.000000, 4.000000, 4.000000, 4.000000, 4.000000, 4.000000, 4.000000, 4.000000, 4.000000, 4.000000
17.000000, 0.000000, 4198.974121, 4246.153809, 4181.025391, 4198.461426, 4209.230469, 4188.717773, 4184.615234, 4170.769043, 4182.051270, 4143.076660, 4152.820313, 4167.692383, 4121.538574, 4147.692383, 0.000000, 8247.000000, 8171.000000, 0.000000, 0.000000, 0.000000, 25866.000000, 689.230774, 4.000000, 4.000000, 4.000000, 4.000000, 4.000000, 4.000000, 4.000000, 4.000000, 4.000000, 4.000000, 4.000000, 4.000000, 4.000000, 4.000000, 4.000000, 4.000000
18.000000, 0.000000, 4203.589844, 4246.666504, 4186.666504, 4203.076660, 4214.358887, 4198.461426, 4187.179199, 4185.127930, 4186.666504, 4150.769043, 4157.948730, 4177.948730, 4124.102539, 4154.358887, 0.000000, 8247.000000, 8171.000000, 0.000000, 0.000000, 0.000000, 25866.000000, 696.923035, 4.000000, 4.000000, 4.000000, 4.000000, 4.000000, 4.000000, 4.000000, 4.000000, 4.000000, 4.000000, 4.000000, 4.000000, 4.000000, 4.000000, 4.000000, 4.000000
19.000000, 0.000000, 4201.025391, 4240.512695, 4186.153809, 4202.563965, 4214.358887, 4202.051270, 4191.281738, 4190.256348, 4187.179199, 4147.692383, 4161.025391, 4181.538574, 4122.563965, 4160.512695, 0.000000, 8235.000000, 8164.000000, 0.000000, 0.000000, 0.000000, 25866.000000, 705.128174, 4.000000, 4.000000, 4.000000, 4.000000, 4.000000, 4.000000, 4.000000, 4.000000, 4.000000, 4.000000, 4.000000, 4.000000, 4.000000, 4.000000, 4.000000, 4.000000
20.000000, 0.000000, 4194.358887, 4229.230469, 4182.051270, 4197.436035, 4202.563965, 4195.897461, 4183.589844, 4180.512695, 4186.153809, 4139.487305, 4155.384277, 4169.743652, 4111.281738, 4151.281738, 0.000000, 8235.000000, 8164.000000, 0.000000, 0.000000, 0.000000, 25866.000000, 712.820496, 4.000000, 4.000000, 4.000000, 4.000000, 4.000000, 4.000000, 4.000000, 4.000000, 4.000000, 4.000000, 4.000000, 4.000000, 4.000000, 4.000000, 4.000000, 4.000000
21.000000, 0.000000, 4191.281738, 4226.666504, 4181.025391, 4197.948730, 4203.076660, 4190.769043, 4172.307617, 4177.436035, 4187.692383, 4138.974121, 4145.641113, 4161.538574, 4105.641113, 4142.051270, 0.000000, 8234.000000, 8161.000000, 0.000000, 0.000000, 0.000000, 25866.000000, 721.025635, 4.000000, 4.000000, 4.000000, 4.000000, 4.000000, 4.000000, 4.000000, 4.000000, 4.000000, 4.000000, 4.000000, 4.000000, 4.000000, 4.000000, 4.000000, 4.000000
22.000000, 0.000000, 4186.153809, 4221.538574, 4178.461426, 4197.436035, 4206.153809, 4186.153809, 4172.820313, 4168.205078, 4183.076660, 4138.974121, 4141.025391, 4162.563965, 4108.205078, 4142.563965, 0.000000, 8234.000000, 8161.000000, 0.000000, 0.000000, 0.000000, 25866.000000, 728.717957, 4.000000, 4.000000, 4.000000, 4.000000, 4.000000, 4.000000, 4.000000, 4.000000, 4.000000, 4.000000, 4.000000, 4.000000, 4.000000, 4.000000, 4.000000, 4.000000
23.000000, 0.000000, 4186.666504, 4219.487305, 4180.000000, 4203.589844, 4205.127930, 4186.666504, 4178.461426, 4170.256348, 4182.051270, 4144.615234, 4150.256348, 4167.179199, 4114.871582, 4151.281738, 0.000000, 8229.000000, 8159.000000, 0.000000, 0.000000, 0.000000, 25866.000000, 736.923035, 4.000000, 4.000000, 4.000000, 4.000000, 4.000000, 4.000000, 4.000000, 4.000000, 4.000000, 4.000000, 4.000000, 4.000000, 4.000000, 4.000000, 4.000000, 4.000000
24.000000, 0.000000, 4196.922852, 4225.127930, 4185.127930, 4205.127930, 4214.871582, 4190.256348, 4182.051270, 4191.281738, 4190.769043, 4156.410156, 4160.512695, 4171.281738, 4122.563965, 4158.461426, 0.000000, 8229.000000, 8159.000000, 0.000000, 0.000000, 0.000000, 25866.000000, 744.615356, 4.000000, 4.000000, 4.000000, 4.000000, 4.000000, 4.000000, 4.000000, 4.000000, 4.000000, 4.000000, 4.000000, 4.000000, 4.000000, 4.000000, 4.000000, 4.000000
