title:neutral39, recorded:23.05.18 21.33.56, timestamp started:2018-05-23T14:18:30.888274+02:00            , sampling:128, subject:Noé, labels:COUNTER INTERPOLATED AF3 F7 F3 FC5 T7 P7 O1 O2 P8 T8 FC6 F4 F8 AF4 RAW_CQ GYROX GYROY MARKER MARKER_HARDWARE SYNC TIME_STAMP_s TIME_STAMP_ms CQ_AF3 CQ_F7 CQ_F3 CQ_FC5 CQ_T7 CQ_P7 CQ_O1 CQ_O2 CQ_P8 CQ_T8 CQ_FC6 CQ_F4 CQ_F8 CQ_AF4 CQ_CMS CQ_DRL, chan:40, samples:2581, units:emotiv
38.000000, 0.000000, 4192.307617, 4158.974121, 4194.871582, 4186.666504, 4186.153809, 4201.538574, 4216.922852, 4200.512695, 4188.717773, 4215.384277, 4217.436035, 4217.948730, 4230.769043, 4230.769043, 0.000000, 8315.000000, 8100.000000, 0.000000, 0.000000, 0.000000, 26126.000000, 84.102562, 4.000000, 4.000000, 4.000000, 4.000000, 4.000000, 4.000000, 4.000000, 4.000000, 4.000000, 4.000000, 4.000000, 4.000000, 4.000000, 4.000000, 4.000000, 4.000000
39.000000, 0.000000, 4189.743652, 4157.436035, 4191.281738, 4182.051270, 4187.179199, 4208.205078, 4215.384277, 4195.384277, 4190.769043, 4223.589844, 4221.538574, 4215.897461, 4237.948730, 4231.794922, 0.000000, 8344.000000, 8103.000000, 0.000000, 0.000000, 0.000000, 26126.000000, 92.307693, 4.000000, 4.000000, 4.000000, 4.000000, 4.000000, 4.000000, 4.000000, 4.000000, 4.000000, 4.000000, 4.000000, 4.000000, 4.000000, 4.000000, 4.000000, 4.000000
40.000000, 0.000000, 4189.230469, 4157.436035, 4198.974121, 4183.076660, 4193.333008, 4215.897461, 4219.487305, 4222.051270, 4218.461426, 4233.846191, 4228.717773, 4219.487305, 4248.205078, 4232.307617, 0.000000, 8344.000000, 8103.000000, 0.000000, 0.000000, 0.000000, 26126.000000, 100.000000, 4.000000, 4.000000, 4.000000, 4.000000, 4.000000, 4.000000, 4.000000, 4.000000, 4.000000, 4.000000, 4.000000, 4.000000, 4.000000, 4.000000, 4.000000, 4.000000
41.000000, 0.000000, 4189.743652, 4166.153809, 4195.384277, 4184.615234, 4197.948730, 4217.436035, 4218.461426, 4231.794922, 4227.179199, 4234.358887, 4228.717773, 4217.436035, 4247.692383, 4230.256348, 0.000000, 8375.000000, 8115.000000, 0.000000, 0.000000, 0.000000, 26126.000000, 108.205124, 4.000000, 4.000000, 4.000000, 4.000000, 4.000000, 4.000000, 4.000000, 4.000000, 4.000000, 4.000000, 4.000000, 4.000000, 4.000000, 4.000000, 4.000000, 4.000000
42.000000, 0.000000, 4189.743652, 4170.769043, 4185.641113, 4181.538574, 4191.281738, 4213.846191, 4213.846191, 4215.384277, 4218.461426, 4237.948730, 4227.692383, 4205.127930, 4246.666504, 4222.051270, 0.000000, 8375.000000, 8115.000000, 0.000000, 0.000000, 0.000000, 26126.000000, 115.897430, 4.000000, 4.000000, 4.000000, 4.000000, 4.000000, 4.000000, 4.000000, 4.000000, 4.000000, 4.000000, 4.000000, 4.000000, 4.000000, 4.000000, 4.000000, 4.000000
43.000000, 0.000000, 4184.102539, 4163.076660, 4180.000000, 4183.589844, 4192.820313, 4215.384277, 4216.922852, 4220.000000, 4219.487305, 4245.641113, 4229.743652, 4200.512695, 4247.179199, 4216.922852, 0.000000, 8451.000000, 8136.000000, 0.000000, 0.000000, 0.000000, 26126.000000, 124.102562, 4.000000, 4.000000, 4.000000, 4.000000, 4.000000, 4.000000, 4.000000, 4.000000, 4.000000, 4.000000, 4.000000, 4.000000, 4.000000, 4.000000, 4.000000, 4.000000
44.000000, 0.000000, 4175.897461, 4155.384277, 4172.307617, 4176.922852, 4203.589844, 4221.025391, 4219.487305, 4227.692383, 4220.512695, 4242.051270, 4223.589844, 4199.487305, 4238.974121, 4213.333008, 0.000000, 8451.000000, 8136.000000, 0.000000, 0.000000, 0.000000, 26126.000000, 131.794876, 4.000000, 4.000000, 4.000000, 4.000000, 4.000000, 4.000000, 4.000000, 4.000000, 4.000000, 4.000000, 4.000000, 4.000000, 4.000000, 4.000000, 4.000000, 4.000000
45.000000, 0.000000, 4169.743652, 4151.281738, 4165.127930, 4172.820313, 4198.461426, 4222.563965, 4222.563965, 4219.487305, 4211.794922, 4234.358887, 4213.333008, 4191.794922, 4230.256348, 4204.615234, 0.000000, 8452.000000, 8144.000000, 0.000000, 0.000000, 0.000000, 26126.000000, 140.000000, 4.000000, 4.000000, 4.000000, 4.000000, 4.000000, 4.000000, 4.000000, 4.000000, 4.000000, 4.000000, 4.000000, 4.000000, 4.000000, 4.000000, 4.000000, 4.000000
46.000000, 0.000000, 4165.127930, 4144.615234, 4165.641113, 4172.820313, 4187.179199, 4213.333008, 4218.974121, 4212.820313, 4205.127930, 4228.717773, 4212.307617, 4191.281738, 4227.692383, 4197.436035, 0.000000, 8452.000000, 8144.000000, 0.000000, 0.000000, 0.000000, 26126.000000, 147.692307, 4.000000, 4.000000, 4.000000, 4.000000, 4.000000, 4.000000, 4.000000, 4.000000, 4.000000, 4.000000, 4.000000, 4.000000, 4.000000, 4.000000, 4.000000, 4.000000
47.000000, 0.000000, 4172.820313, 4147.179199, 4174.358887, 4174.358887, 4186.153809, 4197.948730, 4201.538574, 4206.666504, 4202.563965, 4227.179199, 4217.436035, 4199.487305, 4229.743652, 4204.615234, 0.000000, 8455.000000, 8151.000000, 0.000000, 0.000000, 0.000000, 26126.000000, 155.897430, 4.000000, 4.000000, 4.000000, 4.000000, 4.000000, 4.000000, 4.000000, 4.000000, 4.000000, 4.000000, 4.000000, 4.000000, 4.000000, 4.000000, 4.000000, 4.000000
48.000000, 0.000000, 4182.563965, 4159.487305, 4184.102539, 4181.538574, 4184.615234, 4197.436035, 4202.563965, 4192.307617, 4197.436035, 4224.615234, 4214.871582, 4203.589844, 4230.769043, 4214.358887, 0.000000, 8455.000000, 8151.000000, 0.000000, 0.000000, 0.000000, 26126.000000, 163.589737, 4.000000, 4.000000, 4.000000, 4.000000, 4.000000, 4.000000, 4.000000, 4.000000, 4.000000, 4.000000, 4.000000, 4.000000, 4.000000, 4.000000, 4.000000, 4.000000
49.000000, 0.000000, 4183.589844, 4165.127930, 4187.179199, 4180.512695, 4188.205078, 4211.281738, 4221.025391, 4191.281738, 4197.436035, 4220.512695, 4213.333008, 4205.641113, 4230.769043, 4215.384277, 0.000000, 8438.000000, 8152.000000, 0.000000, 0.000000, 0.000000, 26126.000000, 171.794861, 4.000000, 4.000000, 4.000000, 4.000000, 4.000000, 4.000000, 4.000000, 4.000000, 4.000000, 4.000000, 4.000000, 4.000000, 4.000000, 4.000000, 4.000000, 4.000000
50.000000, 0.000000, 4191.281738, 4167.692383, 4188.717773, 4185.641113, 4200.512695, 4216.410156, 4209.230469, 4204.102539, 4210.769043, 4229.230469, 4224.615234, 4215.384277, 4239.487305, 4217.948730, 0.000000, 8438.000000, 8152.000000, 0.000000, 0.000000, 0.000000, 26126.000000, 179.487183, 4.000000, 4.000000, 4.000000, 4.000000, 4.000000, 4.000000, 4.000000, 4.000000, 4.000000, 4.000000, 4.000000, 4.000000, 4.000000, 4.000000, 4.000000, 4.000000
51.000000, 0.000000, 4196.922852, 4173.333008, 4189.230469, 4190.769043, 4203.076660, 4212.820313, 4192.307617, 4215.897461, 4215.897461, 4240.000000, 4233.846191, 4220.000000, 4249.743652, 4221.538574, 0.000000, 8398.000000, 8146.000000, 0.000000, 0.000000, 0.000000, 26126.000000, 187.692307, 4.000000, 4.000000, 4.000000, 4.000000, 4.000000, 4.000000, 4.000000, 4.000000, 4.000000, 4.000000, 4.000000, 4.000000, 4.000000, 4.000000, 4.000000, 4.000000
52.000000, 0.000000, 4188.717773, 4171.794922, 4186.153809, 4185.641113, 4197.436035, 4215.384277, 4207.692383, 4217.436035, 4207.179199, 4235.897461, 4227.692383, 4213.333008, 4248.205078, 4216.922852, 0.000000, 8398.000000, 8146.000000, 0.000000, 0.000000, 0.000000, 26126.000000, 195.384613, 4.000000, 4.000000, 4.000000, 4.000000, 4.000000, 4.000000, 4.000000, 4.000000, 4.000000, 4.000000, 4.000000, 4.000000, 4.000000, 4.000000, 4.000000, 4.000000
53.000000, 0.000000, 4189.230469, 4168.205078, 4192.307617, 4189.230469, 4201.538574, 4220.512695, 4218.461426, 4213.846191, 4209.743652, 4232.307617, 4226.153809, 4215.384277, 4244.615234, 4213.333008, 0.000000, 8370.000000, 8145.000000, 0.000000, 0.000000, 0.000000, 26126.000000, 203.589737, 4.000000, 4.000000, 4.000000, 4.000000, 4.000000, 4.000000, 4.000000, 4.000000, 4.000000, 4.000000, 4.000000, 4.000000, 4.000000, 4.000000, 4.000000, 4.000000
54.000000, 0.000000, 4196.922852, 4172.307617, 4204.615234, 4187.692383, 4202.051270, 4217.436035, 4215.384277, 4223.076660, 4221.538574, 4246.666504, 4235.384277, 4227.692383, 4250.256348, 4220.000000, 0.000000, 8370.000000, 8145.000000, 0.000000, 0.000000, 0.000000, 26126.000000, 211.282043, 4.000000, 4.000000, 4.000000, 4.000000, 4.000000, 4.000000, 4.000000, 4.000000, 4.000000, 4.000000, 4.000000, 4.000000, 4.000000, 4.000000, 4.000000, 4.000000
55.000000, 0.000000, 4195.384277, 4167.692383, 4203.589844, 4183.589844, 4188.717773, 4206.666504, 4228.205078, 4235.897461, 4220.512695, 4247.179199, 4234.871582, 4232.307617, 4252.307617, 4220.512695, 0.000000, 8338.000000, 8142.000000, 0.000000, 0.000000, 0.000000, 26126.000000, 219.487167, 4.000000, 4.000000, 4.000000, 4.000000, 4.000000, 4.000000, 4.000000, 4.000000, 4.000000, 4.000000, 4.000000, 4.000000, 4.000000, 4.000000, 4.000000, 4.000000
56.000000, 0.000000, 4192.307617, 4163.076660, 4201.025391, 4187.692383, 4190.769043, 4206.153809, 4236.410156, 4238.974121, 4216.922852, 4236.922852, 4232.307617, 4229.743652, 4249.230469, 4218.974121, 0.000000, 8338.000000, 8142.000000, 0.000000, 0.000000, 0.000000, 26126.000000, 227.179489, 4.000000, 4.000000, 4.000000, 4.000000, 4.000000, 4.000000, 4.000000, 4.000000, 4.000000, 4.000000, 4.000000, 4.000000, 4.000000, 4.000000, 4.000000, 4.000000
57.000000, 0.000000, 4195.897461, 4169.743652, 4202.051270, 4184.615234, 4204.102539, 4215.384277, 4224.615234, 4233.846191, 4217.948730, 4238.974121, 4236.410156, 4228.205078, 4250.256348, 4225.641113, 0.000000, 8275.000000, 8131.000000, 0.000000, 0.000000, 0.000000, 26126.000000, 235.384613, 4.000000, 4.000000, 4.000000, 4.000000, 4.000000, 4.000000, 4.000000, 4.000000, 4.000000, 4.000000, 4.000000, 4.000000, 4.000000, 4.000000, 4.000000, 4.000000
58.000000, 0.000000, 4195.897461, 4170.256348, 4192.820313, 4183.589844, 4201.025391, 4216.922852, 4215.897461, 4227.692383, 4211.794922, 4241.025391, 4234.871582, 4224.102539, 4249.230469, 4223.589844, 0.000000, 8275.000000, 8131.000000, 0.000000, 0.000000, 0.000000, 26126.000000, 243.076920, 4.000000, 4.000000, 4.000000, 4.000000, 4.000000, 4.000000, 4.000000, 4.000000, 4.000000, 4.000000, 4.000000, 4.000000, 4.000000, 4.000000, 4.000000, 4.000000
59.000000, 0.000000, 4192.820313, 4173.333008, 4188.717773, 4186.666504, 4197.948730, 4214.358887, 4221.538574, 4232.307617, 4213.333008, 4243.589844, 4233.333008, 4223.076660, 4250.256348, 4216.922852, 0.000000, 8254.000000, 8131.000000, 0.000000, 0.000000, 0.000000, 26126.000000, 251.282043, 4.000000, 4.000000, 4.000000, 4.000000, 4.000000, 4.000000, 4.000000, 4.000000, 4.000000, 4.000000, 4.000000, 4.000000, 4.000000, 4.000000, 4.000000, 4.000000
60.000000, 0.000000, 4197.948730, 4186.666504, 4200.512695, 4193.333008, 4207.692383, 4219.487305, 4221.538574, 4231.794922, 4220.000000, 4250.256348, 4236.922852, 4227.692383, 4253.333008, 4220.512695, 0.000000, 8254.000000, 8131.000000, 0.000000, 0.000000, 0.000000, 26126.000000, 259.487183, 4.000000, 4.000000, 4.000000, 4.000000, 4.000000, 4.000000, 4.000000, 4.000000, 4.000000, 4.000000, 4.000000, 4.000000, 4.000000, 4.000000, 4.000000, 4.000000
61.000000, 0.000000, 4194.871582, 4184.615234, 4201.025391, 4192.820313, 4205.127930, 4218.974121, 4208.717773, 4221.025391, 4209.743652, 4239.487305, 4230.769043, 4223.589844, 4244.615234, 4212.820313, 0.000000, 8204.000000, 8127.000000, 0.000000, 0.000000, 0.000000, 26126.000000, 267.179474, 4.000000, 4.000000, 4.000000, 4.000000, 4.000000, 4.000000, 4.000000, 4.000000, 4.000000, 4.000000, 4.000000, 4.000000, 4.000000, 4.000000, 4.000000, 4.000000
62.000000, 0.000000, 4179.487305, 4169.230469, 4184.102539, 4180.512695, 4197.948730, 4215.384277, 4207.179199, 4222.563965, 4197.948730, 4214.358887, 4213.846191, 4206.666504, 4224.102539, 4189.743652, 0.000000, 8204.000000, 8127.000000, 0.000000, 0.000000, 0.000000, 26126.000000, 275.384613, 4.000000, 4.000000, 4.000000, 4.000000, 4.000000, 4.000000, 4.000000, 4.000000, 4.000000, 4.000000, 4.000000, 4.000000, 4.000000, 4.000000, 4.000000, 4.000000
63.000000, 0.000000, 4175.384277, 4165.641113, 4183.589844, 4183.076660, 4205.641113, 4223.589844, 4224.102539, 4232.307617, 4204.615234, 4214.358887, 4208.205078, 4202.051270, 4220.512695, 4187.692383, 0.000000, 8184.000000, 8131.000000, 0.000000, 0.000000, 0.000000, 26126.000000, 283.076904, 4.000000, 4.000000, 4.000000, 4.000000, 4.000000, 4.000000, 4.000000, 4.000000, 4.000000, 4.000000, 4.000000, 4.000000, 4.000000, 4.000000, 4.000000, 4.000000
64.000000, 0.000000, 4180.512695, 4169.230469, 4191.281738, 4185.127930, 4208.205078, 4227.692383, 4230.256348, 4233.846191, 4217.436035, 4234.358887, 4217.436035, 4211.281738, 4231.794922, 4202.563965, 3496.000000, 8184.000000, 8131.000000, 0.000000, 0.000000, 0.000000, 26126.000000, 291.282043, 4.000000, 4.000000, 4.000000, 4.000000, 4.000000, 4.000000, 4.000000, 4.000000, 4.000000, 4.000000, 4.000000, 4.000000, 4.000000, 4.000000, 4.000000, 4.000000
65.000000, 0.000000, 4182.563965, 4171.794922, 4189.743652, 4181.538574, 4198.461426, 4220.000000, 4221.538574, 4233.846191, 4219.487305, 4236.922852, 4226.153809, 4216.922852, 4237.436035, 4204.615234, 2282.000000, 8172.000000, 8132.000000, 0.000000, 0.000000, 0.000000, 26126.000000, 298.974365, 4.000000, 4.000000, 4.000000, 4.000000, 4.000000, 4.000000, 4.000000, 4.000000, 4.000000, 4.000000, 4.000000, 4.000000, 4.000000, 4.000000, 4.000000, 4.000000
66.000000, 0.000000, 4184.615234, 4181.025391, 4192.820313, 4188.205078, 4195.384277, 4210.769043, 4216.922852, 4224.102539, 4211.794922, 4232.307617, 4227.692383, 4216.922852, 4237.436035, 4202.051270, 3101.000000, 8172.000000, 8132.000000, 0.000000, 0.000000, 0.000000, 26126.000000, 307.179474, 4.000000, 4.000000, 4.000000, 4.000000, 4.000000, 4.000000, 4.000000, 4.000000, 4.000000, 4.000000, 4.000000, 4.000000, 4.000000, 4.000000, 4.000000, 4.000000
67.000000, 0.000000, 4189.743652, 4188.717773, 4199.487305, 4191.281738, 4203.076660, 4207.179199, 4213.333008, 4208.205078, 4202.051270, 4235.384277, 4228.717773, 4214.871582, 4239.487305, 4203.589844, 3551.000000, 8173.000000, 8138.000000, 0.000000, 0.000000, 0.000000, 26126.000000, 314.871796, 4.000000, 4.000000, 4.000000, 4.000000, 4.000000, 4.000000, 4.000000, 4.000000, 4.000000, 4.000000, 4.000000, 4.000000, 4.000000, 4.000000, 4.000000, 4.000000
68.000000, 0.000000, 4190.769043, 4185.641113, 4200.000000, 4193.846191, 4200.512695, 4208.717773, 4206.666504, 4205.641113, 4200.000000, 4235.897461, 4228.717773, 4217.948730, 4241.538574, 4208.205078, 3533.000000, 8173.000000, 8138.000000, 0.000000, 0.000000, 0.000000, 26126.000000, 323.076904, 4.000000, 4.000000, 4.000000, 4.000000, 4.000000, 4.000000, 4.000000, 4.000000, 4.000000, 4.000000, 4.000000, 4.000000, 4.000000, 4.000000, 4.000000, 4.000000
69.000000, 0.000000, 4189.743652, 4182.051270, 4198.461426, 4190.769043, 4188.205078, 4204.102539, 4204.102539, 4206.666504, 4201.538574, 4230.256348, 4224.102539, 4216.922852, 4236.922852, 4211.794922, 3571.000000, 8181.000000, 8135.000000, 0.000000, 0.000000, 0.000000, 26126.000000, 330.769226, 4.000000, 4.000000, 4.000000, 4.000000, 4.000000, 4.000000, 4.000000, 4.000000, 4.000000, 4.000000, 4.000000, 4.000000, 4.000000, 4.000000, 4.000000, 4.000000
70.000000, 0.000000, 4197.436035, 4188.717773, 4204.615234, 4186.153809, 4188.717773, 4196.922852, 4200.512695, 4205.127930, 4201.538574, 4234.358887, 4224.615234, 4216.922852, 4241.025391, 4218.461426, 3497.000000, 8181.000000, 8135.000000, 0.000000, 0.000000, 0.000000, 26126.000000, 338.974365, 4.000000, 4.000000, 4.000000, 4.000000, 4.000000, 4.000000, 4.000000, 4.000000, 4.000000, 4.000000, 4.000000, 4.000000, 4.000000, 4.000000, 4.000000, 4.000000
71.000000, 0.000000, 4202.051270, 4182.051270, 4214.358887, 4188.717773, 4200.512695, 4201.538574, 4204.102539, 4218.461426, 4206.153809, 4246.153809, 4233.333008, 4227.692383, 4247.179199, 4229.743652, 3503.000000, 8217.000000, 8128.000000, 0.000000, 0.000000, 0.000000, 26126.000000, 346.666656, 4.000000, 4.000000, 4.000000, 4.000000, 4.000000, 4.000000, 4.000000, 4.000000, 4.000000, 4.000000, 4.000000, 4.000000, 4.000000, 4.000000, 4.000000, 4.000000
72.000000, 0.000000, 4201.025391, 4168.205078, 4220.512695, 4187.179199, 4204.615234, 4207.692383, 4211.794922, 4223.076660, 4207.692383, 4252.307617, 4235.897461, 4235.897461, 4238.974121, 4232.820313, 3350.000000, 8217.000000, 8128.000000, 0.000000, 0.000000, 0.000000, 26126.000000, 354.871796, 4.000000, 4.000000, 4.000000, 4.000000, 4.000000, 4.000000, 4.000000, 4.000000, 4.000000, 4.000000, 4.000000, 4.000000, 4.000000, 4.000000, 4.000000, 4.000000
73.000000, 0.000000, 4204.102539, 4183.076660, 4219.487305, 4193.333008, 4198.974121, 4201.025391, 4203.589844, 4204.615234, 4198.461426, 4247.179199, 4229.230469, 4235.897461, 4235.384277, 4230.769043, 3532.000000, 8236.000000, 8124.000000, 0.000000, 0.000000, 0.000000, 26126.000000, 362.564087, 4.000000, 4.000000, 4.000000, 4.000000, 4.000000, 4.000000, 4.000000, 4.000000, 4.000000, 4.000000, 4.000000, 4.000000, 4.000000, 4.000000, 4.000000, 4.000000
74.000000, 0.000000, 4211.281738, 4207.179199, 4213.846191, 4195.897461, 4198.461426, 4197.948730, 4187.179199, 4193.846191, 4194.358887, 4240.512695, 4230.256348, 4228.717773, 4242.563965, 4233.333008, 3204.000000, 8236.000000, 8124.000000, 0.000000, 0.000000, 0.000000, 26126.000000, 370.769226, 4.000000, 4.000000, 4.000000, 4.000000, 4.000000, 4.000000, 4.000000, 4.000000, 4.000000, 4.000000, 4.000000, 4.000000, 4.000000, 4.000000, 4.000000, 4.000000
75.000000, 0.000000, 4216.922852, 4211.794922, 4212.820313, 4193.846191, 4203.589844, 4200.512695, 4180.512695, 4201.025391, 4200.512695, 4241.025391, 4232.307617, 4219.487305, 4242.051270, 4236.410156, 3569.000000, 8258.000000, 8130.000000, 0.000000, 0.000000, 0.000000, 26126.000000, 378.461517, 4.000000, 4.000000, 4.000000, 4.000000, 4.000000, 4.000000, 4.000000, 4.000000, 4.000000, 4.000000, 4.000000, 4.000000, 4.000000, 4.000000, 4.000000, 4.000000
76.000000, 0.000000, 4222.563965, 4221.025391, 4218.461426, 4203.589844, 4214.871582, 4201.538574, 4187.179199, 4205.641113, 4199.487305, 4244.615234, 4225.127930, 4217.948730, 4234.871582, 4229.743652, 3511.000000, 8258.000000, 8130.000000, 0.000000, 0.000000, 0.000000, 26126.000000, 386.666656, 4.000000, 4.000000, 4.000000, 4.000000, 4.000000, 4.000000, 4.000000, 4.000000, 4.000000, 4.000000, 4.000000, 4.000000, 4.000000, 4.000000, 4.000000, 4.000000
77.000000, 0.000000, 4222.563965, 4241.025391, 4218.461426, 4205.641113, 4217.948730, 4204.102539, 4194.871582, 4195.384277, 4191.281738, 4242.051270, 4218.461426, 4217.436035, 4232.307617, 4220.000000, 3476.000000, 8266.000000, 8131.000000, 0.000000, 0.000000, 0.000000, 26126.000000, 394.871796, 4.000000, 4.000000, 4.000000, 4.000000, 4.000000, 4.000000, 4.000000, 4.000000, 4.000000, 4.000000, 4.000000, 4.000000, 4.000000, 4.000000, 4.000000, 4.000000
78.000000, 0.000000, 4213.333008, 4240.000000, 4207.692383, 4204.615234, 4202.563965, 4198.974121, 4191.794922, 4181.025391, 4180.512695, 4222.051270, 4204.615234, 4207.179199, 4213.846191, 4208.205078, 3204.000000, 8266.000000, 8131.000000, 0.000000, 0.000000, 0.000000, 26126.000000, 402.564087, 4.000000, 4.000000, 4.000000, 4.000000, 4.000000, 4.000000, 4.000000, 4.000000, 4.000000, 4.000000, 4.000000, 4.000000, 4.000000, 4.000000, 4.000000, 4.000000
79.000000, 0.000000, 4208.205078, 4231.794922, 4203.076660, 4203.589844, 4197.436035, 4186.666504, 4184.615234, 4182.563965, 4173.333008, 4201.538574, 4186.666504, 4198.461426, 4187.179199, 4195.384277, 3569.000000, 8270.000000, 8134.000000, 0.000000, 0.000000, 0.000000, 26126.000000, 410.769226, 4.000000, 4.000000, 4.000000, 4.000000, 4.000000, 4.000000, 4.000000, 4.000000, 4.000000, 4.000000, 4.000000, 4.000000, 4.000000, 4.000000, 4.000000, 4.000000
80.000000, 0.000000, 4209.743652, 4237.948730, 4201.538574, 4197.436035, 4210.769043, 4185.127930, 4185.641113, 4187.692383, 4174.871582, 4197.436035, 4181.538574, 4196.922852, 4175.897461, 4187.692383, 3511.000000, 8270.000000, 8134.000000, 0.000000, 0.000000, 0.000000, 26126.000000, 418.461517, 4.000000, 4.000000, 4.000000, 4.000000, 4.000000, 4.000000, 4.000000, 4.000000, 4.000000, 4.000000, 4.000000, 4.000000, 4.000000, 4.000000, 4.000000, 4.000000
81.000000, 0.000000, 4201.538574, 4244.102539, 4190.769043, 4200.000000, 4215.384277, 4193.333008, 4188.717773, 4171.281738, 4169.743652, 4192.820313, 4178.974121, 4189.230469, 4166.666504, 4178.461426, 3476.000000, 8284.000000, 8145.000000, 0.000000, 0.000000, 0.000000, 26126.000000, 426.666656, 4.000000, 4.000000, 4.000000, 4.000000, 4.000000, 4.000000, 4.000000, 4.000000, 4.000000, 4.000000, 4.000000, 4.000000, 4.000000, 4.000000, 4.000000, 4.000000
82.000000, 0.000000, 4198.974121, 4247.692383, 4188.717773, 4199.487305, 4212.820313, 4201.025391, 4184.102539, 4161.538574, 4168.205078, 4191.794922, 4171.794922, 4182.563965, 4157.948730, 4173.846191, 3204.000000, 8284.000000, 8145.000000, 0.000000, 0.000000, 0.000000, 26126.000000, 434.358978, 4.000000, 4.000000, 4.000000, 4.000000, 4.000000, 4.000000, 4.000000, 4.000000, 4.000000, 4.000000, 4.000000, 4.000000, 4.000000, 4.000000, 4.000000, 4.000000
83.000000, 0.000000, 4204.102539, 4240.000000, 4197.948730, 4202.563965, 4217.436035, 4201.025391, 4182.051270, 4180.000000, 4178.974121, 4198.461426, 4169.743652, 4184.615234, 4152.307617, 4166.153809, 3569.000000, 8286.000000, 8149.000000, 0.000000, 0.000000, 0.000000, 26126.000000, 442.564087, 4.000000, 4.000000, 4.000000, 4.000000, 4.000000, 4.000000, 4.000000, 4.000000, 4.000000, 4.000000, 4.000000, 4.000000, 4.000000, 4.000000, 4.000000, 4.000000
84.000000, 0.000000, 4193.846191, 4226.153809, 4198.974121, 4205.641113, 4215.384277, 4190.769043, 4182.563965, 4191.794922, 4186.666504, 4202.051270, 4171.794922, 4183.589844, 4149.230469, 4157.436035, 3511.000000, 8286.000000, 8149.000000, 0.000000, 0.000000, 0.000000, 26126.000000, 450.256409, 4.000000, 4.000000, 4.000000, 4.000000, 4.000000, 4.000000, 4.000000, 4.000000, 4.000000, 4.000000, 4.000000, 4.000000, 4.000000, 4.000000, 4.000000, 4.000000
85.000000, 0.000000, 4186.666504, 4226.666504, 4196.922852, 4202.051270, 4205.127930, 4184.102539, 4185.127930, 4187.179199, 4186.666504, 4198.974121, 4172.307617, 4183.589844, 4153.846191, 4163.589844, 3476.000000, 8288.000000, 8159.000000, 0.000000, 0.000000, 0.000000, 26126.000000, 458.461517, 4.000000, 4.000000, 4.000000, 4.000000, 4.000000, 4.000000, 4.000000, 4.000000, 4.000000, 4.000000, 4.000000, 4.000000, 4.000000, 4.000000, 4.000000, 4.000000
86.000000, 0.000000, 4195.384277, 4230.769043, 4203.589844, 4207.179199, 4208.205078, 4191.281738, 4188.717773, 4181.538574, 4185.641113, 4195.384277, 4170.769043, 4186.153809, 4156.410156, 4171.281738, 3204.000000, 8288.000000, 8159.000000, 0.000000, 0.000000, 0.000000, 26126.000000, 466.153839, 4.000000, 4.000000, 4.000000, 4.000000, 4.000000, 4.000000, 4.000000, 4.000000, 4.000000, 4.000000, 4.000000, 4.000000, 4.000000, 4.000000, 4.000000, 4.000000
87.000000, 0.000000, 4199.487305, 4223.589844, 4210.256348, 4205.127930, 4217.948730, 4201.025391, 4187.179199, 4183.076660, 4184.615234, 4194.358887, 4168.717773, 4181.538574, 4153.846191, 4169.230469, 3569.000000, 8280.000000, 8151.000000, 0.000000, 0.000000, 0.000000, 26126.000000, 474.358948, 4.000000, 4.000000, 4.000000, 4.000000, 4.000000, 4.000000, 4.000000, 4.000000, 4.000000, 4.000000, 4.000000, 4.000000, 4.000000, 4.000000, 4.000000, 4.000000
88.000000, 0.000000, 4202.051270, 4224.102539, 4218.461426, 4205.127930, 4217.948730, 4205.641113, 4190.256348, 4190.769043, 4187.179199, 4198.974121, 4177.948730, 4186.666504, 4161.025391, 4174.871582, 3511.000000, 8280.000000, 8151.000000, 0.000000, 0.000000, 0.000000, 26126.000000, 482.051270, 4.000000, 4.000000, 4.000000, 4.000000, 4.000000, 4.000000, 4.000000, 4.000000, 4.000000, 4.000000, 4.000000, 4.000000, 4.000000, 4.000000, 4.000000, 4.000000
89.000000, 0.000000, 4208.717773, 4232.820313, 4225.641113, 4208.717773, 4215.897461, 4207.692383, 4194.871582, 4193.846191, 4190.769043, 4202.051270, 4187.179199, 4204.102539, 4168.205078, 4186.666504, 3476.000000, 8274.000000, 8148.000000, 0.000000, 0.000000, 0.000000, 26126.000000, 489.743591, 4.000000, 4.000000, 4.000000, 4.000000, 4.000000, 4.000000, 4.000000, 4.000000, 4.000000, 4.000000, 4.000000, 4.000000, 4.000000, 4.000000, 4.000000, 4.000000
90.000000, 0.000000, 4206.666504, 4223.589844, 4221.025391, 4202.051270, 4214.871582, 4198.461426, 4190.769043, 4182.563965, 4178.974121, 4188.717773, 4176.410156, 4200.512695, 4160.000000, 4185.641113, 3204.000000, 8274.000000, 8148.000000, 0.000000, 0.000000, 0.000000, 26126.000000, 497.948700, 4.000000, 4.000000, 4.000000, 4.000000, 4.000000, 4.000000, 4.000000, 4.000000, 4.000000, 4.000000, 4.000000, 4.000000, 4.000000, 4.000000, 4.000000, 4.000000
91.000000, 0.000000, 4203.589844, 4212.307617, 4213.333008, 4201.025391, 4215.384277, 4189.743652, 4179.487305, 4173.846191, 4169.743652, 4179.487305, 4169.230469, 4189.743652, 4155.897461, 4179.487305, 3569.000000, 8262.000000, 8149.000000, 0.000000, 0.000000, 0.000000, 26126.000000, 506.153839, 4.000000, 4.000000, 4.000000, 4.000000, 4.000000, 4.000000, 4.000000, 4.000000, 4.000000, 4.000000, 4.000000, 4.000000, 4.000000, 4.000000, 4.000000, 4.000000
92.000000, 0.000000, 4210.769043, 4223.076660, 4215.897461, 4204.102539, 4217.436035, 4199.487305, 4176.410156, 4186.153809, 4182.563965, 4191.794922, 4182.051270, 4200.000000, 4168.205078, 4187.179199, 3511.000000, 8262.000000, 8149.000000, 0.000000, 0.000000, 0.000000, 26126.000000, 513.846130, 4.000000, 4.000000, 4.000000, 4.000000, 4.000000, 4.000000, 4.000000, 4.000000, 4.000000, 4.000000, 4.000000, 4.000000, 4.000000, 4.000000, 4.000000, 4.000000
93.000000, 0.000000, 4217.436035, 4231.794922, 4221.538574, 4209.230469, 4216.410156, 4209.743652, 4188.717773, 4200.512695, 4196.922852, 4203.076660, 4191.281738, 4212.307617, 4174.358887, 4197.436035, 3476.000000, 8257.000000, 8151.000000, 0.000000, 0.000000, 0.000000, 26126.000000, 522.051270, 4.000000, 4.000000, 4.000000, 4.000000, 4.000000, 4.000000, 4.000000, 4.000000, 4.000000, 4.000000, 4.000000, 4.000000, 4.000000, 4.000000, 4.000000, 4.000000
94.000000, 0.000000, 4210.256348, 4223.076660, 4218.974121, 4209.743652, 4214.871582, 4204.615234, 4200.512695, 4201.025391, 4195.897461, 4202.563965, 4186.153809, 4208.205078, 4168.717773, 4192.307617, 3204.000000, 8257.000000, 8151.000000, 0.000000, 0.000000, 0.000000, 26126.000000, 529.743591, 4.000000, 4.000000, 4.000000, 4.000000, 4.000000, 4.000000, 4.000000, 4.000000, 4.000000, 4.000000, 4.000000, 4.000000, 4.000000, 4.000000, 4.000000, 4.000000
95.000000, 0.000000, 4201.025391, 4214.871582, 4209.230469, 4199.487305, 4220.512695, 4206.666504, 4200.512695, 4208.717773, 4195.384277, 4200.512695, 4182.051270, 4198.461426, 4167.179199, 4183.076660, 3569.000000, 8249.000000, 8148.000000, 0.000000, 0.000000, 0.000000, 26126.000000, 537.435913, 4.000000, 4.000000, 4.000000, 4.000000, 4.000000, 4.000000, 4.000000, 4.000000, 4.000000, 4.000000, 4.000000, 4.000000, 4.000000, 4.000000, 4.000000, 4.000000
96.000000, 0.000000, 4202.563965, 4215.384277, 4208.717773, 4203.076660, 4222.563965, 4216.410156, 4201.025391, 4223.589844, 4202.563965, 4202.051270, 4183.076660, 4196.922852, 4168.717773, 4187.179199, 3511.000000, 8249.000000, 8148.000000, 0.000000, 0.000000, 0.000000, 26126.000000, 545.128174, 4.000000, 4.000000, 4.000000, 4.000000, 4.000000, 4.000000, 4.000000, 4.000000, 4.000000, 4.000000, 4.000000, 4.000000, 4.000000, 4.000000, 4.000000, 4.000000
97.000000, 0.000000, 4204.615234, 4217.436035, 4214.358887, 4206.153809, 4220.000000, 4207.692383, 4205.127930, 4223.589844, 4205.641113, 4203.589844, 4184.102539, 4198.974121, 4169.743652, 4189.230469, 3476.000000, 8246.000000, 8148.000000, 0.000000, 0.000000, 0.000000, 26126.000000, 553.333313, 4.000000, 4.000000, 4.000000, 4.000000, 4.000000, 4.000000, 4.000000, 4.000000, 4.000000, 4.000000, 4.000000, 4.000000, 4.000000, 4.000000, 4.000000, 4.000000
98.000000, 0.000000, 4202.051270, 4214.871582, 4211.281738, 4201.025391, 4216.922852, 4195.897461, 4201.538574, 4219.487305, 4204.102539, 4203.076660, 4185.641113, 4202.051270, 4171.281738, 4186.666504, 3204.000000, 8246.000000, 8148.000000, 0.000000, 0.000000, 0.000000, 26126.000000, 561.025635, 4.000000, 4.000000, 4.000000, 4.000000, 4.000000, 4.000000, 4.000000, 4.000000, 4.000000, 4.000000, 4.000000, 4.000000, 4.000000, 4.000000, 4.000000, 4.000000
99.000000, 0.000000, 4193.846191, 4207.179199, 4199.487305, 4198.461426, 4205.127930, 4202.563965, 4200.000000, 4215.384277, 4193.846191, 4198.461426, 4182.563965, 4201.538574, 4169.230469, 4184.102539, 3569.000000, 8244.000000, 8149.000000, 0.000000, 0.000000, 0.000000, 26126.000000, 569.230774, 4.000000, 4.000000, 4.000000, 4.000000, 4.000000, 4.000000, 4.000000, 4.000000, 4.000000, 4.000000, 4.000000, 4.000000, 4.000000, 4.000000, 4.000000, 4.000000
100.000000, 0.000000, 4188.717773, 4200.000000, 4197.948730, 4196.410156, 4196.922852, 4207.179199, 4203.076660, 4202.051270, 4187.179199, 4194.871582, 4176.410156, 4196.922852, 4165.641113, 4176.410156, 3511.000000, 8244.000000, 8149.000000, 0.000000, 0.000000, 0.000000, 26126.000000, 576.923035, 4.000000, 4.000000, 4.000000, 4.000000, 4.000000, 4.000000, 4.000000, 4.000000, 4.000000, 4.000000, 4.000000, 4.000000, 4.000000, 4.000000, 4.000000, 4.000000
101.000000, 0.000000, 4191.794922, 4204.102539, 4208.205078, 4202.563965, 4206.153809, 4203.589844, 4201.538574, 4198.974121, 4193.333008, 4198.974121, 4180.000000, 4198.974121, 4165.127930, 4174.358887, 3476.000000, 8238.000000, 8154.000000, 0.000000, 0.000000, 0.000000, 26126.000000, 585.128174, 4.000000, 4.000000, 4.000000, 4.000000, 4.000000, 4.000000, 4.000000, 4.000000, 4.000000, 4.000000, 4.000000, 4.000000, 4.000000, 4.000000, 4.000000, 4.000000
102.000000, 0.000000, 4197.436035, 4215.897461, 4209.743652, 4201.025391, 4211.281738, 4202.563965, 4201.025391, 4208.205078, 4195.384277, 4204.102539, 4185.641113, 4198.974121, 4170.769043, 4182.051270, 3204.000000, 8238.000000, 8154.000000, 0.000000, 0.000000, 0.000000, 26126.000000, 592.820496, 4.000000, 4.000000, 4.000000, 4.000000, 4.000000, 4.000000, 4.000000, 4.000000, 4.000000, 4.000000, 4.000000, 4.000000, 4.000000, 4.000000, 4.000000, 4.000000
103.000000, 0.000000, 4193.846191, 4209.230469, 4203.589844, 4194.358887, 4204.615234, 4200.512695, 4204.102539, 4201.538574, 4187.692383, 4202.563965, 4180.000000, 4191.794922, 4171.281738, 4179.487305, 3569.000000, 8237.000000, 8156.000000, 0.000000, 0.000000, 0.000000, 26126.000000, 600.512817, 4.000000, 4.000000, 4.000000, 4.000000, 4.000000, 4.000000, 4.000000, 4.000000, 4.000000, 4.000000, 4.000000, 4.000000, 4.000000, 4.000000, 4.000000, 4.000000
104.000000, 0.000000, 4180.000000, 4182.563965, 4196.410156, 4193.846191, 4198.974121, 4197.436035, 4204.615234, 4192.820313, 4188.205078, 4199.487305, 4168.717773, 4185.127930, 4161.538574, 4161.538574, 3511.000000, 8237.000000, 8156.000000, 0.000000, 0.000000, 0.000000, 26126.000000, 608.717957, 4.000000, 4.000000, 4.000000, 4.000000, 4.000000, 4.000000, 4.000000, 4.000000, 4.000000, 4.000000, 4.000000, 4.000000, 4.000000, 4.000000, 4.000000, 4.000000
105.000000, 0.000000, 4176.410156, 4186.666504, 4192.307617, 4189.743652, 4201.538574, 4200.512695, 4201.025391, 4207.692383, 4204.615234, 4205.127930, 4174.358887, 4184.102539, 4160.512695, 4158.461426, 3476.000000, 8240.000000, 8148.000000, 0.000000, 0.000000, 0.000000, 26126.000000, 616.410217, 4.000000, 4.000000, 4.000000, 4.000000, 4.000000, 4.000000, 4.000000, 4.000000, 4.000000, 4.000000, 4.000000, 4.000000, 4.000000, 4.000000, 4.000000, 4.000000
106.000000, 0.000000, 4190.256348, 4218.461426, 4196.410156, 4197.436035, 4208.205078, 4203.076660, 4202.563965, 4218.461426, 4214.358887, 4216.410156, 4182.563965, 4186.153809, 4172.307617, 4172.820313, 3204.000000, 8240.000000, 8148.000000, 0.000000, 0.000000, 0.000000, 26126.000000, 624.615356, 4.000000, 4.000000, 4.000000, 4.000000, 4.000000, 4.000000, 4.000000, 4.000000, 4.000000, 4.000000, 4.000000, 4.000000, 4.000000, 4.000000, 4.000000, 4.000000
107.000000, 0.000000, 4200.000000, 4229.230469, 4203.076660, 4206.153809, 4217.948730, 4205.127930, 4206.153809, 4212.820313, 4210.256348, 4218.461426, 4179.487305, 4186.153809, 4173.846191, 4181.025391, 3569.000000, 8245.000000, 8152.000000, 0.000000, 0.000000, 0.000000, 26126.000000, 632.307678, 4.000000, 4.000000, 4.000000, 4.000000, 4.000000, 4.000000, 4.000000, 4.000000, 4.000000, 4.000000, 4.000000, 4.000000, 4.000000, 4.000000, 4.000000, 4.000000
108.000000, 0.000000, 4193.333008, 4216.922852, 4198.974121, 4203.589844, 4212.307617, 4203.589844, 4195.897461, 4203.076660, 4199.487305, 4210.769043, 4170.256348, 4178.461426, 4161.025391, 4171.794922, 3511.000000, 8245.000000, 8152.000000, 0.000000, 0.000000, 0.000000, 26126.000000, 640.512817, 4.000000, 4.000000, 4.000000, 4.000000, 4.000000, 4.000000, 4.000000, 4.000000, 4.000000, 4.000000, 4.000000, 4.000000, 4.000000, 4.000000, 4.000000, 4.000000
109.000000, 0.000000, 4186.153809, 4212.820313, 4191.281738, 4202.051270, 4196.410156, 4195.384277, 4187.179199, 4197.436035, 4193.846191, 4205.641113, 4166.153809, 4174.358887, 4157.436035, 4163.589844, 3476.000000, 8254.000000, 8155.000000, 0.000000, 0.000000, 0.000000, 26126.000000, 648.717957, 4.000000, 4.000000, 4.000000, 4.000000, 4.000000, 4.000000, 4.000000, 4.000000, 4.000000, 4.000000, 4.000000, 4.000000, 4.000000, 4.000000, 4.000000, 4.000000
110.000000, 0.000000, 4195.384277, 4223.589844, 4196.410156, 4201.025391, 4205.127930, 4202.563965, 4198.461426, 4198.974121, 4205.127930, 4217.436035, 4179.487305, 4184.102539, 4171.794922, 4177.948730, 3204.000000, 8254.000000, 8155.000000, 0.000000, 0.000000, 0.000000, 26126.000000, 656.410217, 4.000000, 4.000000, 4.000000, 4.000000, 4.000000, 4.000000, 4.000000, 4.000000, 4.000000, 4.000000, 4.000000, 4.000000, 4.000000, 4.000000, 4.000000, 4.000000
111.000000, 0.000000, 4206.153809, 4231.794922, 4203.589844, 4206.153809, 4223.076660, 4218.461426, 4207.692383, 4199.487305, 4215.897461, 4231.281738, 4194.358887, 4195.897461, 4185.641113, 4195.897461, 3569.000000, 8251.000000, 8158.000000, 0.000000, 0.000000, 0.000000, 26126.000000, 664.102539, 4.000000, 4.000000, 4.000000, 4.000000, 4.000000, 4.000000, 4.000000, 4.000000, 4.000000, 4.000000, 4.000000, 4.000000, 4.000000, 4.000000, 4.000000, 4.000000
112.000000, 0.000000, 4198.461426, 4225.127930, 4199.487305, 4204.102539, 4218.461426, 4218.974121, 4203.589844, 4206.153809, 4217.436035, 4234.358887, 4196.922852, 4202.563965, 4188.717773, 4197.948730, 3511.000000, 8251.000000, 8158.000000, 0.000000, 0.000000, 0.000000, 26126.000000, 672.307678, 4.000000, 4.000000, 4.000000, 4.000000, 4.000000, 4.000000, 4.000000, 4.000000, 4.000000, 4.000000, 4.000000, 4.000000, 4.000000, 4.000000, 4.000000, 4.000000
113.000000, 0.000000, 4193.846191, 4215.897461, 4200.000000, 4198.461426, 4211.794922, 4213.333008, 4201.025391, 4221.538574, 4218.461426, 4234.871582, 4198.461426, 4209.743652, 4185.127930, 4198.461426, 3476.000000, 8260.000000, 8152.000000, 0.000000, 0.000000, 0.000000, 26126.000000, 680.000000, 4.000000, 4.000000, 4.000000, 4.000000, 4.000000, 4.000000, 4.000000, 4.000000, 4.000000, 4.000000, 4.000000, 4.000000, 4.000000, 4.000000, 4.000000, 4.000000
114.000000, 0.000000, 4204.102539, 4221.538574, 4211.281738, 4207.179199, 4214.358887, 4205.641113, 4203.076660, 4217.948730, 4216.410156, 4234.871582, 4198.974121, 4215.384277, 4183.589844, 4203.589844, 3204.000000, 8260.000000, 8152.000000, 0.000000, 0.000000, 0.000000, 26126.000000, 687.692261, 4.000000, 4.000000, 4.000000, 4.000000, 4.000000, 4.000000, 4.000000, 4.000000, 4.000000, 4.000000, 4.000000, 4.000000, 4.000000, 4.000000, 4.000000, 4.000000
115.000000, 0.000000, 4208.717773, 4224.615234, 4214.871582, 4205.127930, 4206.666504, 4199.487305, 4202.563965, 4201.025391, 4208.205078, 4230.769043, 4193.333008, 4212.820313, 4183.589844, 4197.948730, 3569.000000, 8257.000000, 8156.000000, 0.000000, 0.000000, 0.000000, 26126.000000, 695.897400, 4.000000, 4.000000, 4.000000, 4.000000, 4.000000, 4.000000, 4.000000, 4.000000, 4.000000, 4.000000, 4.000000, 4.000000, 4.000000, 4.000000, 4.000000, 4.000000
116.000000, 0.000000, 4202.051270, 4217.948730, 4210.769043, 4202.051270, 4198.974121, 4209.743652, 4203.589844, 4205.127930, 4201.025391, 4228.205078, 4193.333008, 4209.230469, 4182.563965, 4189.230469, 3511.000000, 8257.000000, 8156.000000, 0.000000, 0.000000, 0.000000, 26126.000000, 704.102539, 4.000000, 4.000000, 4.000000, 4.000000, 4.000000, 4.000000, 4.000000, 4.000000, 4.000000, 4.000000, 4.000000, 4.000000, 4.000000, 4.000000, 4.000000, 4.000000
117.000000, 0.000000, 4198.461426, 4216.410156, 4211.794922, 4204.102539, 4206.153809, 4216.410156, 4200.000000, 4213.846191, 4202.051270, 4226.153809, 4197.948730, 4211.281738, 4182.563965, 4194.871582, 3476.000000, 8254.000000, 8152.000000, 0.000000, 0.000000, 0.000000, 26126.000000, 711.794861, 4.000000, 4.000000, 4.000000, 4.000000, 4.000000, 4.000000, 4.000000, 4.000000, 4.000000, 4.000000, 4.000000, 4.000000, 4.000000, 4.000000, 4.000000, 4.000000
118.000000, 0.000000, 4201.538574, 4216.410156, 4213.846191, 4200.512695, 4204.615234, 4205.127930, 4190.256348, 4196.922852, 4198.461426, 4225.127930, 4195.384277, 4211.794922, 4184.102539, 4202.563965, 3204.000000, 8254.000000, 8152.000000, 0.000000, 0.000000, 0.000000, 26126.000000, 719.487183, 4.000000, 4.000000, 4.000000, 4.000000, 4.000000, 4.000000, 4.000000, 4.000000, 4.000000, 4.000000, 4.000000, 4.000000, 4.000000, 4.000000, 4.000000, 4.000000
119.000000, 0.000000, 4203.076660, 4214.871582, 4216.922852, 4204.615234, 4201.538574, 4196.410156, 4187.179199, 4195.384277, 4198.461426, 4229.230469, 4198.974121, 4215.384277, 4188.205078, 4202.051270, 3569.000000, 8249.000000, 8151.000000, 0.000000, 0.000000, 0.000000, 26126.000000, 727.692261, 4.000000, 4.000000, 4.000000, 4.000000, 4.000000, 4.000000, 4.000000, 4.000000, 4.000000, 4.000000, 4.000000, 4.000000, 4.000000, 4.000000, 4.000000, 4.000000
120.000000, 0.000000, 4199.487305, 4215.384277, 4214.871582, 4201.538574, 4201.538574, 4190.256348, 4192.307617, 4215.384277, 4204.615234, 4226.153809, 4202.051270, 4215.384277, 4184.615234, 4200.000000, 3511.000000, 8249.000000, 8151.000000, 0.000000, 0.000000, 0.000000, 26126.000000, 735.384583, 4.000000, 4.000000, 4.000000, 4.000000, 4.000000, 4.000000, 4.000000, 4.000000, 4.000000, 4.000000, 4.000000, 4.000000, 4.000000, 4.000000, 4.000000, 4.000000
121.000000, 0.000000, 4195.384277, 4214.358887, 4206.666504, 4199.487305, 4194.871582, 4184.102539, 4197.948730, 4210.256348, 4201.538574, 4213.333008, 4192.307617, 4204.102539, 4177.436035, 4197.436035, 3476.000000, 8248.000000, 8154.000000, 0.000000, 0.000000, 0.000000, 26126.000000, 743.076904, 4.000000, 4.000000, 4.000000, 4.000000, 4.000000, 4.000000, 4.000000, 4.000000, 4.000000, 4.000000, 4.000000, 4.000000, 4.000000, 4.000000, 4.000000, 4.000000
122.000000, 0.000000, 4198.974121, 4216.922852, 4209.230469, 4204.615234, 4200.512695, 4197.436035, 4202.051270, 4195.384277, 4197.948730, 4213.333008, 4192.307617, 4203.076660, 4180.512695, 4197.436035, 3204.000000, 8248.000000, 8154.000000, 0.000000, 0.000000, 0.000000, 26126.000000, 751.282043, 4.000000, 4.000000, 4.000000, 4.000000, 4.000000, 4.000000, 4.000000, 4.000000, 4.000000, 4.000000, 4.000000, 4.000000, 4.000000, 4.000000, 4.000000, 4.000000
123.000000, 0.000000, 4206.666504, 4220.000000, 4215.897461, 4204.102539, 4216.922852, 4212.820313, 4205.127930, 4201.025391, 4203.076660, 4222.563965, 4202.051270, 4213.846191, 4186.666504, 4201.538574, 3569.000000, 8241.000000, 8154.000000, 0.000000, 0.000000, 0.000000, 26126.000000, 758.974365, 4.000000, 4.000000, 4.000000, 4.000000, 4.000000, 4.000000, 4.000000, 4.000000, 4.000000, 4.000000, 4.000000, 4.000000, 4.000000, 4.000000, 4.000000, 4.000000
124.000000, 0.000000, 4204.102539, 4216.410156, 4212.820313, 4206.153809, 4213.333008, 4206.153809, 4198.461426, 4206.153809, 4206.666504, 4220.512695, 4197.948730, 4214.358887, 4182.563965, 4198.461426, 3511.000000, 8241.000000, 8154.000000, 0.000000, 0.000000, 0.000000, 26126.000000, 767.179443, 4.000000, 4.000000, 4.000000, 4.000000, 4.000000, 4.000000, 4.000000, 4.000000, 4.000000, 4.000000, 4.000000, 4.000000, 4.000000, 4.000000, 4.000000, 4.000000
125.000000, 0.000000, 4198.461426, 4212.307617, 4207.179199, 4202.563965, 4200.000000, 4193.846191, 4186.666504, 4192.820313, 4200.000000, 4208.717773, 4186.153809, 4201.025391, 4170.256348, 4188.205078, 3476.000000, 8232.000000, 8155.000000, 0.000000, 0.000000, 0.000000, 26126.000000, 774.871765, 4.000000, 4.000000, 4.000000, 4.000000, 4.000000, 4.000000, 4.000000, 4.000000, 4.000000, 4.000000, 4.000000, 4.000000, 4.000000, 4.000000, 4.000000, 4.000000
126.000000, 0.000000, 4201.538574, 4217.948730, 4207.179199, 4201.538574, 4203.076660, 4187.179199, 4182.051270, 4174.358887, 4185.127930, 4200.512695, 4181.025391, 4193.846191, 4165.641113, 4182.051270, 3204.000000, 8232.000000, 8155.000000, 0.000000, 0.000000, 0.000000, 26126.000000, 782.564087, 4.000000, 4.000000, 4.000000, 4.000000, 4.000000, 4.000000, 4.000000, 4.000000, 4.000000, 4.000000, 4.000000, 4.000000, 4.000000, 4.000000, 4.000000, 4.000000
127.000000, 0.000000, 4206.153809, 4229.230469, 4209.743652, 4207.179199, 4205.127930, 4185.641113, 4181.025391, 4171.281738, 4183.589844, 4204.615234, 4185.127930, 4197.948730, 4176.410156, 4185.641113, 52.000000, 8231.000000, 8157.000000, 0.000000, 0.000000, 0.000000, 26126.000000, 790.769226, 4.000000, 4.000000, 4.000000, 4.000000, 4.000000, 4.000000, 4.000000, 4.000000, 4.000000, 4.000000, 4.000000, 4.000000, 4.000000, 4.000000, 4.000000, 4.000000
0.000000, 0.000000, 4203.076660, 4231.794922, 4208.205078, 4205.127930, 4200.512695, 4192.307617, 4185.127930, 4185.641113, 4198.974121, 4213.333008, 4188.717773, 4197.948730, 4180.512695, 4189.743652, 3498.000000, 8231.000000, 8157.000000, 0.000000, 0.000000, 0.000000, 26126.000000, 798.461548, 4.000000, 4.000000, 4.000000, 4.000000, 4.000000, 4.000000, 4.000000, 4.000000, 4.000000, 4.000000, 4.000000, 4.000000, 4.000000, 4.000000, 4.000000, 4.000000
1.000000, 0.000000, 4200.000000, 4224.102539, 4206.666504, 4208.205078, 4208.205078, 4201.025391, 4194.358887, 4200.512695, 4205.641113, 4212.820313, 4182.563965, 4191.281738, 4172.820313, 4186.153809, 2289.000000, 8225.000000, 8149.000000, 0.000000, 0.000000, 0.000000, 26126.000000, 806.153809, 4.000000, 4.000000, 4.000000, 4.000000, 4.000000, 4.000000, 4.000000, 4.000000, 4.000000, 4.000000, 4.000000, 4.000000, 4.000000, 4.000000, 4.000000, 4.000000
2.000000, 0.000000, 4198.974121, 4218.461426, 4211.281738, 4208.205078, 4218.974121, 4202.051270, 4192.307617, 4200.512695, 4199.487305, 4210.769043, 4180.000000, 4190.256348, 4176.922852, 4186.153809, 3101.000000, 8225.000000, 8149.000000, 0.000000, 0.000000, 0.000000, 26126.000000, 814.358948, 4.000000, 4.000000, 4.000000, 4.000000, 4.000000, 4.000000, 4.000000, 4.000000, 4.000000, 4.000000, 4.000000, 4.000000, 4.000000, 4.000000, 4.000000, 4.000000
3.000000, 0.000000, 4205.127930, 4223.589844, 4218.461426, 4202.051270, 4217.948730, 4202.563965, 4183.589844, 4198.461426, 4200.512695, 4218.974121, 4192.307617, 4204.102539, 4189.743652, 4196.410156, 3551.000000, 8222.000000, 8152.000000, 0.000000, 0.000000, 0.000000, 26126.000000, 822.564087, 4.000000, 4.000000, 4.000000, 4.000000, 4.000000, 4.000000, 4.000000, 4.000000, 4.000000, 4.000000, 4.000000, 4.000000, 4.000000, 4.000000, 4.000000, 4.000000
4.000000, 0.000000, 4208.717773, 4223.589844, 4214.358887, 4200.512695, 4212.307617, 4202.563965, 4190.769043, 4202.563965, 4206.153809, 4224.615234, 4197.948730, 4215.384277, 4185.641113, 4200.512695, 3540.000000, 8222.000000, 8152.000000, 0.000000, 0.000000, 0.000000, 26126.000000, 830.256409, 4.000000, 4.000000, 4.000000, 4.000000, 4.000000, 4.000000, 4.000000, 4.000000, 4.000000, 4.000000, 4.000000, 4.000000, 4.000000, 4.000000, 4.000000, 4.000000
5.000000, 0.000000, 4204.615234, 4219.487305, 4208.717773, 4199.487305, 4206.153809, 4193.846191, 4197.436035, 4208.717773, 4207.179199, 4220.000000, 4193.846191, 4212.307617, 4181.538574, 4194.358887, 3579.000000, 8217.000000, 8148.000000, 0.000000, 0.000000, 0.000000, 26126.000000, 838.461548, 4.000000, 4.000000, 4.000000, 4.000000, 4.000000, 4.000000, 4.000000, 4.000000, 4.000000, 4.000000, 4.000000, 4.000000, 4.000000, 4.000000, 4.000000, 4.000000
6.000000, 0.000000, 4203.076660, 4220.512695, 4213.846191, 4206.666504, 4198.461426, 4188.205078, 4191.794922, 4206.666504, 4204.102539, 4214.871582, 4193.333008, 4213.333008, 4189.230469, 4197.436035, 3505.000000, 8217.000000, 8148.000000, 0.000000, 0.000000, 0.000000, 26126.000000, 846.153809, 4.000000, 4.000000, 4.000000, 4.000000, 4.000000, 4.000000, 4.000000, 4.000000, 4.000000, 4.000000, 4.000000, 4.000000, 4.000000, 4.000000, 4.000000, 4.000000
7.000000, 0.000000, 4199.487305, 4216.922852, 4215.897461, 4205.127930, 4199.487305, 4200.000000, 4198.461426, 4200.512695, 4200.000000, 4216.410156, 4189.743652, 4216.410156, 4180.512695, 4196.410156, 3506.000000, 8218.000000, 8142.000000, 0.000000, 0.000000, 0.000000, 26126.000000, 853.846130, 4.000000, 4.000000, 4.000000, 4.000000, 4.000000, 4.000000, 4.000000, 4.000000, 4.000000, 4.000000, 4.000000, 4.000000, 4.000000, 4.000000, 4.000000, 4.000000
8.000000, 0.000000, 4202.051270, 4217.436035, 4218.974121, 4203.589844, 4213.333008, 4216.922852, 4212.820313, 4209.230469, 4209.230469, 4225.127930, 4191.281738, 4218.461426, 4173.333008, 4194.871582, 3359.000000, 8218.000000, 8142.000000, 0.000000, 0.000000, 0.000000, 26126.000000, 861.538452, 4.000000, 4.000000, 4.000000, 4.000000, 4.000000, 4.000000, 4.000000, 4.000000, 4.000000, 4.000000, 4.000000, 4.000000, 4.000000, 4.000000, 4.000000, 4.000000
9.000000, 0.000000, 4216.922852, 4231.794922, 4228.205078, 4213.333008, 4219.487305, 4216.410156, 4207.179199, 4220.000000, 4218.974121, 4233.333008, 4208.717773, 4228.717773, 4194.358887, 4214.871582, 3539.000000, 8217.000000, 8131.000000, 0.000000, 0.000000, 0.000000, 26126.000000, 869.743591, 4.000000, 4.000000, 4.000000, 4.000000, 4.000000, 4.000000, 4.000000, 4.000000, 4.000000, 4.000000, 4.000000, 4.000000, 4.000000, 4.000000, 4.000000, 4.000000
10.000000, 0.000000, 4226.666504, 4240.000000, 4234.358887, 4210.256348, 4213.333008, 4203.076660, 4197.436035, 4205.127930, 4210.769043, 4233.846191, 4214.358887, 4233.333008, 4209.230469, 4233.333008, 3211.000000, 8217.000000, 8131.000000, 0.000000, 0.000000, 0.000000, 26126.000000, 877.435852, 4.000000, 4.000000, 4.000000, 4.000000, 4.000000, 4.000000, 4.000000, 4.000000, 4.000000, 4.000000, 4.000000, 4.000000, 4.000000, 4.000000, 4.000000, 4.000000
11.000000, 0.000000, 4231.281738, 4233.846191, 4232.307617, 4208.205078, 4209.743652, 4198.461426, 4195.384277, 4182.563965, 4194.358887, 4223.076660, 4202.563965, 4225.127930, 4200.512695, 4231.794922, 3574.000000, 8213.000000, 8130.000000, 0.000000, 0.000000, 0.000000, 26126.000000, 885.640991, 4.000000, 4.000000, 4.000000, 4.000000, 4.000000, 4.000000, 4.000000, 4.000000, 4.000000, 4.000000, 4.000000, 4.000000, 4.000000, 4.000000, 4.000000, 4.000000
12.000000, 0.000000, 4236.922852, 4238.974121, 4232.307617, 4212.307617, 4212.307617, 4204.102539, 4189.743652, 4180.000000, 4188.717773, 4215.384277, 4201.025391, 4217.436035, 4198.974121, 4230.769043, 3521.000000, 8213.000000, 8130.000000, 0.000000, 0.000000, 0.000000, 26126.000000, 893.333313, 4.000000, 4.000000, 4.000000, 4.000000, 4.000000, 4.000000, 4.000000, 4.000000, 4.000000, 4.000000, 4.000000, 4.000000, 4.000000, 4.000000, 4.000000, 4.000000
13.000000, 0.000000, 4240.000000, 4248.717773, 4238.461426, 4214.358887, 4206.153809, 4202.563965, 4189.743652, 4186.666504, 4188.205078, 4222.563965, 4204.615234, 4220.000000, 4206.666504, 4238.974121, 3478.000000, 8214.000000, 8129.000000, 0.000000, 0.000000, 0.000000, 26126.000000, 901.538452, 4.000000, 4.000000, 4.000000, 4.000000, 4.000000, 4.000000, 4.000000, 4.000000, 4.000000, 4.000000, 4.000000, 4.000000, 4.000000, 4.000000, 4.000000, 4.000000
14.000000, 0.000000, 4242.563965, 4245.127930, 4238.974121, 4215.897461, 4200.000000, 4197.436035, 4201.025391, 4191.281738, 4188.205078, 4227.179199, 4205.641113, 4227.692383, 4205.641113, 4243.076660, 3211.000000, 8214.000000, 8129.000000, 0.000000, 0.000000, 0.000000, 26126.000000, 909.230774, 4.000000, 4.000000, 4.000000, 4.000000, 4.000000, 4.000000, 4.000000, 4.000000, 4.000000, 4.000000, 4.000000, 4.000000, 4.000000, 4.000000, 4.000000, 4.000000
15.000000, 0.000000, 4243.589844, 4241.538574, 4232.820313, 4210.256348, 4206.153809, 4202.051270, 4204.615234, 4195.897461, 4194.871582, 4224.615234, 4214.358887, 4230.769043, 4206.153809, 4240.512695, 3574.000000, 8212.000000, 8130.000000, 0.000000, 0.000000, 0.000000, 26126.000000, 916.923035, 4.000000, 4.000000, 4.000000, 4.000000, 4.000000, 4.000000, 4.000000, 4.000000, 4.000000, 4.000000, 4.000000, 4.000000, 4.000000, 4.000000, 4.000000, 4.000000
16.000000, 0.000000, 4231.794922, 4235.897461, 4223.589844, 4211.281738, 4208.205078, 4205.641113, 4200.512695, 4200.000000, 4201.025391, 4222.563965, 4215.384277, 4225.641113, 4202.051270, 4227.692383, 0.000000, 8212.000000, 8130.000000, 0.000000, 0.000000, 0.000000, 26126.000000, 924.615356, 4.000000, 4.000000, 4.000000, 4.000000, 4.000000, 4.000000, 4.000000, 4.000000, 4.000000, 4.000000, 4.000000, 4.000000, 4.000000, 4.000000, 4.000000, 4.000000
17.000000, 0.000000, 4213.846191, 4220.000000, 4218.461426, 4205.641113, 4200.512695, 4204.615234, 4209.230469, 4207.692383, 4201.538574, 4223.589844, 4200.512695, 4218.461426, 4189.230469, 4209.230469, 0.000000, 8217.000000, 8134.000000, 0.000000, 0.000000, 0.000000, 26126.000000, 932.820496, 4.000000, 4.000000, 4.000000, 4.000000, 4.000000, 4.000000, 4.000000, 4.000000, 4.000000, 4.000000, 4.000000, 4.000000, 4.000000, 4.000000, 4.000000, 4.000000
18.000000, 0.000000, 4206.666504, 4208.205078, 4213.333008, 4194.358887, 4189.743652, 4201.025391, 4218.461426, 4213.333008, 4196.410156, 4214.871582, 4188.205078, 4212.820313, 4182.051270, 4200.512695, 0.000000, 8217.000000, 8134.000000, 0.000000, 0.000000, 0.000000, 26126.000000, 940.512817, 4.000000, 4.000000, 4.000000, 4.000000, 4.000000, 4.000000, 4.000000, 4.000000, 4.000000, 4.000000, 4.000000, 4.000000, 4.000000, 4.000000, 4.000000, 4.000000
19.000000, 0.000000, 4200.000000, 4202.051270, 4205.127930, 4197.948730, 4180.512695, 4196.922852, 4211.794922, 4192.820313, 4185.127930, 4200.512695, 4184.615234, 4205.641113, 4178.974121, 4193.846191, 0.000000, 8220.000000, 8139.000000, 0.000000, 0.000000, 0.000000, 26126.000000, 948.205078, 4.000000, 4.000000, 4.000000, 4.000000, 4.000000, 4.000000, 4.000000, 4.000000, 4.000000, 4.000000, 4.000000, 4.000000, 4.000000, 4.000000, 4.000000, 4.000000
20.000000, 0.000000, 4195.897461, 4201.025391, 4203.589844, 4195.897461, 4188.205078, 4201.025391, 4205.127930, 4176.410156, 4181.025391, 4206.153809, 4186.666504, 4205.127930, 4178.461426, 4187.692383, 0.000000, 8220.000000, 8139.000000, 0.000000, 0.000000, 0.000000, 26126.000000, 955.897400, 4.000000, 4.000000, 4.000000, 4.000000, 4.000000, 4.000000, 4.000000, 4.000000, 4.000000, 4.000000, 4.000000, 4.000000, 4.000000, 4.000000, 4.000000, 4.000000
21.000000, 0.000000, 4200.512695, 4205.641113, 4206.153809, 4193.333008, 4197.948730, 4205.641113, 4204.102539, 4190.256348, 4192.820313, 4218.461426, 4188.717773, 4208.717773, 4182.051270, 4189.743652, 0.000000, 8219.000000, 8144.000000, 0.000000, 0.000000, 0.000000, 26126.000000, 964.102539, 4.000000, 4.000000, 4.000000, 4.000000, 4.000000, 4.000000, 4.000000, 4.000000, 4.000000, 4.000000, 4.000000, 4.000000, 4.000000, 4.000000, 4.000000, 4.000000
22.000000, 0.000000, 4197.436035, 4205.641113, 4205.127930, 4194.358887, 4185.127930, 4197.948730, 4206.666504, 4196.922852, 4202.051270, 4213.846191, 4183.076660, 4200.512695, 4180.000000, 4187.692383, 0.000000, 8219.000000, 8144.000000, 0.000000, 0.000000, 0.000000, 26126.000000, 971.794861, 4.000000, 4.000000, 4.000000, 4.000000, 4.000000, 4.000000, 4.000000, 4.000000, 4.000000, 4.000000, 4.000000, 4.000000, 4.000000, 4.000000, 4.000000, 4.000000
23.000000, 0.000000, 4191.794922, 4202.563965, 4201.025391, 4192.307617, 4183.076660, 4198.974121, 4205.127930, 4190.256348, 4201.025391, 4210.256348, 4186.153809, 4194.358887, 4178.461426, 4184.615234, 0.000000, 8211.000000, 8147.000000, 0.000000, 0.000000, 0.000000, 26126.000000, 980.000000, 4.000000, 4.000000, 4.000000, 4.000000, 4.000000, 4.000000, 4.000000, 4.000000, 4.000000, 4.000000, 4.000000, 4.000000, 4.000000, 4.000000, 4.000000, 4.000000
24.000000, 0.000000, 4192.820313, 4199.487305, 4200.512695, 4193.846191, 4197.948730, 4199.487305, 4202.051270, 4189.230469, 4201.538574, 4214.358887, 4193.333008, 4199.487305, 4183.076660, 4191.794922, 0.000000, 8211.000000, 8147.000000, 0.000000, 0.000000, 0.000000, 26126.000000, 987.692261, 4.000000, 4.000000, 4.000000, 4.000000, 4.000000, 4.000000, 4.000000, 4.000000, 4.000000, 4.000000, 4.000000, 4.000000, 4.000000, 4.000000, 4.000000, 4.000000
25.000000, 0.000000, 4196.922852, 4200.000000, 4207.179199, 4190.769043, 4192.820313, 4187.179199, 4207.179199, 4191.281738, 4202.051270, 4211.794922, 4188.717773, 4198.974121, 4186.666504, 4200.000000, 0.000000, 8212.000000, 8149.000000, 0.000000, 0.000000, 0.000000, 26126.000000, 995.384583, 4.000000, 4.000000, 4.000000, 4.000000, 4.000000, 4.000000, 4.000000, 4.000000, 4.000000, 4.000000, 4.000000, 4.000000, 4.000000, 4.000000, 4.000000, 4.000000
26.000000, 0.000000, 4205.641113, 4204.615234, 4217.948730, 4193.333008, 4179.487305, 4189.743652, 4212.820313, 4197.436035, 4202.051270, 4210.769043, 4187.179199, 4201.538574, 4190.769043, 4202.563965, 0.000000, 8212.000000, 8149.000000, 0.000000, 0.000000, 0.000000, 26127.000000, 3.076923, 4.000000, 4.000000, 4.000000, 4.000000, 4.000000, 4.000000, 4.000000, 4.000000, 4.000000, 4.000000, 4.000000, 4.000000, 4.000000, 4.000000, 4.000000, 4.000000
27.000000, 0.000000, 4207.179199, 4202.051270, 4220.000000, 4195.897461, 4184.102539, 4196.922852, 4205.641113, 4203.589844, 4197.948730, 4212.820313, 4190.769043, 4210.256348, 4190.769043, 4202.051270, 0.000000, 8210.000000, 8149.000000, 0.000000, 0.000000, 0.000000, 26127.000000, 11.282051, 4.000000, 4.000000, 4.000000, 4.000000, 4.000000, 4.000000, 4.000000, 4.000000, 4.000000, 4.000000, 4.000000, 4.000000, 4.000000, 4.000000, 4.000000, 4.000000
28.000000, 0.000000, 4198.461426, 4194.358887, 4214.358887, 4189.743652, 4186.153809, 4185.641113, 4196.922852, 4191.281738, 4187.692383, 4201.538574, 4184.615234, 4209.230469, 4181.538574, 4196.410156, 0.000000, 8210.000000, 8149.000000, 0.000000, 0.000000, 0.000000, 26127.000000, 18.974358, 4.000000, 4.000000, 4.000000, 4.000000, 4.000000, 4.000000, 4.000000, 4.000000, 4.000000, 4.000000, 4.000000, 4.000000, 4.000000, 4.000000, 4.000000, 4.000000
29.000000, 0.000000, 4203.589844, 4204.102539, 4217.436035, 4198.974121, 4184.102539, 4185.641113, 4197.948730, 4174.871582, 4177.436035, 4194.871582, 4187.692383, 4212.820313, 4188.717773, 4201.538574, 0.000000, 8208.000000, 8150.000000, 0.000000, 0.000000, 0.000000, 26127.000000, 27.179487, 4.000000, 4.000000, 4.000000, 4.000000, 4.000000, 4.000000, 4.000000, 4.000000, 4.000000, 4.000000, 4.000000, 4.000000, 4.000000, 4.000000, 4.000000, 4.000000
30.000000, 0.000000, 4219.487305, 4222.051270, 4223.076660, 4206.666504, 4190.256348, 4197.948730, 4192.820313, 4173.846191, 4174.358887, 4204.615234, 4201.025391, 4221.025391, 4205.641113, 4217.948730, 0.000000, 8208.000000, 8150.000000, 0.000000, 0.000000, 0.000000, 26127.000000, 34.871796, 4.000000, 4.000000, 4.000000, 4.000000, 4.000000, 4.000000, 4.000000, 4.000000, 4.000000, 4.000000, 4.000000, 4.000000, 4.000000, 4.000000, 4.000000, 4.000000
31.000000, 0.000000, 4214.358887, 4218.974121, 4221.025391, 4203.076660, 4184.615234, 4184.615234, 4178.461426, 4170.256348, 4171.281738, 4199.487305, 4188.205078, 4213.846191, 4188.205078, 4210.769043, 0.000000, 8209.000000, 8155.000000, 0.000000, 0.000000, 0.000000, 26127.000000, 43.076923, 4.000000, 4.000000, 4.000000, 4.000000, 4.000000, 4.000000, 4.000000, 4.000000, 4.000000, 4.000000, 4.000000, 4.000000, 4.000000, 4.000000, 4.000000, 4.000000
32.000000, 0.000000, 4199.487305, 4210.256348, 4211.794922, 4201.538574, 4178.974121, 4175.897461, 4170.769043, 4164.615234, 4163.589844, 4177.948730, 4167.179199, 4199.487305, 4167.692383, 4192.307617, 0.000000, 8209.000000, 8155.000000, 0.000000, 0.000000, 0.000000, 26127.000000, 50.769230, 4.000000, 4.000000, 4.000000, 4.000000, 4.000000, 4.000000, 4.000000, 4.000000, 4.000000, 4.000000, 4.000000, 4.000000, 4.000000, 4.000000, 4.000000, 4.000000
33.000000, 0.000000, 4204.102539, 4217.436035, 4202.563965, 4199.487305, 4196.922852, 4198.461426, 4186.666504, 4166.153809, 4160.000000, 4168.205078, 4166.666504, 4188.717773, 4180.512695, 4197.436035, 0.000000, 8210.000000, 8160.000000, 0.000000, 0.000000, 0.000000, 26127.000000, 58.974358, 4.000000, 4.000000, 4.000000, 4.000000, 4.000000, 4.000000, 4.000000, 4.000000, 4.000000, 4.000000, 4.000000, 4.000000, 4.000000, 4.000000, 4.000000, 4.000000
34.000000, 0.000000, 4205.641113, 4215.897461, 4198.461426, 4200.000000, 4208.205078, 4206.666504, 4205.641113, 4166.153809, 4161.025391, 4167.179199, 4161.538574, 4174.871582, 4186.153809, 4198.974121, 0.000000, 8210.000000, 8160.000000, 0.000000, 0.000000, 0.000000, 26127.000000, 66.666664, 4.000000, 4.000000, 4.000000, 4.000000, 4.000000, 4.000000, 4.000000, 4.000000, 4.000000, 4.000000, 4.000000, 4.000000, 4.000000, 4.000000, 4.000000, 4.000000
35.000000, 0.000000, 4191.281738, 4198.461426, 4197.948730, 4193.846191, 4193.846191, 4198.974121, 4193.333008, 4166.153809, 4169.743652, 4174.358887, 4156.922852, 4168.717773, 4176.410156, 4190.256348, 0.000000, 8215.000000, 8161.000000, 0.000000, 0.000000, 0.000000, 26127.000000, 74.871796, 4.000000, 4.000000, 4.000000, 4.000000, 4.000000, 4.000000, 4.000000, 4.000000, 4.000000, 4.000000, 4.000000, 4.000000, 4.000000, 4.000000, 4.000000, 4.000000
36.000000, 0.000000, 4200.512695, 4203.076660, 4198.974121, 4196.410156, 4192.307617, 4206.666504, 4184.102539, 4171.794922, 4183.076660, 4193.846191, 4175.384277, 4184.615234, 4189.230469, 4203.076660, 0.000000, 8215.000000, 8161.000000, 0.000000, 0.000000, 0.000000, 26127.000000, 82.564102, 4.000000, 4.000000, 4.000000, 4.000000, 4.000000, 4.000000, 4.000000, 4.000000, 4.000000, 4.000000, 4.000000, 4.000000, 4.000000, 4.000000, 4.000000, 4.000000
37.000000, 0.000000, 4222.563965, 4229.230469, 4198.974121, 4207.179199, 4209.743652, 4210.769043, 4197.436035, 4172.820313, 4188.717773, 4206.666504, 4189.230469, 4197.436035, 4206.666504, 4220.512695, 0.000000, 8214.000000, 8160.000000, 0.000000, 0.000000, 0.000000, 26127.000000, 90.256409, 4.000000, 4.000000, 4.000000, 4.000000, 4.000000, 4.000000, 4.000000, 4.000000, 4.000000, 4.000000, 4.000000, 4.000000, 4.000000, 4.000000, 4.000000, 4.000000
38.000000, 0.000000, 4220.000000, 4231.281738, 4198.461426, 4203.076660, 4210.256348, 4192.820313, 4192.820313, 4170.769043, 4187.692383, 4205.127930, 4184.615234, 4196.922852, 4205.127930, 4217.436035, 0.000000, 8214.000000, 8160.000000, 0.000000, 0.000000, 0.000000, 26127.000000, 98.461533, 4.000000, 4.000000, 4.000000, 4.000000, 4.000000, 4.000000, 4.000000, 4.000000, 4.000000, 4.000000, 4.000000, 4.000000, 4.000000, 4.000000, 4.000000, 4.000000
39.000000, 0.000000, 4207.179199, 4213.846191, 4202.051270, 4203.076660, 4197.948730, 4186.153809, 4180.512695, 4176.410156, 4192.307617, 4210.256348, 4187.692383, 4198.461426, 4205.127930, 4212.820313, 0.000000, 8211.000000, 8175.000000, 0.000000, 0.000000, 0.000000, 26127.000000, 106.153847, 4.000000, 4.000000, 4.000000, 4.000000, 4.000000, 4.000000, 4.000000, 4.000000, 4.000000, 4.000000, 4.000000, 4.000000, 4.000000, 4.000000, 4.000000, 4.000000
40.000000, 0.000000, 4204.102539, 4214.871582, 4205.127930, 4200.512695, 4200.512695, 4203.076660, 4192.820313, 4185.127930, 4203.589844, 4222.051270, 4199.487305, 4202.051270, 4208.205078, 4214.358887, 0.000000, 8211.000000, 8175.000000, 0.000000, 0.000000, 0.000000, 26127.000000, 113.846153, 4.000000, 4.000000, 4.000000, 4.000000, 4.000000, 4.000000, 4.000000, 4.000000, 4.000000, 4.000000, 4.000000, 4.000000, 4.000000, 4.000000, 4.000000, 4.000000
41.000000, 0.000000, 4204.102539, 4217.948730, 4195.384277, 4192.820313, 4206.666504, 4208.717773, 4203.589844, 4201.538574, 4213.333008, 4221.538574, 4195.897461, 4202.051270, 4205.127930, 4206.666504, 0.000000, 8212.000000, 8180.000000, 0.000000, 0.000000, 0.000000, 26127.000000, 122.051277, 4.000000, 4.000000, 4.000000, 4.000000, 4.000000, 4.000000, 4.000000, 4.000000, 4.000000, 4.000000, 4.000000, 4.000000, 4.000000, 4.000000, 4.000000, 4.000000
42.000000, 0.000000, 4195.384277, 4202.563965, 4188.205078, 4193.846191, 4198.974121, 4200.000000, 4197.948730, 4221.025391, 4221.025391, 4217.436035, 4186.666504, 4200.512695, 4200.512695, 4196.922852, 0.000000, 8212.000000, 8180.000000, 0.000000, 0.000000, 0.000000, 26127.000000, 129.743591, 4.000000, 4.000000, 4.000000, 4.000000, 4.000000, 4.000000, 4.000000, 4.000000, 4.000000, 4.000000, 4.000000, 4.000000, 4.000000, 4.000000, 4.000000, 4.000000
43.000000, 0.000000, 4189.743652, 4198.974121, 4191.794922, 4191.281738, 4195.384277, 4197.948730, 4197.948730, 4216.410156, 4215.897461, 4219.487305, 4190.256348, 4199.487305, 4201.025391, 4198.461426, 0.000000, 8212.000000, 8175.000000, 0.000000, 0.000000, 0.000000, 26127.000000, 137.948715, 4.000000, 4.000000, 4.000000, 4.000000, 4.000000, 4.000000, 4.000000, 4.000000, 4.000000, 4.000000, 4.000000, 4.000000, 4.000000, 4.000000, 4.000000, 4.000000
44.000000, 0.000000, 4192.820313, 4209.230469, 4195.897461, 4194.358887, 4201.538574, 4202.051270, 4202.051270, 4195.897461, 4202.051270, 4218.974121, 4198.461426, 4200.000000, 4203.076660, 4201.538574, 0.000000, 8212.000000, 8175.000000, 0.000000, 0.000000, 0.000000, 26127.000000, 145.641022, 4.000000, 4.000000, 4.000000, 4.000000, 4.000000, 4.000000, 4.000000, 4.000000, 4.000000, 4.000000, 4.000000, 4.000000, 4.000000, 4.000000, 4.000000, 4.000000
45.000000, 0.000000, 4195.897461, 4211.794922, 4197.436035, 4196.410156, 4202.051270, 4204.615234, 4206.153809, 4195.897461, 4198.461426, 4215.384277, 4198.461426, 4198.974121, 4203.589844, 4198.461426, 0.000000, 8218.000000, 8172.000000, 0.000000, 0.000000, 0.000000, 26127.000000, 153.846146, 4.000000, 4.000000, 4.000000, 4.000000, 4.000000, 4.000000, 4.000000, 4.000000, 4.000000, 4.000000, 4.000000, 4.000000, 4.000000, 4.000000, 4.000000, 4.000000
46.000000, 0.000000, 4201.538574, 4213.333008, 4202.051270, 4195.384277, 4203.589844, 4202.563965, 4204.102539, 4206.153809, 4203.589844, 4215.897461, 4198.461426, 4202.051270, 4208.717773, 4201.538574, 0.000000, 8218.000000, 8172.000000, 0.000000, 0.000000, 0.000000, 26127.000000, 161.538452, 4.000000, 4.000000, 4.000000, 4.000000, 4.000000, 4.000000, 4.000000, 4.000000, 4.000000, 4.000000, 4.000000, 4.000000, 4.000000, 4.000000, 4.000000, 4.000000
47.000000, 0.000000, 4210.256348, 4214.358887, 4205.127930, 4196.410156, 4203.589844, 4203.076660, 4200.512695, 4213.333008, 4205.641113, 4218.974121, 4203.589844, 4211.794922, 4214.358887, 4207.692383, 0.000000, 8213.000000, 8170.000000, 0.000000, 0.000000, 0.000000, 26127.000000, 169.230759, 4.000000, 4.000000, 4.000000, 4.000000, 4.000000, 4.000000, 4.000000, 4.000000, 4.000000, 4.000000, 4.000000, 4.000000, 4.000000, 4.000000, 4.000000, 4.000000
48.000000, 0.000000, 4208.717773, 4211.281738, 4207.692383, 4192.307617, 4191.281738, 4203.589844, 4209.743652, 4224.615234, 4208.205078, 4218.461426, 4205.127930, 4217.948730, 4211.281738, 4206.153809, 0.000000, 8213.000000, 8170.000000, 0.000000, 0.000000, 0.000000, 26127.000000, 177.435898, 4.000000, 4.000000, 4.000000, 4.000000, 4.000000, 4.000000, 4.000000, 4.000000, 4.000000, 4.000000, 4.000000, 4.000000, 4.000000, 4.000000, 4.000000, 4.000000
49.000000, 0.000000, 4202.051270, 4214.871582, 4216.922852, 4202.051270, 4188.717773, 4193.846191, 4218.974121, 4218.461426, 4205.641113, 4217.948730, 4203.589844, 4220.000000, 4204.615234, 4208.717773, 0.000000, 8205.000000, 8171.000000, 0.000000, 0.000000, 0.000000, 26127.000000, 185.641022, 4.000000, 4.000000, 4.000000, 4.000000, 4.000000, 4.000000, 4.000000, 4.000000, 4.000000, 4.000000, 4.000000, 4.000000, 4.000000, 4.000000, 4.000000, 4.000000
50.000000, 0.000000, 4207.179199, 4222.051270, 4219.487305, 4209.743652, 4206.153809, 4192.820313, 4220.512695, 4197.948730, 4197.948730, 4216.410156, 4205.127930, 4222.051270, 4205.127930, 4216.922852, 0.000000, 8205.000000, 8171.000000, 0.000000, 0.000000, 0.000000, 26127.000000, 193.333328, 4.000000, 4.000000, 4.000000, 4.000000, 4.000000, 4.000000, 4.000000, 4.000000, 4.000000, 4.000000, 4.000000, 4.000000, 4.000000, 4.000000, 4.000000, 4.000000
51.000000, 0.000000, 4213.333008, 4221.025391, 4213.846191, 4201.025391, 4207.179199, 4209.743652, 4215.897461, 4204.102539, 4200.000000, 4208.717773, 4205.641113, 4219.487305, 4205.127930, 4214.871582, 0.000000, 8203.000000, 8177.000000, 0.000000, 0.000000, 0.000000, 26127.000000, 201.025635, 4.000000, 4.000000, 4.000000, 4.000000, 4.000000, 4.000000, 4.000000, 4.000000, 4.000000, 4.000000, 4.000000, 4.000000, 4.000000, 4.000000, 4.000000, 4.000000
52.000000, 0.000000, 4208.717773, 4211.794922, 4212.307617, 4200.000000, 4192.307617, 4214.358887, 4209.743652, 4220.000000, 4206.666504, 4199.487305, 4198.974121, 4215.897461, 4194.871582, 4203.076660, 0.000000, 8203.000000, 8177.000000, 0.000000, 0.000000, 0.000000, 26127.000000, 209.230759, 4.000000, 4.000000, 4.000000, 4.000000, 4.000000, 4.000000, 4.000000, 4.000000, 4.000000, 4.000000, 4.000000, 4.000000, 4.000000, 4.000000, 4.000000, 4.000000
53.000000, 0.000000, 4201.025391, 4203.589844, 4206.666504, 4197.436035, 4196.922852, 4198.461426, 4207.692383, 4207.692383, 4202.051270, 4200.512695, 4193.846191, 4211.794922, 4187.179199, 4196.922852, 0.000000, 8197.000000, 8175.000000, 0.000000, 0.000000, 0.000000, 26127.000000, 216.923065, 4.000000, 4.000000, 4.000000, 4.000000, 4.000000, 4.000000, 4.000000, 4.000000, 4.000000, 4.000000, 4.000000, 4.000000, 4.000000, 4.000000, 4.000000, 4.000000
54.000000, 0.000000, 4194.358887, 4194.358887, 4192.820313, 4194.871582, 4205.127930, 4195.897461, 4206.666504, 4182.563965, 4188.717773, 4199.487305, 4188.717773, 4199.487305, 4182.051270, 4190.256348, 0.000000, 8197.000000, 8175.000000, 0.000000, 0.000000, 0.000000, 26127.000000, 225.128204, 4.000000, 4.000000, 4.000000, 4.000000, 4.000000, 4.000000, 4.000000, 4.000000, 4.000000, 4.000000, 4.000000, 4.000000, 4.000000, 4.000000, 4.000000, 4.000000
55.000000, 0.000000, 4179.487305, 4177.948730, 4181.538574, 4189.743652, 4196.410156, 4209.230469, 4202.051270, 4172.820313, 4180.512695, 4177.948730, 4170.256348, 4183.589844, 4158.974121, 4170.769043, 0.000000, 8196.000000, 8171.000000, 0.000000, 0.000000, 0.000000, 26127.000000, 232.820511, 4.000000, 4.000000, 4.000000, 4.000000, 4.000000, 4.000000, 4.000000, 4.000000, 4.000000, 4.000000, 4.000000, 4.000000, 4.000000, 4.000000, 4.000000, 4.000000
56.000000, 0.000000, 4176.410156, 4168.205078, 4182.563965, 4184.615234, 4194.358887, 4198.461426, 4197.948730, 4177.436035, 4188.717773, 4171.794922, 4164.102539, 4179.487305, 4151.281738, 4164.102539, 0.000000, 8196.000000, 8171.000000, 0.000000, 0.000000, 0.000000, 26127.000000, 240.512817, 4.000000, 4.000000, 4.000000, 4.000000, 4.000000, 4.000000, 4.000000, 4.000000, 4.000000, 4.000000, 4.000000, 4.000000, 4.000000, 4.000000, 4.000000, 4.000000
57.000000, 0.000000, 4191.281738, 4180.000000, 4189.230469, 4194.358887, 4203.589844, 4195.897461, 4196.922852, 4182.051270, 4195.897461, 4191.281738, 4186.153809, 4191.794922, 4180.512695, 4183.076660, 0.000000, 8196.000000, 8168.000000, 0.000000, 0.000000, 0.000000, 26127.000000, 248.717941, 4.000000, 4.000000, 4.000000, 4.000000, 4.000000, 4.000000, 4.000000, 4.000000, 4.000000, 4.000000, 4.000000, 4.000000, 4.000000, 4.000000, 4.000000, 4.000000
58.000000, 0.000000, 4195.897461, 4186.153809, 4190.256348, 4198.974121, 4203.076660, 4249.230469, 4196.922852, 4181.538574, 4191.794922, 4199.487305, 4203.589844, 4205.127930, 4200.512695, 4202.051270, 0.000000, 8196.000000, 8168.000000, 0.000000, 0.000000, 0.000000, 26127.000000, 256.410248, 4.000000, 4.000000, 4.000000, 4.000000, 4.000000, 4.000000, 4.000000, 4.000000, 4.000000, 4.000000, 4.000000, 4.000000, 4.000000, 4.000000, 4.000000, 4.000000
59.000000, 0.000000, 4191.281738, 4175.384277, 4194.358887, 4195.897461, 4198.974121, 4282.051270, 4204.615234, 4185.127930, 4192.820313, 4194.871582, 4203.076660, 4209.743652, 4192.307617, 4202.563965, 0.000000, 8194.000000, 8164.000000, 0.000000, 0.000000, 0.000000, 26127.000000, 264.102570, 4.000000, 4.000000, 4.000000, 4.000000, 4.000000, 4.000000, 4.000000, 4.000000, 4.000000, 4.000000, 4.000000, 4.000000, 4.000000, 4.000000, 4.000000, 4.000000
60.000000, 0.000000, 4186.153809, 4171.281738, 4197.436035, 4190.769043, 4203.076660, 4240.000000, 4202.051270, 4184.615234, 4193.333008, 4194.358887, 4196.410156, 4206.666504, 4187.179199, 4195.384277, 0.000000, 8194.000000, 8164.000000, 0.000000, 0.000000, 0.000000, 26127.000000, 271.794861, 4.000000, 4.000000, 4.000000, 4.000000, 4.000000, 4.000000, 4.000000, 4.000000, 4.000000, 4.000000, 4.000000, 4.000000, 4.000000, 4.000000, 4.000000, 4.000000
61.000000, 0.000000, 4178.461426, 4166.666504, 4190.769043, 4187.179199, 4202.563965, 4201.025391, 4185.641113, 4172.820313, 4184.102539, 4190.256348, 4192.307617, 4198.461426, 4187.692383, 4188.717773, 0.000000, 8200.000000, 8154.000000, 0.000000, 0.000000, 0.000000, 26127.000000, 280.000000, 4.000000, 4.000000, 4.000000, 4.000000, 4.000000, 4.000000, 4.000000, 4.000000, 4.000000, 4.000000, 4.000000, 4.000000, 4.000000, 4.000000, 4.000000, 4.000000
62.000000, 0.000000, 4175.384277, 4157.948730, 4182.563965, 4192.307617, 4198.974121, 4207.179199, 4183.589844, 4170.769043, 4184.615234, 4186.666504, 4189.230469, 4191.794922, 4184.102539, 4185.127930, 0.000000, 8200.000000, 8154.000000, 0.000000, 0.000000, 0.000000, 26127.000000, 287.692291, 4.000000, 4.000000, 4.000000, 4.000000, 4.000000, 4.000000, 4.000000, 4.000000, 4.000000, 4.000000, 4.000000, 4.000000, 4.000000, 4.000000, 4.000000, 4.000000
63.000000, 0.000000, 4184.615234, 4167.179199, 4182.563965, 4188.717773, 4201.538574, 4216.410156, 4193.333008, 4186.666504, 4198.974121, 4191.281738, 4189.743652, 4192.307617, 4187.179199, 4189.230469, 0.000000, 8196.000000, 8154.000000, 0.000000, 0.000000, 0.000000, 26127.000000, 295.384613, 4.000000, 4.000000, 4.000000, 4.000000, 4.000000, 4.000000, 4.000000, 4.000000, 4.000000, 4.000000, 4.000000, 4.000000, 4.000000, 4.000000, 4.000000, 4.000000
64.000000, 0.000000, 4187.692383, 4174.358887, 4186.153809, 4186.666504, 4202.563965, 4213.333008, 4201.025391, 4192.307617, 4203.076660, 4189.743652, 4189.230469, 4192.307617, 4188.205078, 4191.281738, 3498.000000, 8196.000000, 8154.000000, 0.000000, 0.000000, 0.000000, 26127.000000, 303.589722, 4.000000, 4.000000, 4.000000, 4.000000, 4.000000, 4.000000, 4.000000, 4.000000, 4.000000, 4.000000, 4.000000, 4.000000, 4.000000, 4.000000, 4.000000, 4.000000
65.000000, 0.000000, 4174.871582, 4157.948730, 4184.615234, 4188.717773, 4200.000000, 4204.615234, 4201.538574, 4181.538574, 4195.384277, 4184.102539, 4181.538574, 4184.615234, 4183.076660, 4187.179199, 2282.000000, 8198.000000, 8159.000000, 0.000000, 0.000000, 0.000000, 26127.000000, 311.282043, 4.000000, 4.000000, 4.000000, 4.000000, 4.000000, 4.000000, 4.000000, 4.000000, 4.000000, 4.000000, 4.000000, 4.000000, 4.000000, 4.000000, 4.000000, 4.000000
66.000000, 0.000000, 4169.230469, 4147.692383, 4185.641113, 4185.127930, 4198.974121, 4199.487305, 4199.487305, 4182.051270, 4196.922852, 4187.179199, 4176.922852, 4182.563965, 4182.563965, 4187.179199, 3102.000000, 8198.000000, 8159.000000, 0.000000, 0.000000, 0.000000, 26127.000000, 318.974365, 4.000000, 4.000000, 4.000000, 4.000000, 4.000000, 4.000000, 4.000000, 4.000000, 4.000000, 4.000000, 4.000000, 4.000000, 4.000000, 4.000000, 4.000000, 4.000000
67.000000, 0.000000, 4177.948730, 4154.871582, 4186.153809, 4188.717773, 4201.025391, 4209.230469, 4201.538574, 4189.743652, 4202.563965, 4188.205078, 4180.000000, 4188.717773, 4182.051270, 4188.205078, 3552.000000, 8199.000000, 8156.000000, 0.000000, 0.000000, 0.000000, 26127.000000, 327.179474, 4.000000, 4.000000, 4.000000, 4.000000, 4.000000, 4.000000, 4.000000, 4.000000, 4.000000, 4.000000, 4.000000, 4.000000, 4.000000, 4.000000, 4.000000, 4.000000
68.000000, 0.000000, 4177.948730, 4159.487305, 4183.076660, 4187.692383, 4203.589844, 4210.256348, 4202.051270, 4187.179199, 4203.076660, 4187.692383, 4185.127930, 4188.205078, 4181.025391, 4186.666504, 3535.000000, 8199.000000, 8156.000000, 0.000000, 0.000000, 0.000000, 26127.000000, 334.871796, 4.000000, 4.000000, 4.000000, 4.000000, 4.000000, 4.000000, 4.000000, 4.000000, 4.000000, 4.000000, 4.000000, 4.000000, 4.000000, 4.000000, 4.000000, 4.000000
69.000000, 0.000000, 4170.769043, 4154.871582, 4181.538574, 4185.127930, 4200.512695, 4201.538574, 4201.025391, 4191.281738, 4208.717773, 4191.281738, 4185.127930, 4184.615234, 4183.076660, 4184.615234, 3714.000000, 8194.000000, 8168.000000, 0.000000, 0.000000, 0.000000, 26127.000000, 343.076904, 4.000000, 4.000000, 4.000000, 4.000000, 4.000000, 4.000000, 4.000000, 4.000000, 4.000000, 4.000000, 4.000000, 4.000000, 4.000000, 4.000000, 4.000000, 4.000000
70.000000, 0.000000, 4174.358887, 4153.333008, 4182.563965, 4190.256348, 4196.922852, 4201.025391, 4208.717773, 4196.922852, 4217.436035, 4197.948730, 4185.127930, 4185.127930, 4184.102539, 4184.102539, 3511.000000, 8194.000000, 8168.000000, 0.000000, 0.000000, 0.000000, 26127.000000, 350.769226, 4.000000, 4.000000, 4.000000, 4.000000, 4.000000, 4.000000, 4.000000, 4.000000, 4.000000, 4.000000, 4.000000, 4.000000, 4.000000, 4.000000, 4.000000, 4.000000
71.000000, 0.000000, 4183.076660, 4162.051270, 4181.538574, 4187.692383, 4203.076660, 4204.615234, 4215.384277, 4192.820313, 4217.948730, 4201.025391, 4188.205078, 4187.692383, 4182.563965, 4191.281738, 3508.000000, 8191.000000, 8167.000000, 0.000000, 0.000000, 0.000000, 26127.000000, 358.974365, 4.000000, 4.000000, 4.000000, 4.000000, 4.000000, 4.000000, 4.000000, 4.000000, 4.000000, 4.000000, 4.000000, 4.000000, 4.000000, 4.000000, 4.000000, 4.000000
72.000000, 0.000000, 4184.615234, 4168.717773, 4182.563965, 4191.281738, 4208.717773, 4202.051270, 4209.230469, 4199.487305, 4221.025391, 4198.974121, 4192.820313, 4195.897461, 4190.769043, 4199.487305, 3355.000000, 8191.000000, 8167.000000, 0.000000, 0.000000, 0.000000, 26127.000000, 366.666656, 4.000000, 4.000000, 4.000000, 4.000000, 4.000000, 4.000000, 4.000000, 4.000000, 4.000000, 4.000000, 4.000000, 4.000000, 4.000000, 4.000000, 4.000000, 4.000000
73.000000, 0.000000, 4186.153809, 4166.666504, 4189.743652, 4192.307617, 4203.589844, 4192.820313, 4199.487305, 4213.846191, 4231.794922, 4201.538574, 4200.000000, 4202.563965, 4200.512695, 4201.538574, 3541.000000, 8181.000000, 8165.000000, 0.000000, 0.000000, 0.000000, 26127.000000, 374.871796, 4.000000, 4.000000, 4.000000, 4.000000, 4.000000, 4.000000, 4.000000, 4.000000, 4.000000, 4.000000, 4.000000, 4.000000, 4.000000, 4.000000, 4.000000, 4.000000
74.000000, 0.000000, 4194.358887, 4171.281738, 4196.410156, 4193.333008, 4200.000000, 4192.307617, 4200.512695, 4213.846191, 4235.897461, 4212.307617, 4206.153809, 4203.589844, 4201.025391, 4206.153809, 3211.000000, 8181.000000, 8165.000000, 0.000000, 0.000000, 0.000000, 26127.000000, 382.564087, 4.000000, 4.000000, 4.000000, 4.000000, 4.000000, 4.000000, 4.000000, 4.000000, 4.000000, 4.000000, 4.000000, 4.000000, 4.000000, 4.000000, 4.000000, 4.000000
75.000000, 0.000000, 4200.512695, 4182.051270, 4198.974121, 4202.051270, 4202.051270, 4196.410156, 4201.538574, 4206.153809, 4229.743652, 4216.410156, 4209.743652, 4202.563965, 4205.127930, 4217.436035, 3574.000000, 8181.000000, 8172.000000, 0.000000, 0.000000, 0.000000, 26127.000000, 390.769226, 4.000000, 4.000000, 4.000000, 4.000000, 4.000000, 4.000000, 4.000000, 4.000000, 4.000000, 4.000000, 4.000000, 4.000000, 4.000000, 4.000000, 4.000000, 4.000000
76.000000, 0.000000, 4200.512695, 4181.025391, 4200.000000, 4199.487305, 4199.487305, 4189.230469, 4190.769043, 4208.717773, 4223.589844, 4208.205078, 4206.153809, 4200.000000, 4208.205078, 4216.922852, 3521.000000, 8181.000000, 8172.000000, 0.000000, 0.000000, 0.000000, 26127.000000, 398.974335, 4.000000, 4.000000, 4.000000, 4.000000, 4.000000, 4.000000, 4.000000, 4.000000, 4.000000, 4.000000, 4.000000, 4.000000, 4.000000, 4.000000, 4.000000, 4.000000
77.000000, 0.000000, 4197.948730, 4174.358887, 4203.589844, 4199.487305, 4195.384277, 4178.461426, 4183.589844, 4209.743652, 4221.538574, 4203.589844, 4196.410156, 4200.512695, 4197.948730, 4205.127930, 3478.000000, 8184.000000, 8170.000000, 0.000000, 0.000000, 0.000000, 26127.000000, 406.666656, 4.000000, 4.000000, 4.000000, 4.000000, 4.000000, 4.000000, 4.000000, 4.000000, 4.000000, 4.000000, 4.000000, 4.000000, 4.000000, 4.000000, 4.000000, 4.000000
78.000000, 0.000000, 4198.461426, 4178.974121, 4205.127930, 4202.051270, 4200.000000, 4183.076660, 4190.256348, 4208.717773, 4226.666504, 4213.846191, 4198.974121, 4203.076660, 4195.384277, 4206.666504, 3211.000000, 8184.000000, 8170.000000, 0.000000, 0.000000, 0.000000, 26127.000000, 414.871796, 4.000000, 4.000000, 4.000000, 4.000000, 4.000000, 4.000000, 4.000000, 4.000000, 4.000000, 4.000000, 4.000000, 4.000000, 4.000000, 4.000000, 4.000000, 4.000000
79.000000, 0.000000, 4204.615234, 4187.692383, 4204.102539, 4200.512695, 4201.538574, 4194.871582, 4203.076660, 4213.846191, 4234.358887, 4220.000000, 4211.281738, 4203.589844, 4211.281738, 4218.974121, 3574.000000, 8183.000000, 8166.000000, 0.000000, 0.000000, 0.000000, 26127.000000, 422.564087, 4.000000, 4.000000, 4.000000, 4.000000, 4.000000, 4.000000, 4.000000, 4.000000, 4.000000, 4.000000, 4.000000, 4.000000, 4.000000, 4.000000, 4.000000, 4.000000
80.000000, 0.000000, 4207.179199, 4183.589844, 4210.256348, 4205.641113, 4196.922852, 4202.051270, 4213.333008, 4217.436035, 4232.307617, 4218.461426, 4216.922852, 4211.281738, 4219.487305, 4222.051270, 3521.000000, 8183.000000, 8166.000000, 0.000000, 0.000000, 0.000000, 26127.000000, 430.769226, 4.000000, 4.000000, 4.000000, 4.000000, 4.000000, 4.000000, 4.000000, 4.000000, 4.000000, 4.000000, 4.000000, 4.000000, 4.000000, 4.000000, 4.000000, 4.000000
81.000000, 0.000000, 4204.615234, 4172.820313, 4216.922852, 4204.102539, 4199.487305, 4195.897461, 4212.307617, 4212.307617, 4226.153809, 4218.974121, 4214.358887, 4218.974121, 4210.769043, 4218.974121, 3478.000000, 8186.000000, 8166.000000, 0.000000, 0.000000, 0.000000, 26127.000000, 438.461517, 4.000000, 4.000000, 4.000000, 4.000000, 4.000000, 4.000000, 4.000000, 4.000000, 4.000000, 4.000000, 4.000000, 4.000000, 4.000000, 4.000000, 4.000000, 4.000000
82.000000, 0.000000, 4203.076660, 4173.333008, 4215.897461, 4201.025391, 4203.076660, 4184.102539, 4205.127930, 4203.076660, 4218.974121, 4213.333008, 4205.127930, 4218.461426, 4202.563965, 4216.922852, 3211.000000, 8186.000000, 8166.000000, 0.000000, 0.000000, 0.000000, 26127.000000, 446.666656, 4.000000, 4.000000, 4.000000, 4.000000, 4.000000, 4.000000, 4.000000, 4.000000, 4.000000, 4.000000, 4.000000, 4.000000, 4.000000, 4.000000, 4.000000, 4.000000
83.000000, 0.000000, 4203.076660, 4181.025391, 4215.384277, 4202.051270, 4200.000000, 4192.307617, 4210.769043, 4203.589844, 4213.846191, 4203.076660, 4199.487305, 4219.487305, 4200.000000, 4215.897461, 3574.000000, 8188.000000, 8161.000000, 0.000000, 0.000000, 0.000000, 26127.000000, 454.358978, 4.000000, 4.000000, 4.000000, 4.000000, 4.000000, 4.000000, 4.000000, 4.000000, 4.000000, 4.000000, 4.000000, 4.000000, 4.000000, 4.000000, 4.000000, 4.000000
84.000000, 0.000000, 4204.615234, 4179.487305, 4220.512695, 4203.589844, 4201.025391, 4207.692383, 4220.512695, 4204.615234, 4215.897461, 4198.974121, 4201.025391, 4222.563965, 4198.461426, 4215.384277, 3521.000000, 8188.000000, 8161.000000, 0.000000, 0.000000, 0.000000, 26127.000000, 462.564087, 4.000000, 4.000000, 4.000000, 4.000000, 4.000000, 4.000000, 4.000000, 4.000000, 4.000000, 4.000000, 4.000000, 4.000000, 4.000000, 4.000000, 4.000000, 4.000000
85.000000, 0.000000, 4200.512695, 4168.205078, 4218.461426, 4202.563965, 4198.461426, 4203.589844, 4217.436035, 4204.102539, 4212.307617, 4198.974121, 4199.487305, 4219.487305, 4195.897461, 4211.794922, 3478.000000, 8181.000000, 8166.000000, 0.000000, 0.000000, 0.000000, 26127.000000, 470.256409, 4.000000, 4.000000, 4.000000, 4.000000, 4.000000, 4.000000, 4.000000, 4.000000, 4.000000, 4.000000, 4.000000, 4.000000, 4.000000, 4.000000, 4.000000, 4.000000
86.000000, 0.000000, 4188.717773, 4160.512695, 4208.717773, 4190.769043, 4184.615234, 4190.256348, 4212.820313, 4214.358887, 4204.615234, 4198.461426, 4193.333008, 4210.769043, 4188.717773, 4203.589844, 3211.000000, 8181.000000, 8166.000000, 0.000000, 0.000000, 0.000000, 26127.000000, 478.461517, 4.000000, 4.000000, 4.000000, 4.000000, 4.000000, 4.000000, 4.000000, 4.000000, 4.000000, 4.000000, 4.000000, 4.000000, 4.000000, 4.000000, 4.000000, 4.000000
87.000000, 0.000000, 4187.179199, 4162.563965, 4207.692383, 4192.820313, 4184.615234, 4188.717773, 4215.384277, 4221.538574, 4206.666504, 4196.922852, 4193.846191, 4210.256348, 4184.615234, 4200.512695, 3574.000000, 8186.000000, 8167.000000, 0.000000, 0.000000, 0.000000, 26127.000000, 486.153839, 4.000000, 4.000000, 4.000000, 4.000000, 4.000000, 4.000000, 4.000000, 4.000000, 4.000000, 4.000000, 4.000000, 4.000000, 4.000000, 4.000000, 4.000000, 4.000000
88.000000, 0.000000, 4197.948730, 4170.256348, 4216.410156, 4199.487305, 4201.025391, 4198.461426, 4215.384277, 4209.230469, 4216.410156, 4198.461426, 4198.974121, 4214.871582, 4192.307617, 4207.179199, 3521.000000, 8186.000000, 8167.000000, 0.000000, 0.000000, 0.000000, 26127.000000, 494.358948, 4.000000, 4.000000, 4.000000, 4.000000, 4.000000, 4.000000, 4.000000, 4.000000, 4.000000, 4.000000, 4.000000, 4.000000, 4.000000, 4.000000, 4.000000, 4.000000
89.000000, 0.000000, 4201.025391, 4174.358887, 4215.897461, 4195.384277, 4204.615234, 4204.615234, 4214.358887, 4205.641113, 4218.974121, 4207.179199, 4202.563965, 4218.974121, 4200.512695, 4215.897461, 3478.000000, 8178.000000, 8171.000000, 0.000000, 0.000000, 0.000000, 26127.000000, 502.564087, 4.000000, 4.000000, 4.000000, 4.000000, 4.000000, 4.000000, 4.000000, 4.000000, 4.000000, 4.000000, 4.000000, 4.000000, 4.000000, 4.000000, 4.000000, 4.000000
90.000000, 0.000000, 4193.846191, 4172.307617, 4205.641113, 4200.512695, 4197.948730, 4197.948730, 4213.846191, 4223.589844, 4217.436035, 4215.384277, 4209.230469, 4218.461426, 4199.487305, 4212.307617, 3211.000000, 8178.000000, 8171.000000, 0.000000, 0.000000, 0.000000, 26127.000000, 510.256409, 4.000000, 4.000000, 4.000000, 4.000000, 4.000000, 4.000000, 4.000000, 4.000000, 4.000000, 4.000000, 4.000000, 4.000000, 4.000000, 4.000000, 4.000000, 4.000000
91.000000, 0.000000, 4186.666504, 4171.281738, 4199.487305, 4196.922852, 4202.051270, 4190.256348, 4216.410156, 4228.717773, 4217.436035, 4218.461426, 4217.436035, 4216.410156, 4200.000000, 4205.127930, 3574.000000, 8177.000000, 8175.000000, 0.000000, 0.000000, 0.000000, 26127.000000, 517.948730, 4.000000, 4.000000, 4.000000, 4.000000, 4.000000, 4.000000, 4.000000, 4.000000, 4.000000, 4.000000, 4.000000, 4.000000, 4.000000, 4.000000, 4.000000, 4.000000
92.000000, 0.000000, 4188.205078, 4171.281738, 4197.948730, 4192.820313, 4201.538574, 4189.743652, 4215.897461, 4215.897461, 4217.436035, 4217.948730, 4217.436035, 4218.974121, 4204.615234, 4209.743652, 3521.000000, 8177.000000, 8175.000000, 0.000000, 0.000000, 0.000000, 26127.000000, 526.153809, 4.000000, 4.000000, 4.000000, 4.000000, 4.000000, 4.000000, 4.000000, 4.000000, 4.000000, 4.000000, 4.000000, 4.000000, 4.000000, 4.000000, 4.000000, 4.000000
93.000000, 0.000000, 4192.820313, 4172.820313, 4199.487305, 4197.436035, 4188.717773, 4187.692383, 4205.641113, 4208.717773, 4217.948730, 4214.871582, 4214.871582, 4220.512695, 4205.127930, 4211.794922, 3478.000000, 8181.000000, 8172.000000, 0.000000, 0.000000, 0.000000, 26127.000000, 534.358948, 4.000000, 4.000000, 4.000000, 4.000000, 4.000000, 4.000000, 4.000000, 4.000000, 4.000000, 4.000000, 4.000000, 4.000000, 4.000000, 4.000000, 4.000000, 4.000000
94.000000, 0.000000, 4194.358887, 4179.487305, 4196.410156, 4198.461426, 4187.692383, 4182.563965, 4190.256348, 4202.563965, 4215.384277, 4210.769043, 4214.871582, 4213.846191, 4201.538574, 4205.641113, 3211.000000, 8181.000000, 8172.000000, 0.000000, 0.000000, 0.000000, 26127.000000, 542.051270, 4.000000, 4.000000, 4.000000, 4.000000, 4.000000, 4.000000, 4.000000, 4.000000, 4.000000, 4.000000, 4.000000, 4.000000, 4.000000, 4.000000, 4.000000, 4.000000
95.000000, 0.000000, 4193.846191, 4184.102539, 4191.281738, 4200.512695, 4197.948730, 4180.512695, 4189.230469, 4197.948730, 4213.333008, 4211.281738, 4213.846191, 4212.307617, 4202.051270, 4208.717773, 3574.000000, 8184.000000, 8174.000000, 0.000000, 0.000000, 0.000000, 26127.000000, 550.256409, 4.000000, 4.000000, 4.000000, 4.000000, 4.000000, 4.000000, 4.000000, 4.000000, 4.000000, 4.000000, 4.000000, 4.000000, 4.000000, 4.000000, 4.000000, 4.000000
96.000000, 0.000000, 4195.897461, 4187.179199, 4196.410156, 4200.512695, 4204.102539, 4188.717773, 4207.179199, 4214.358887, 4215.384277, 4220.512695, 4218.974121, 4218.461426, 4208.717773, 4214.871582, 3521.000000, 8184.000000, 8174.000000, 0.000000, 0.000000, 0.000000, 26127.000000, 557.948730, 4.000000, 4.000000, 4.000000, 4.000000, 4.000000, 4.000000, 4.000000, 4.000000, 4.000000, 4.000000, 4.000000, 4.000000, 4.000000, 4.000000, 4.000000, 4.000000
97.000000, 0.000000, 4198.974121, 4187.179199, 4198.461426, 4204.615234, 4201.025391, 4188.717773, 4213.846191, 4218.461426, 4207.692383, 4217.948730, 4222.051270, 4211.281738, 4208.717773, 4206.153809, 3478.000000, 8190.000000, 8172.000000, 0.000000, 0.000000, 0.000000, 26127.000000, 565.640991, 4.000000, 4.000000, 4.000000, 4.000000, 4.000000, 4.000000, 4.000000, 4.000000, 4.000000, 4.000000, 4.000000, 4.000000, 4.000000, 4.000000, 4.000000, 4.000000
98.000000, 0.000000, 4193.846191, 4182.563965, 4192.820313, 4206.153809, 4198.974121, 4183.076660, 4205.641113, 4198.461426, 4196.410156, 4201.025391, 4211.281738, 4203.589844, 4198.974121, 4198.461426, 3211.000000, 8190.000000, 8172.000000, 0.000000, 0.000000, 0.000000, 26127.000000, 573.333313, 4.000000, 4.000000, 4.000000, 4.000000, 4.000000, 4.000000, 4.000000, 4.000000, 4.000000, 4.000000, 4.000000, 4.000000, 4.000000, 4.000000, 4.000000, 4.000000
99.000000, 0.000000, 4192.820313, 4186.153809, 4195.384277, 4200.512695, 4202.563965, 4197.436035, 4205.641113, 4194.358887, 4202.051270, 4205.127930, 4207.692383, 4209.230469, 4198.461426, 4203.589844, 3574.000000, 8191.000000, 8169.000000, 0.000000, 0.000000, 0.000000, 26127.000000, 581.538452, 4.000000, 4.000000, 4.000000, 4.000000, 4.000000, 4.000000, 4.000000, 4.000000, 4.000000, 4.000000, 4.000000, 4.000000, 4.000000, 4.000000, 4.000000, 4.000000
100.000000, 0.000000, 4195.384277, 4192.307617, 4196.922852, 4204.615234, 4201.538574, 4205.641113, 4208.717773, 4204.615234, 4209.743652, 4216.410156, 4211.281738, 4210.256348, 4203.589844, 4204.102539, 3521.000000, 8191.000000, 8169.000000, 0.000000, 0.000000, 0.000000, 26127.000000, 589.230774, 4.000000, 4.000000, 4.000000, 4.000000, 4.000000, 4.000000, 4.000000, 4.000000, 4.000000, 4.000000, 4.000000, 4.000000, 4.000000, 4.000000, 4.000000, 4.000000
101.000000, 0.000000, 4188.205078, 4186.666504, 4187.692383, 4202.051270, 4198.974121, 4191.281738, 4200.512695, 4201.538574, 4205.127930, 4206.153809, 4205.127930, 4197.948730, 4201.025391, 4200.512695, 3478.000000, 8195.000000, 8169.000000, 0.000000, 0.000000, 0.000000, 26127.000000, 597.435913, 4.000000, 4.000000, 4.000000, 4.000000, 4.000000, 4.000000, 4.000000, 4.000000, 4.000000, 4.000000, 4.000000, 4.000000, 4.000000, 4.000000, 4.000000, 4.000000
102.000000, 0.000000, 4185.641113, 4183.076660, 4183.076660, 4197.436035, 4204.102539, 4183.589844, 4197.948730, 4196.410156, 4201.025391, 4200.512695, 4200.000000, 4188.205078, 4200.000000, 4198.974121, 3211.000000, 8195.000000, 8169.000000, 0.000000, 0.000000, 0.000000, 26127.000000, 605.640991, 4.000000, 4.000000, 4.000000, 4.000000, 4.000000, 4.000000, 4.000000, 4.000000, 4.000000, 4.000000, 4.000000, 4.000000, 4.000000, 4.000000, 4.000000, 4.000000
103.000000, 0.000000, 4189.230469, 4190.769043, 4185.127930, 4201.538574, 4205.641113, 4190.256348, 4202.051270, 4200.512695, 4200.000000, 4208.717773, 4203.589844, 4191.794922, 4203.076660, 4198.461426, 3574.000000, 8203.000000, 8166.000000, 0.000000, 0.000000, 0.000000, 26127.000000, 613.333313, 4.000000, 4.000000, 4.000000, 4.000000, 4.000000, 4.000000, 4.000000, 4.000000, 4.000000, 4.000000, 4.000000, 4.000000, 4.000000, 4.000000, 4.000000, 4.000000
104.000000, 0.000000, 4193.333008, 4195.384277, 4189.743652, 4198.974121, 4198.461426, 4197.948730, 4204.102539, 4201.538574, 4203.076660, 4209.230469, 4207.692383, 4201.538574, 4204.615234, 4201.025391, 3521.000000, 8203.000000, 8166.000000, 0.000000, 0.000000, 0.000000, 26127.000000, 621.538452, 4.000000, 4.000000, 4.000000, 4.000000, 4.000000, 4.000000, 4.000000, 4.000000, 4.000000, 4.000000, 4.000000, 4.000000, 4.000000, 4.000000, 4.000000, 4.000000
105.000000, 0.000000, 4192.307617, 4191.794922, 4194.358887, 4201.538574, 4197.436035, 4196.922852, 4204.102539, 4194.871582, 4198.974121, 4201.538574, 4202.563965, 4203.589844, 4202.563965, 4204.102539, 3478.000000, 8209.000000, 8171.000000, 0.000000, 0.000000, 0.000000, 26127.000000, 629.230774, 4.000000, 4.000000, 4.000000, 4.000000, 4.000000, 4.000000, 4.000000, 4.000000, 4.000000, 4.000000, 4.000000, 4.000000, 4.000000, 4.000000, 4.000000, 4.000000
106.000000, 0.000000, 4187.692383, 4186.153809, 4187.692383, 4199.487305, 4197.436035, 4181.538574, 4191.794922, 4191.794922, 4187.179199, 4195.897461, 4190.769043, 4191.281738, 4193.846191, 4198.461426, 3211.000000, 8209.000000, 8171.000000, 0.000000, 0.000000, 0.000000, 26127.000000, 637.435852, 4.000000, 4.000000, 4.000000, 4.000000, 4.000000, 4.000000, 4.000000, 4.000000, 4.000000, 4.000000, 4.000000, 4.000000, 4.000000, 4.000000, 4.000000, 4.000000
107.000000, 0.000000, 4186.666504, 4184.102539, 4182.563965, 4196.410156, 4192.820313, 4173.846191, 4185.641113, 4194.358887, 4191.794922, 4197.948730, 4189.230469, 4184.102539, 4191.794922, 4192.820313, 3574.000000, 8208.000000, 8171.000000, 0.000000, 0.000000, 0.000000, 26127.000000, 645.128174, 4.000000, 4.000000, 4.000000, 4.000000, 4.000000, 4.000000, 4.000000, 4.000000, 4.000000, 4.000000, 4.000000, 4.000000, 4.000000, 4.000000, 4.000000, 4.000000
108.000000, 0.000000, 4190.769043, 4189.230469, 4186.666504, 4200.000000, 4194.871582, 4184.615234, 4196.922852, 4192.820313, 4201.025391, 4197.948730, 4194.871582, 4185.641113, 4198.974121, 4194.871582, 3521.000000, 8208.000000, 8171.000000, 0.000000, 0.000000, 0.000000, 26127.000000, 653.333313, 4.000000, 4.000000, 4.000000, 4.000000, 4.000000, 4.000000, 4.000000, 4.000000, 4.000000, 4.000000, 4.000000, 4.000000, 4.000000, 4.000000, 4.000000, 4.000000
109.000000, 0.000000, 4193.846191, 4198.974121, 4188.205078, 4198.461426, 4204.615234, 4189.230469, 4194.871582, 4182.563965, 4192.820313, 4194.871582, 4198.461426, 4185.127930, 4201.025391, 4199.487305, 3478.000000, 8207.000000, 8167.000000, 0.000000, 0.000000, 0.000000, 26127.000000, 661.025635, 4.000000, 4.000000, 4.000000, 4.000000, 4.000000, 4.000000, 4.000000, 4.000000, 4.000000, 4.000000, 4.000000, 4.000000, 4.000000, 4.000000, 4.000000, 4.000000
110.000000, 0.000000, 4188.717773, 4198.461426, 4185.127930, 4202.051270, 4201.025391, 4182.051270, 4175.384277, 4171.794922, 4181.538574, 4193.333008, 4195.897461, 4186.666504, 4196.410156, 4197.948730, 3211.000000, 8207.000000, 8167.000000, 0.000000, 0.000000, 0.000000, 26127.000000, 669.230774, 4.000000, 4.000000, 4.000000, 4.000000, 4.000000, 4.000000, 4.000000, 4.000000, 4.000000, 4.000000, 4.000000, 4.000000, 4.000000, 4.000000, 4.000000, 4.000000
111.000000, 0.000000, 4182.563965, 4190.769043, 4180.512695, 4198.461426, 4186.153809, 4171.281738, 4169.230469, 4171.281738, 4183.076660, 4192.820313, 4189.230469, 4186.666504, 4190.256348, 4189.743652, 3574.000000, 8210.000000, 8163.000000, 0.000000, 0.000000, 0.000000, 26127.000000, 676.923035, 4.000000, 4.000000, 4.000000, 4.000000, 4.000000, 4.000000, 4.000000, 4.000000, 4.000000, 4.000000, 4.000000, 4.000000, 4.000000, 4.000000, 4.000000, 4.000000
112.000000, 0.000000, 4183.589844, 4192.307617, 4183.076660, 4193.846191, 4188.205078, 4167.692383, 4177.948730, 4176.922852, 4185.641113, 4189.230469, 4185.127930, 4184.102539, 4187.692383, 4189.230469, 3521.000000, 8210.000000, 8163.000000, 0.000000, 0.000000, 0.000000, 26127.000000, 685.128174, 4.000000, 4.000000, 4.000000, 4.000000, 4.000000, 4.000000, 4.000000, 4.000000, 4.000000, 4.000000, 4.000000, 4.000000, 4.000000, 4.000000, 4.000000, 4.000000
113.000000, 0.000000, 4190.769043, 4197.436035, 4187.692383, 4202.051270, 4198.974121, 4176.922852, 4183.076660, 4171.281738, 4183.589844, 4185.127930, 4187.692383, 4184.102539, 4186.666504, 4196.922852, 3478.000000, 8212.000000, 8171.000000, 0.000000, 0.000000, 0.000000, 26127.000000, 692.820496, 4.000000, 4.000000, 4.000000, 4.000000, 4.000000, 4.000000, 4.000000, 4.000000, 4.000000, 4.000000, 4.000000, 4.000000, 4.000000, 4.000000, 4.000000, 4.000000
114.000000, 0.000000, 4197.436035, 4200.512695, 4186.666504, 4201.538574, 4200.512695, 4183.589844, 4182.051270, 4166.153809, 4181.025391, 4187.692383, 4187.692383, 4187.692383, 4188.205078, 4199.487305, 3211.000000, 8212.000000, 8171.000000, 0.000000, 0.000000, 0.000000, 26127.000000, 701.025635, 4.000000, 4.000000, 4.000000, 4.000000, 4.000000, 4.000000, 4.000000, 4.000000, 4.000000, 4.000000, 4.000000, 4.000000, 4.000000, 4.000000, 4.000000, 4.000000
115.000000, 0.000000, 4200.512695, 4205.127930, 4194.358887, 4203.076660, 4201.025391, 4182.563965, 4183.589844, 4172.307617, 4180.000000, 4189.230469, 4188.717773, 4194.871582, 4194.358887, 4198.974121, 3574.000000, 8209.000000, 8173.000000, 0.000000, 0.000000, 0.000000, 26127.000000, 708.717957, 4.000000, 4.000000, 4.000000, 4.000000, 4.000000, 4.000000, 4.000000, 4.000000, 4.000000, 4.000000, 4.000000, 4.000000, 4.000000, 4.000000, 4.000000, 4.000000
116.000000, 0.000000, 4201.025391, 4206.666504, 4200.512695, 4205.641113, 4196.922852, 4186.666504, 4192.820313, 4176.922852, 4186.153809, 4189.743652, 4199.487305, 4203.589844, 4200.512695, 4203.076660, 3521.000000, 8209.000000, 8173.000000, 0.000000, 0.000000, 0.000000, 26127.000000, 716.923035, 4.000000, 4.000000, 4.000000, 4.000000, 4.000000, 4.000000, 4.000000, 4.000000, 4.000000, 4.000000, 4.000000, 4.000000, 4.000000, 4.000000, 4.000000, 4.000000
117.000000, 0.000000, 4198.461426, 4202.051270, 4190.256348, 4201.538574, 4184.615234, 4184.102539, 4193.846191, 4174.871582, 4188.205078, 4190.769043, 4200.000000, 4200.512695, 4200.000000, 4203.589844, 3478.000000, 8210.000000, 8169.000000, 0.000000, 0.000000, 0.000000, 26127.000000, 724.615356, 4.000000, 4.000000, 4.000000, 4.000000, 4.000000, 4.000000, 4.000000, 4.000000, 4.000000, 4.000000, 4.000000, 4.000000, 4.000000, 4.000000, 4.000000, 4.000000
118.000000, 0.000000, 4200.512695, 4205.127930, 4189.743652, 4204.615234, 4192.307617, 4181.025391, 4183.589844, 4180.000000, 4185.127930, 4196.410156, 4195.897461, 4191.281738, 4198.461426, 4199.487305, 3211.000000, 8210.000000, 8169.000000, 0.000000, 0.000000, 0.000000, 26127.000000, 732.820496, 4.000000, 4.000000, 4.000000, 4.000000, 4.000000, 4.000000, 4.000000, 4.000000, 4.000000, 4.000000, 4.000000, 4.000000, 4.000000, 4.000000, 4.000000, 4.000000
119.000000, 0.000000, 4206.153809, 4216.410156, 4202.563965, 4203.076660, 4212.820313, 4195.384277, 4192.820313, 4188.717773, 4187.692383, 4204.615234, 4202.051270, 4191.281738, 4201.538574, 4203.076660, 3574.000000, 8210.000000, 8171.000000, 0.000000, 0.000000, 0.000000, 26127.000000, 740.512817, 4.000000, 4.000000, 4.000000, 4.000000, 4.000000, 4.000000, 4.000000, 4.000000, 4.000000, 4.000000, 4.000000, 4.000000, 4.000000, 4.000000, 4.000000, 4.000000
120.000000, 0.000000, 4203.589844, 4211.794922, 4202.563965, 4203.589844, 4209.230469, 4206.153809, 4214.358887, 4188.717773, 4188.717773, 4200.000000, 4200.512695, 4191.794922, 4200.000000, 4202.051270, 3521.000000, 8210.000000, 8171.000000, 0.000000, 0.000000, 0.000000, 26127.000000, 748.717957, 4.000000, 4.000000, 4.000000, 4.000000, 4.000000, 4.000000, 4.000000, 4.000000, 4.000000, 4.000000, 4.000000, 4.000000, 4.000000, 4.000000, 4.000000, 4.000000
121.000000, 0.000000, 4198.974121, 4203.076660, 4197.948730, 4206.666504, 4201.025391, 4202.051270, 4212.820313, 4187.179199, 4188.717773, 4192.307617, 4194.871582, 4191.794922, 4199.487305, 4194.358887, 3478.000000, 8209.000000, 8171.000000, 0.000000, 0.000000, 0.000000, 26127.000000, 756.410217, 4.000000, 4.000000, 4.000000, 4.000000, 4.000000, 4.000000, 4.000000, 4.000000, 4.000000, 4.000000, 4.000000, 4.000000, 4.000000, 4.000000, 4.000000, 4.000000
122.000000, 0.000000, 4198.974121, 4208.717773, 4197.436035, 4203.589844, 4204.102539, 4192.307617, 4190.769043, 4188.717773, 4191.281738, 4195.384277, 4197.948730, 4193.333008, 4198.461426, 4193.846191, 3211.000000, 8209.000000, 8171.000000, 0.000000, 0.000000, 0.000000, 26127.000000, 764.102539, 4.000000, 4.000000, 4.000000, 4.000000, 4.000000, 4.000000, 4.000000, 4.000000, 4.000000, 4.000000, 4.000000, 4.000000, 4.000000, 4.000000, 4.000000, 4.000000
123.000000, 0.000000, 4197.436035, 4210.769043, 4193.846191, 4203.076660, 4197.948730, 4183.076660, 4180.512695, 4187.692383, 4185.641113, 4197.436035, 4198.974121, 4193.846191, 4189.743652, 4195.384277, 3574.000000, 8210.000000, 8176.000000, 0.000000, 0.000000, 0.000000, 26127.000000, 772.307678, 4.000000, 4.000000, 4.000000, 4.000000, 4.000000, 4.000000, 4.000000, 4.000000, 4.000000, 4.000000, 4.000000, 4.000000, 4.000000, 4.000000, 4.000000, 4.000000
124.000000, 0.000000, 4199.487305, 4209.230469, 4193.846191, 4202.051270, 4198.974121, 4191.794922, 4192.307617, 4186.666504, 4186.153809, 4197.948730, 4197.948730, 4196.922852, 4191.281738, 4199.487305, 3521.000000, 8210.000000, 8176.000000, 0.000000, 0.000000, 0.000000, 26127.000000, 780.000000, 4.000000, 4.000000, 4.000000, 4.000000, 4.000000, 4.000000, 4.000000, 4.000000, 4.000000, 4.000000, 4.000000, 4.000000, 4.000000, 4.000000, 4.000000, 4.000000
125.000000, 0.000000, 4204.615234, 4211.794922, 4201.025391, 4206.153809, 4209.743652, 4206.666504, 4203.589844, 4188.717773, 4194.871582, 4205.641113, 4202.563965, 4204.615234, 4202.051270, 4206.153809, 3478.000000, 8208.000000, 8175.000000, 0.000000, 0.000000, 0.000000, 26127.000000, 788.205139, 4.000000, 4.000000, 4.000000, 4.000000, 4.000000, 4.000000, 4.000000, 4.000000, 4.000000, 4.000000, 4.000000, 4.000000, 4.000000, 4.000000, 4.000000, 4.000000
126.000000, 0.000000, 4198.974121, 4207.692383, 4199.487305, 4203.589844, 4207.692383, 4197.436035, 4200.512695, 4187.692383, 4192.307617, 4211.794922, 4203.589844, 4210.256348, 4201.538574, 4206.153809, 3211.000000, 8208.000000, 8175.000000, 0.000000, 0.000000, 0.000000, 26127.000000, 795.897400, 4.000000, 4.000000, 4.000000, 4.000000, 4.000000, 4.000000, 4.000000, 4.000000, 4.000000, 4.000000, 4.000000, 4.000000, 4.000000, 4.000000, 4.000000, 4.000000
127.000000, 0.000000, 4196.922852, 4204.615234, 4196.410156, 4193.846191, 4201.025391, 4192.307617, 4199.487305, 4188.717773, 4191.281738, 4212.820313, 4207.179199, 4212.307617, 4197.948730, 4207.179199, 52.000000, 8203.000000, 8183.000000, 0.000000, 0.000000, 0.000000, 26127.000000, 804.102539, 4.000000, 4.000000, 4.000000, 4.000000, 4.000000, 4.000000, 4.000000, 4.000000, 4.000000, 4.000000, 4.000000, 4.000000, 4.000000, 4.000000, 4.000000, 4.000000
0.000000, 0.000000, 4208.205078, 4214.871582, 4207.692383, 4203.076660, 4192.820313, 4200.512695, 4204.102539, 4199.487305, 4204.102539, 4216.410156, 4216.410156, 4220.000000, 4205.641113, 4215.897461, 3295.000000, 8203.000000, 8183.000000, 0.000000, 0.000000, 0.000000, 26127.000000, 811.794861, 4.000000, 4.000000, 4.000000, 4.000000, 4.000000, 4.000000, 4.000000, 4.000000, 4.000000, 4.000000, 4.000000, 4.000000, 4.000000, 4.000000, 4.000000, 4.000000
1.000000, 0.000000, 4214.871582, 4221.025391, 4215.897461, 4210.256348, 4190.769043, 4195.384277, 4202.051270, 4208.717773, 4209.230469, 4221.538574, 4218.974121, 4220.000000, 4208.717773, 4224.102539, 2282.000000, 8203.000000, 8182.000000, 0.000000, 0.000000, 0.000000, 26127.000000, 820.000000, 4.000000, 4.000000, 4.000000, 4.000000, 4.000000, 4.000000, 4.000000, 4.000000, 4.000000, 4.000000, 4.000000, 4.000000, 4.000000, 4.000000, 4.000000, 4.000000
2.000000, 0.000000, 4213.333008, 4216.410156, 4211.281738, 4210.256348, 4203.589844, 4194.358887, 4201.538574, 4206.666504, 4202.563965, 4218.974121, 4218.974121, 4213.333008, 4205.127930, 4225.127930, 3103.000000, 8203.000000, 8182.000000, 0.000000, 0.000000, 0.000000, 26127.000000, 827.692261, 4.000000, 4.000000, 4.000000, 4.000000, 4.000000, 4.000000, 4.000000, 4.000000, 4.000000, 4.000000, 4.000000, 4.000000, 4.000000, 4.000000, 4.000000, 4.000000
3.000000, 0.000000, 4213.846191, 4216.410156, 4204.615234, 4208.717773, 4209.230469, 4196.922852, 4201.025391, 4196.410156, 4199.487305, 4211.281738, 4214.358887, 4212.307617, 4204.102539, 4221.025391, 3555.000000, 8192.000000, 8188.000000, 0.000000, 0.000000, 0.000000, 26127.000000, 835.384583, 4.000000, 4.000000, 4.000000, 4.000000, 4.000000, 4.000000, 4.000000, 4.000000, 4.000000, 4.000000, 4.000000, 4.000000, 4.000000, 4.000000, 4.000000, 4.000000
4.000000, 0.000000, 4215.897461, 4216.922852, 4205.127930, 4203.076660, 4197.948730, 4187.179199, 4198.974121, 4192.307617, 4198.974121, 4208.205078, 4206.666504, 4211.281738, 4202.563965, 4216.410156, 3535.000000, 8192.000000, 8188.000000, 0.000000, 0.000000, 0.000000, 26127.000000, 843.589722, 4.000000, 4.000000, 4.000000, 4.000000, 4.000000, 4.000000, 4.000000, 4.000000, 4.000000, 4.000000, 4.000000, 4.000000, 4.000000, 4.000000, 4.000000, 4.000000
5.000000, 0.000000, 4216.922852, 4215.384277, 4210.769043, 4209.743652, 4198.461426, 4187.692383, 4203.076660, 4193.846191, 4195.384277, 4212.820313, 4206.666504, 4207.179199, 4202.051270, 4216.922852, 3591.000000, 8195.000000, 8194.000000, 0.000000, 0.000000, 0.000000, 26127.000000, 851.794861, 4.000000, 4.000000, 4.000000, 4.000000, 4.000000, 4.000000, 4.000000, 4.000000, 4.000000, 4.000000, 4.000000, 4.000000, 4.000000, 4.000000, 4.000000, 4.000000
6.000000, 0.000000, 4212.820313, 4216.410156, 4211.794922, 4209.230469, 4202.051270, 4203.076660, 4199.487305, 4196.410156, 4198.974121, 4217.948730, 4213.333008, 4206.666504, 4203.076660, 4215.384277, 3496.000000, 8195.000000, 8194.000000, 0.000000, 0.000000, 0.000000, 26127.000000, 859.487183, 4.000000, 4.000000, 4.000000, 4.000000, 4.000000, 4.000000, 4.000000, 4.000000, 4.000000, 4.000000, 4.000000, 4.000000, 4.000000, 4.000000, 4.000000, 4.000000
7.000000, 0.000000, 4210.769043, 4216.410156, 4206.666504, 4203.589844, 4192.820313, 4199.487305, 4186.666504, 4203.589844, 4211.281738, 4216.922852, 4216.410156, 4208.717773, 4203.589844, 4211.794922, 3324.000000, 8192.000000, 8192.000000, 0.000000, 0.000000, 0.000000, 26127.000000, 867.179443, 4.000000, 4.000000, 4.000000, 4.000000, 4.000000, 4.000000, 4.000000, 4.000000, 4.000000, 4.000000, 4.000000, 4.000000, 4.000000, 4.000000, 4.000000, 4.000000
8.000000, 0.000000, 4209.743652, 4216.410156, 4202.051270, 4205.641113, 4195.384277, 4187.179199, 4181.025391, 4201.025391, 4214.358887, 4213.333008, 4211.794922, 4207.179199, 4203.076660, 4210.256348, 3351.000000, 8192.000000, 8192.000000, 0.000000, 0.000000, 0.000000, 26127.000000, 875.384583, 4.000000, 4.000000, 4.000000, 4.000000, 4.000000, 4.000000, 4.000000, 4.000000, 4.000000, 4.000000, 4.000000, 4.000000, 4.000000, 4.000000, 4.000000, 4.000000
9.000000, 0.000000, 4205.127930, 4219.487305, 4203.589844, 4209.743652, 4206.666504, 4187.692383, 4184.615234, 4183.076660, 4201.025391, 4206.666504, 4204.615234, 4201.538574, 4201.025391, 4205.641113, 3538.000000, 8191.000000, 8186.000000, 0.000000, 0.000000, 0.000000, 26127.000000, 883.076904, 4.000000, 4.000000, 4.000000, 4.000000, 4.000000, 4.000000, 4.000000, 4.000000, 4.000000, 4.000000, 4.000000, 4.000000, 4.000000, 4.000000, 4.000000, 4.000000
10.000000, 0.000000, 4202.563965, 4218.461426, 4201.025391, 4214.358887, 4206.153809, 4200.000000, 4191.794922, 4183.589844, 4191.281738, 4192.820313, 4195.897461, 4196.410156, 4190.256348, 4197.948730, 3211.000000, 8191.000000, 8186.000000, 0.000000, 0.000000, 0.000000, 26127.000000, 891.282043, 4.000000, 4.000000, 4.000000, 4.000000, 4.000000, 4.000000, 4.000000, 4.000000, 4.000000, 4.000000, 4.000000, 4.000000, 4.000000, 4.000000, 4.000000, 4.000000
11.000000, 0.000000, 4195.897461, 4209.743652, 4190.256348, 4203.076660, 4207.179199, 4216.410156, 4205.641113, 4204.615234, 4195.897461, 4182.051270, 4188.717773, 4187.692383, 4175.384277, 4190.769043, 3574.000000, 8189.000000, 8181.000000, 0.000000, 0.000000, 0.000000, 26127.000000, 898.974365, 4.000000, 4.000000, 4.000000, 4.000000, 4.000000, 4.000000, 4.000000, 4.000000, 4.000000, 4.000000, 4.000000, 4.000000, 4.000000, 4.000000, 4.000000, 4.000000
12.000000, 0.000000, 4187.692383, 4196.922852, 4179.487305, 4191.794922, 4203.076660, 4208.717773, 4206.666504, 4201.025391, 4203.589844, 4182.051270, 4182.051270, 4182.051270, 4170.769043, 4185.127930, 3341.000000, 8189.000000, 8181.000000, 0.000000, 0.000000, 0.000000, 26127.000000, 907.179443, 4.000000, 4.000000, 4.000000, 4.000000, 4.000000, 4.000000, 4.000000, 4.000000, 4.000000, 4.000000, 4.000000, 4.000000, 4.000000, 4.000000, 4.000000, 4.000000
13.000000, 0.000000, 4193.846191, 4195.897461, 4184.615234, 4201.025391, 4190.769043, 4193.333008, 4198.974121, 4193.333008, 4213.846191, 4195.384277, 4188.717773, 4193.333008, 4182.051270, 4191.281738, 3478.000000, 8190.000000, 8182.000000, 0.000000, 0.000000, 0.000000, 26127.000000, 914.871765, 4.000000, 4.000000, 4.000000, 4.000000, 4.000000, 4.000000, 4.000000, 4.000000, 4.000000, 4.000000, 4.000000, 4.000000, 4.000000, 4.000000, 4.000000, 4.000000
14.000000, 0.000000, 4215.897461, 4215.897461, 4206.666504, 4209.230469, 4195.384277, 4201.025391, 4207.692383, 4213.333008, 4225.127930, 4215.384277, 4211.281738, 4211.794922, 4200.512695, 4213.846191, 3211.000000, 8190.000000, 8182.000000, 0.000000, 0.000000, 0.000000, 26127.000000, 923.076904, 4.000000, 4.000000, 4.000000, 4.000000, 4.000000, 4.000000, 4.000000, 4.000000, 4.000000, 4.000000, 4.000000, 4.000000, 4.000000, 4.000000, 4.000000, 4.000000
15.000000, 0.000000, 4231.794922, 4233.333008, 4220.000000, 4218.461426, 4209.743652, 4205.127930, 4206.153809, 4212.820313, 4218.974121, 4219.487305, 4222.051270, 4221.025391, 4212.307617, 4230.256348, 3574.000000, 8192.000000, 8179.000000, 0.000000, 0.000000, 0.000000, 26127.000000, 930.769226, 4.000000, 4.000000, 4.000000, 4.000000, 4.000000, 4.000000, 4.000000, 4.000000, 4.000000, 4.000000, 4.000000, 4.000000, 4.000000, 4.000000, 4.000000, 4.000000
16.000000, 0.000000, 4228.205078, 4234.358887, 4218.461426, 4218.974121, 4206.666504, 4192.307617, 4188.205078, 4187.179199, 4204.615234, 4208.205078, 4218.974121, 4222.051270, 4210.769043, 4229.230469, 0.000000, 8192.000000, 8179.000000, 0.000000, 0.000000, 0.000000, 26127.000000, 938.974365, 4.000000, 4.000000, 4.000000, 4.000000, 4.000000, 4.000000, 4.000000, 4.000000, 4.000000, 4.000000, 4.000000, 4.000000, 4.000000, 4.000000, 4.000000, 4.000000
17.000000, 0.000000, 4223.076660, 4230.256348, 4217.436035, 4211.794922, 4197.948730, 4181.538574, 4181.538574, 4181.025391, 4204.102539, 4203.589844, 4217.436035, 4221.538574, 4204.615234, 4223.589844, 0.000000, 8192.000000, 8176.000000, 0.000000, 0.000000, 0.000000, 26127.000000, 946.666626, 4.000000, 4.000000, 4.000000, 4.000000, 4.000000, 4.000000, 4.000000, 4.000000, 4.000000, 4.000000, 4.000000, 4.000000, 4.000000, 4.000000, 4.000000, 4.000000
18.000000, 0.000000, 4225.641113, 4230.256348, 4218.461426, 4213.846191, 4196.410156, 4182.563965, 4183.076660, 4188.717773, 4209.743652, 4212.307617, 4220.000000, 4223.589844, 4208.205078, 4227.179199, 0.000000, 8192.000000, 8176.000000, 0.000000, 0.000000, 0.000000, 26127.000000, 954.358948, 4.000000, 4.000000, 4.000000, 4.000000, 4.000000, 4.000000, 4.000000, 4.000000, 4.000000, 4.000000, 4.000000, 4.000000, 4.000000, 4.000000, 4.000000, 4.000000
19.000000, 0.000000, 4227.179199, 4232.307617, 4216.922852, 4212.820313, 4195.384277, 4185.641113, 4186.666504, 4191.281738, 4210.769043, 4218.974121, 4221.025391, 4225.641113, 4217.436035, 4231.281738, 0.000000, 8190.000000, 8168.000000, 0.000000, 0.000000, 0.000000, 26127.000000, 962.564087, 4.000000, 4.000000, 4.000000, 4.000000, 4.000000, 4.000000, 4.000000, 4.000000, 4.000000, 4.000000, 4.000000, 4.000000, 4.000000, 4.000000, 4.000000, 4.000000
20.000000, 0.000000, 4221.025391, 4231.794922, 4216.410156, 4216.410156, 4198.974121, 4188.717773, 4196.922852, 4196.922852, 4210.256348, 4213.333008, 4218.461426, 4224.102539, 4214.871582, 4222.563965, 0.000000, 8190.000000, 8168.000000, 0.000000, 0.000000, 0.000000, 26127.000000, 970.256409, 4.000000, 4.000000, 4.000000, 4.000000, 4.000000, 4.000000, 4.000000, 4.000000, 4.000000, 4.000000, 4.000000, 4.000000, 4.000000, 4.000000, 4.000000, 4.000000
21.000000, 0.000000, 4213.333008, 4232.307617, 4213.333008, 4217.436035, 4206.153809, 4192.307617, 4203.076660, 4202.563965, 4205.641113, 4203.589844, 4215.384277, 4215.384277, 4204.615234, 4212.307617, 0.000000, 8188.000000, 8161.000000, 0.000000, 0.000000, 0.000000, 26127.000000, 977.948669, 4.000000, 4.000000, 4.000000, 4.000000, 4.000000, 4.000000, 4.000000, 4.000000, 4.000000, 4.000000, 4.000000, 4.000000, 4.000000, 4.000000, 4.000000, 4.000000
22.000000, 0.000000, 4214.871582, 4232.820313, 4208.205078, 4211.281738, 4205.127930, 4196.410156, 4201.025391, 4200.512695, 4206.153809, 4201.538574, 4215.384277, 4212.307617, 4203.589844, 4212.307617, 0.000000, 8188.000000, 8161.000000, 0.000000, 0.000000, 0.000000, 26127.000000, 986.153809, 4.000000, 4.000000, 4.000000, 4.000000, 4.000000, 4.000000, 4.000000, 4.000000, 4.000000, 4.000000, 4.000000, 4.000000, 4.000000, 4.000000, 4.000000, 4.000000
23.000000, 0.000000, 4215.384277, 4228.205078, 4209.743652, 4211.794922, 4202.051270, 4204.102539, 4204.615234, 4202.051270, 4212.307617, 4208.205078, 4217.948730, 4218.461426, 4206.666504, 4214.871582, 0.000000, 8182.000000, 8152.000000, 0.000000, 0.000000, 0.000000, 26127.000000, 993.846130, 4.000000, 4.000000, 4.000000, 4.000000, 4.000000, 4.000000, 4.000000, 4.000000, 4.000000, 4.000000, 4.000000, 4.000000, 4.000000, 4.000000, 4.000000, 4.000000
24.000000, 0.000000, 4209.743652, 4219.487305, 4206.153809, 4206.666504, 4203.076660, 4202.051270, 4204.102539, 4198.974121, 4210.256348, 4208.717773, 4212.820313, 4211.794922, 4205.127930, 4209.743652, 0.000000, 8182.000000, 8152.000000, 0.000000, 0.000000, 0.000000, 26128.000000, 1.538461, 4.000000, 4.000000, 4.000000, 4.000000, 4.000000, 4.000000, 4.000000, 4.000000, 4.000000, 4.000000, 4.000000, 4.000000, 4.000000, 4.000000, 4.000000, 4.000000
25.000000, 0.000000, 4210.256348, 4223.076660, 4198.974121, 4205.641113, 4201.538574, 4190.256348, 4198.461426, 4199.487305, 4203.589844, 4200.512695, 4205.641113, 4198.461426, 4200.512695, 4204.615234, 0.000000, 8176.000000, 8153.000000, 0.000000, 0.000000, 0.000000, 26128.000000, 9.743589, 4.000000, 4.000000, 4.000000, 4.000000, 4.000000, 4.000000, 4.000000, 4.000000, 4.000000, 4.000000, 4.000000, 4.000000, 4.000000, 4.000000, 4.000000, 4.000000
26.000000, 0.000000, 4213.846191, 4233.333008, 4208.205078, 4210.256348, 4196.410156, 4183.589844, 4195.897461, 4200.512695, 4203.076660, 4200.512695, 4211.794922, 4205.641113, 4201.025391, 4211.281738, 0.000000, 8176.000000, 8153.000000, 0.000000, 0.000000, 0.000000, 26128.000000, 17.435898, 4.000000, 4.000000, 4.000000, 4.000000, 4.000000, 4.000000, 4.000000, 4.000000, 4.000000, 4.000000, 4.000000, 4.000000, 4.000000, 4.000000, 4.000000, 4.000000
27.000000, 0.000000, 4209.230469, 4231.281738, 4216.922852, 4211.794922, 4196.922852, 4183.589844, 4189.743652, 4189.743652, 4201.025391, 4205.641113, 4217.948730, 4217.436035, 4204.102539, 4215.897461, 0.000000, 8176.000000, 8163.000000, 0.000000, 0.000000, 0.000000, 26128.000000, 25.128204, 4.000000, 4.000000, 4.000000, 4.000000, 4.000000, 4.000000, 4.000000, 4.000000, 4.000000, 4.000000, 4.000000, 4.000000, 4.000000, 4.000000, 4.000000, 4.000000
28.000000, 0.000000, 4205.641113, 4220.000000, 4206.153809, 4213.846191, 4198.974121, 4185.127930, 4182.563965, 4184.615234, 4196.410156, 4197.436035, 4209.743652, 4208.205078, 4195.897461, 4204.615234, 0.000000, 8176.000000, 8163.000000, 0.000000, 0.000000, 0.000000, 26128.000000, 33.333332, 4.000000, 4.000000, 4.000000, 4.000000, 4.000000, 4.000000, 4.000000, 4.000000, 4.000000, 4.000000, 4.000000, 4.000000, 4.000000, 4.000000, 4.000000, 4.000000
29.000000, 0.000000, 4207.692383, 4215.897461, 4196.922852, 4206.153809, 4200.000000, 4186.153809, 4188.717773, 4186.666504, 4195.897461, 4189.230469, 4206.153809, 4201.025391, 4186.153809, 4196.922852, 0.000000, 8177.000000, 8166.000000, 0.000000, 0.000000, 0.000000, 26128.000000, 41.025639, 4.000000, 4.000000, 4.000000, 4.000000, 4.000000, 4.000000, 4.000000, 4.000000, 4.000000, 4.000000, 4.000000, 4.000000, 4.000000, 4.000000, 4.000000, 4.000000
30.000000, 0.000000, 4210.256348, 4217.436035, 4203.076660, 4203.076660, 4207.179199, 4189.230469, 4199.487305, 4185.127930, 4202.563965, 4200.512695, 4214.871582, 4213.846191, 4190.769043, 4207.692383, 0.000000, 8177.000000, 8166.000000, 0.000000, 0.000000, 0.000000, 26128.000000, 48.717949, 4.000000, 4.000000, 4.000000, 4.000000, 4.000000, 4.000000, 4.000000, 4.000000, 4.000000, 4.000000, 4.000000, 4.000000, 4.000000, 4.000000, 4.000000, 4.000000
31.000000, 0.000000, 4208.205078, 4217.436035, 4204.102539, 4204.615234, 4207.692383, 4187.179199, 4200.512695, 4190.256348, 4211.794922, 4211.794922, 4219.487305, 4220.000000, 4198.461426, 4217.436035, 0.000000, 8180.000000, 8163.000000, 0.000000, 0.000000, 0.000000, 26128.000000, 56.923077, 4.000000, 4.000000, 4.000000, 4.000000, 4.000000, 4.000000, 4.000000, 4.000000, 4.000000, 4.000000, 4.000000, 4.000000, 4.000000, 4.000000, 4.000000, 4.000000
32.000000, 0.000000, 4209.743652, 4217.436035, 4201.538574, 4205.641113, 4202.051270, 4190.769043, 4197.948730, 4207.692383, 4215.897461, 4212.820313, 4218.461426, 4216.410156, 4201.025391, 4217.948730, 0.000000, 8180.000000, 8163.000000, 0.000000, 0.000000, 0.000000, 26128.000000, 64.615379, 4.000000, 4.000000, 4.000000, 4.000000, 4.000000, 4.000000, 4.000000, 4.000000, 4.000000, 4.000000, 4.000000, 4.000000, 4.000000, 4.000000, 4.000000, 4.000000
33.000000, 0.000000, 4214.358887, 4216.922852, 4209.743652, 4213.846191, 4208.205078, 4201.025391, 4201.025391, 4215.384277, 4218.461426, 4212.820313, 4218.461426, 4221.025391, 4199.487305, 4217.948730, 0.000000, 8193.000000, 8170.000000, 0.000000, 0.000000, 0.000000, 26128.000000, 72.820511, 4.000000, 4.000000, 4.000000, 4.000000, 4.000000, 4.000000, 4.000000, 4.000000, 4.000000, 4.000000, 4.000000, 4.000000, 4.000000, 4.000000, 4.000000, 4.000000
34.000000, 0.000000, 4215.897461, 4213.846191, 4216.410156, 4209.230469, 4218.974121, 4198.461426, 4201.025391, 4207.179199, 4214.358887, 4207.692383, 4216.410156, 4218.461426, 4192.820313, 4216.410156, 0.000000, 8193.000000, 8170.000000, 0.000000, 0.000000, 0.000000, 26128.000000, 80.512817, 4.000000, 4.000000, 4.000000, 4.000000, 4.000000, 4.000000, 4.000000, 4.000000, 4.000000, 4.000000, 4.000000, 4.000000, 4.000000, 4.000000, 4.000000, 4.000000
35.000000, 0.000000, 4219.487305, 4215.384277, 4213.333008, 4208.717773, 4217.948730, 4193.333008, 4200.512695, 4202.051270, 4207.179199, 4198.461426, 4210.256348, 4207.179199, 4188.717773, 4215.897461, 0.000000, 8193.000000, 8171.000000, 0.000000, 0.000000, 0.000000, 26128.000000, 88.717949, 4.000000, 4.000000, 4.000000, 4.000000, 4.000000, 4.000000, 4.000000, 4.000000, 4.000000, 4.000000, 4.000000, 4.000000, 4.000000, 4.000000, 4.000000, 4.000000
36.000000, 0.000000, 4213.846191, 4212.820313, 4204.615234, 4213.846191, 4213.846191, 4200.512695, 4199.487305, 4204.102539, 4213.333008, 4200.512695, 4205.641113, 4204.102539, 4188.717773, 4215.384277, 0.000000, 8193.000000, 8171.000000, 0.000000, 0.000000, 0.000000, 26128.000000, 96.410255, 4.000000, 4.000000, 4.000000, 4.000000, 4.000000, 4.000000, 4.000000, 4.000000, 4.000000, 4.000000, 4.000000, 4.000000, 4.000000, 4.000000, 4.000000, 4.000000
37.000000, 0.000000, 4203.076660, 4200.000000, 4195.897461, 4203.589844, 4211.281738, 4205.127930, 4192.820313, 4204.615234, 4217.436035, 4205.641113, 4203.076660, 4204.102539, 4186.153809, 4213.846191, 0.000000, 8192.000000, 8164.000000, 0.000000, 0.000000, 0.000000, 26128.000000, 104.615379, 4.000000, 4.000000, 4.000000, 4.000000, 4.000000, 4.000000, 4.000000, 4.000000, 4.000000, 4.000000, 4.000000, 4.000000, 4.000000, 4.000000, 4.000000, 4.000000
38.000000, 0.000000, 4204.615234, 4197.436035, 4193.846191, 4202.563965, 4200.000000, 4198.461426, 4189.230469, 4195.384277, 4203.076660, 4200.000000, 4199.487305, 4198.461426, 4183.589844, 4213.333008, 0.000000, 8192.000000, 8164.000000, 0.000000, 0.000000, 0.000000, 26128.000000, 112.307686, 4.000000, 4.000000, 4.000000, 4.000000, 4.000000, 4.000000, 4.000000, 4.000000, 4.000000, 4.000000, 4.000000, 4.000000, 4.000000, 4.000000, 4.000000, 4.000000
39.000000, 0.000000, 4206.153809, 4205.127930, 4193.846191, 4205.641113, 4200.000000, 4195.384277, 4197.948730, 4195.384277, 4197.436035, 4194.871582, 4197.436035, 4192.307617, 4184.102539, 4210.256348, 0.000000, 8193.000000, 8169.000000, 0.000000, 0.000000, 0.000000, 26128.000000, 120.512817, 4.000000, 4.000000, 4.000000, 4.000000, 4.000000, 4.000000, 4.000000, 4.000000, 4.000000, 4.000000, 4.000000, 4.000000, 4.000000, 4.000000, 4.000000, 4.000000
40.000000, 0.000000, 4204.102539, 4207.179199, 4192.307617, 4204.102539, 4213.846191, 4201.025391, 4206.153809, 4204.615234, 4204.615234, 4198.461426, 4200.000000, 4195.897461, 4185.127930, 4208.205078, 0.000000, 8193.000000, 8169.000000, 0.000000, 0.000000, 0.000000, 26128.000000, 128.205124, 4.000000, 4.000000, 4.000000, 4.000000, 4.000000, 4.000000, 4.000000, 4.000000, 4.000000, 4.000000, 4.000000, 4.000000, 4.000000, 4.000000, 4.000000, 4.000000
41.000000, 0.000000, 4205.127930, 4202.563965, 4186.666504, 4204.615234, 4218.461426, 4198.461426, 4194.871582, 4201.025391, 4201.025391, 4197.436035, 4201.025391, 4200.000000, 4182.563965, 4206.666504, 0.000000, 8192.000000, 8172.000000, 0.000000, 0.000000, 0.000000, 26128.000000, 136.410248, 4.000000, 4.000000, 4.000000, 4.000000, 4.000000, 4.000000, 4.000000, 4.000000, 4.000000, 4.000000, 4.000000, 4.000000, 4.000000, 4.000000, 4.000000, 4.000000
42.000000, 0.000000, 4208.205078, 4202.563965, 4186.153809, 4201.538574, 4214.358887, 4192.820313, 4181.538574, 4192.820313, 4197.948730, 4190.256348, 4196.922852, 4194.358887, 4178.974121, 4203.589844, 0.000000, 8192.000000, 8172.000000, 0.000000, 0.000000, 0.000000, 26128.000000, 144.102554, 4.000000, 4.000000, 4.000000, 4.000000, 4.000000, 4.000000, 4.000000, 4.000000, 4.000000, 4.000000, 4.000000, 4.000000, 4.000000, 4.000000, 4.000000, 4.000000
43.000000, 0.000000, 4205.127930, 4203.076660, 4192.820313, 4207.179199, 4212.307617, 4197.436035, 4195.897461, 4192.820313, 4205.641113, 4187.179199, 4195.384277, 4192.307617, 4177.436035, 4203.589844, 0.000000, 8187.000000, 8178.000000, 0.000000, 0.000000, 0.000000, 26128.000000, 152.307693, 4.000000, 4.000000, 4.000000, 4.000000, 4.000000, 4.000000, 4.000000, 4.000000, 4.000000, 4.000000, 4.000000, 4.000000, 4.000000, 4.000000, 4.000000, 4.000000
