title:neutral32, recorded:23.05.18 21.26.31, timestamp started:2018-05-23T14:18:30.888274+02:00            , sampling:128, subject:Noé, labels:COUNTER INTERPOLATED AF3 F7 F3 FC5 T7 P7 O1 O2 P8 T8 FC6 F4 F8 AF4 RAW_CQ GYROX GYROY MARKER MARKER_HARDWARE SYNC TIME_STAMP_s TIME_STAMP_ms CQ_AF3 CQ_F7 CQ_F3 CQ_FC5 CQ_T7 CQ_P7 CQ_O1 CQ_O2 CQ_P8 CQ_T8 CQ_FC6 CQ_F4 CQ_F8 CQ_AF4 CQ_CMS CQ_DRL, chan:40, samples:2492, units:emotiv
94.000000, 0.000000, 4196.410156, 4370.769043, 4191.281738, 4187.692383, 4203.076660, 4196.410156, 4218.974121, 4210.769043, 4134.871582, 4230.256348, 4202.563965, 4201.538574, 4262.051270, 4201.025391, 3290.000000, 8218.000000, 8154.000000, 0.000000, 0.000000, 0.000000, 25680.000000, 684.615356, 4.000000, 4.000000, 4.000000, 4.000000, 4.000000, 4.000000, 4.000000, 4.000000, 4.000000, 4.000000, 4.000000, 4.000000, 4.000000, 4.000000, 4.000000, 4.000000
95.000000, 0.000000, 4197.436035, 4373.333008, 4195.384277, 4195.897461, 4202.051270, 4188.717773, 4204.615234, 4191.281738, 4124.615234, 4222.563965, 4201.025391, 4202.051270, 4264.102539, 4202.563965, 3577.000000, 8219.000000, 8163.000000, 0.000000, 0.000000, 0.000000, 25680.000000, 692.820496, 4.000000, 4.000000, 4.000000, 4.000000, 4.000000, 4.000000, 4.000000, 4.000000, 4.000000, 4.000000, 4.000000, 4.000000, 4.000000, 4.000000, 4.000000, 4.000000
96.000000, 1.000000, 4199.487305, 4368.717773, 4196.922852, 4197.436035, 4203.076660, 4190.256348, 4203.589844, 4189.743652, 4124.615234, 4222.051270, 4202.051270, 4203.589844, 4264.615234, 4202.563965, 3557.000000, 8219.000000, 8165.000000, 0.000000, 0.000000, 0.000000, 25680.000000, 700.512817, 4.000000, 4.000000, 4.000000, 4.000000, 4.000000, 4.000000, 4.000000, 4.000000, 4.000000, 4.000000, 4.000000, 4.000000, 4.000000, 4.000000, 4.000000, 4.000000
97.000000, 1.000000, 4201.025391, 4364.102539, 4198.461426, 4198.974121, 4204.102539, 4191.281738, 4202.563965, 4188.205078, 4124.615234, 4222.051270, 4202.563965, 4204.615234, 4264.615234, 4203.076660, 3537.000000, 8219.000000, 8167.000000, 0.000000, 0.000000, 0.000000, 25680.000000, 708.717957, 4.000000, 4.000000, 4.000000, 4.000000, 4.000000, 4.000000, 4.000000, 4.000000, 4.000000, 4.000000, 4.000000, 4.000000, 4.000000, 4.000000, 4.000000, 4.000000
98.000000, 1.000000, 4202.563965, 4359.487305, 4200.000000, 4200.512695, 4205.127930, 4192.307617, 4201.538574, 4187.179199, 4124.615234, 4221.538574, 4203.589844, 4205.641113, 4264.615234, 4203.076660, 3517.000000, 8219.000000, 8169.000000, 0.000000, 0.000000, 0.000000, 25680.000000, 716.410217, 4.000000, 4.000000, 4.000000, 4.000000, 4.000000, 4.000000, 4.000000, 4.000000, 4.000000, 4.000000, 4.000000, 4.000000, 4.000000, 4.000000, 4.000000, 4.000000
99.000000, 1.000000, 4204.102539, 4354.871582, 4201.538574, 4202.051270, 4206.153809, 4193.333008, 4200.512695, 4185.641113, 4124.615234, 4221.538574, 4204.615234, 4206.666504, 4264.615234, 4203.076660, 3497.000000, 8219.000000, 8171.000000, 0.000000, 0.000000, 0.000000, 25680.000000, 724.102539, 4.000000, 4.000000, 4.000000, 4.000000, 4.000000, 4.000000, 4.000000, 4.000000, 4.000000, 4.000000, 4.000000, 4.000000, 4.000000, 4.000000, 4.000000, 4.000000
100.000000, 1.000000, 4206.153809, 4350.256348, 4203.076660, 4203.589844, 4207.179199, 4194.358887, 4199.487305, 4184.102539, 4124.615234, 4221.025391, 4205.641113, 4208.205078, 4265.127930, 4203.076660, 3477.000000, 8219.000000, 8173.000000, 0.000000, 0.000000, 0.000000, 25680.000000, 732.307678, 4.000000, 4.000000, 4.000000, 4.000000, 4.000000, 4.000000, 4.000000, 4.000000, 4.000000, 4.000000, 4.000000, 4.000000, 4.000000, 4.000000, 4.000000, 4.000000
101.000000, 0.000000, 4207.692383, 4345.641113, 4205.127930, 4205.641113, 4208.205078, 4195.384277, 4198.461426, 4182.563965, 4125.127930, 4221.025391, 4206.666504, 4209.743652, 4265.641113, 4203.589844, 3454.000000, 8218.000000, 8178.000000, 0.000000, 0.000000, 0.000000, 25680.000000, 740.000000, 4.000000, 4.000000, 4.000000, 4.000000, 4.000000, 4.000000, 4.000000, 4.000000, 4.000000, 4.000000, 4.000000, 4.000000, 4.000000, 4.000000, 4.000000, 4.000000
102.000000, 0.000000, 4197.948730, 4309.230469, 4201.538574, 4197.436035, 4204.102539, 4197.436035, 4208.717773, 4202.051270, 4133.333008, 4213.333008, 4201.538574, 4203.589844, 4264.615234, 4201.538574, 3290.000000, 8218.000000, 8178.000000, 0.000000, 0.000000, 0.000000, 25680.000000, 748.205139, 4.000000, 4.000000, 4.000000, 4.000000, 4.000000, 4.000000, 4.000000, 4.000000, 4.000000, 4.000000, 4.000000, 4.000000, 4.000000, 4.000000, 4.000000, 4.000000
103.000000, 0.000000, 4186.153809, 4283.076660, 4193.333008, 4186.153809, 4201.538574, 4192.820313, 4198.974121, 4207.179199, 4138.461426, 4212.820313, 4200.000000, 4204.102539, 4254.871582, 4195.897461, 3577.000000, 8221.000000, 8186.000000, 0.000000, 0.000000, 0.000000, 25680.000000, 755.897400, 4.000000, 4.000000, 4.000000, 4.000000, 4.000000, 4.000000, 4.000000, 4.000000, 4.000000, 4.000000, 4.000000, 4.000000, 4.000000, 4.000000, 4.000000, 4.000000
104.000000, 0.000000, 4192.820313, 4293.333008, 4196.410156, 4191.794922, 4201.025391, 4184.615234, 4181.538574, 4173.846191, 4125.127930, 4209.743652, 4198.461426, 4202.563965, 4247.692383, 4189.230469, 3518.000000, 8221.000000, 8186.000000, 0.000000, 0.000000, 0.000000, 25680.000000, 763.589722, 4.000000, 4.000000, 4.000000, 4.000000, 4.000000, 4.000000, 4.000000, 4.000000, 4.000000, 4.000000, 4.000000, 4.000000, 4.000000, 4.000000, 4.000000, 4.000000
105.000000, 0.000000, 4204.102539, 4297.436035, 4203.076660, 4206.153809, 4209.743652, 4186.153809, 4180.000000, 4177.436035, 4131.281738, 4216.410156, 4203.589844, 4206.666504, 4265.127930, 4201.025391, 3454.000000, 8225.000000, 8181.000000, 0.000000, 0.000000, 0.000000, 25680.000000, 771.794861, 4.000000, 4.000000, 4.000000, 4.000000, 4.000000, 4.000000, 4.000000, 4.000000, 4.000000, 4.000000, 4.000000, 4.000000, 4.000000, 4.000000, 4.000000, 4.000000
106.000000, 0.000000, 4204.102539, 4296.922852, 4200.000000, 4205.641113, 4218.974121, 4191.794922, 4192.307617, 4205.127930, 4147.179199, 4224.102539, 4209.230469, 4207.692383, 4284.615234, 4216.410156, 3290.000000, 8225.000000, 8181.000000, 0.000000, 0.000000, 0.000000, 25680.000000, 779.487183, 4.000000, 4.000000, 4.000000, 4.000000, 4.000000, 4.000000, 4.000000, 4.000000, 4.000000, 4.000000, 4.000000, 4.000000, 4.000000, 4.000000, 4.000000, 4.000000
107.000000, 0.000000, 4204.615234, 4302.051270, 4198.974121, 4207.179199, 4215.384277, 4190.769043, 4197.948730, 4193.333008, 4135.897461, 4217.436035, 4208.205078, 4202.563965, 4278.461426, 4212.820313, 3577.000000, 8229.000000, 8177.000000, 0.000000, 0.000000, 0.000000, 25680.000000, 787.179443, 4.000000, 4.000000, 4.000000, 4.000000, 4.000000, 4.000000, 4.000000, 4.000000, 4.000000, 4.000000, 4.000000, 4.000000, 4.000000, 4.000000, 4.000000, 4.000000
108.000000, 0.000000, 4212.307617, 4304.615234, 4208.205078, 4210.256348, 4213.846191, 4190.256348, 4191.794922, 4175.897461, 4121.538574, 4215.897461, 4207.692383, 4205.641113, 4270.256348, 4211.794922, 3518.000000, 8229.000000, 8177.000000, 0.000000, 0.000000, 0.000000, 25680.000000, 794.871765, 4.000000, 4.000000, 4.000000, 4.000000, 4.000000, 4.000000, 4.000000, 4.000000, 4.000000, 4.000000, 4.000000, 4.000000, 4.000000, 4.000000, 4.000000, 4.000000
109.000000, 0.000000, 4210.769043, 4298.461426, 4209.230469, 4208.205078, 4216.922852, 4189.743652, 4182.563965, 4186.666504, 4127.179199, 4221.025391, 4203.589844, 4208.717773, 4268.205078, 4215.897461, 3454.000000, 8242.000000, 8174.000000, 0.000000, 0.000000, 0.000000, 25680.000000, 803.076904, 4.000000, 4.000000, 4.000000, 4.000000, 4.000000, 4.000000, 4.000000, 4.000000, 4.000000, 4.000000, 4.000000, 4.000000, 4.000000, 4.000000, 4.000000, 4.000000
110.000000, 0.000000, 4198.461426, 4280.512695, 4199.487305, 4203.076660, 4209.230469, 4185.641113, 4185.127930, 4196.922852, 4136.410156, 4213.846191, 4198.461426, 4203.589844, 4262.563965, 4210.769043, 3290.000000, 8242.000000, 8174.000000, 0.000000, 0.000000, 0.000000, 25680.000000, 810.769226, 4.000000, 4.000000, 4.000000, 4.000000, 4.000000, 4.000000, 4.000000, 4.000000, 4.000000, 4.000000, 4.000000, 4.000000, 4.000000, 4.000000, 4.000000, 4.000000
111.000000, 0.000000, 4205.127930, 4275.384277, 4204.102539, 4199.487305, 4205.127930, 4187.692383, 4194.871582, 4200.512695, 4139.487305, 4217.436035, 4207.692383, 4208.205078, 4271.794922, 4216.410156, 3577.000000, 8248.000000, 8176.000000, 0.000000, 0.000000, 0.000000, 25680.000000, 818.461548, 4.000000, 4.000000, 4.000000, 4.000000, 4.000000, 4.000000, 4.000000, 4.000000, 4.000000, 4.000000, 4.000000, 4.000000, 4.000000, 4.000000, 4.000000, 4.000000
112.000000, 0.000000, 4226.666504, 4288.205078, 4223.076660, 4212.307617, 4213.846191, 4192.307617, 4198.974121, 4198.974121, 4137.436035, 4227.692383, 4215.384277, 4220.512695, 4284.615234, 4228.717773, 3518.000000, 8248.000000, 8176.000000, 0.000000, 0.000000, 0.000000, 25680.000000, 826.153809, 4.000000, 4.000000, 4.000000, 4.000000, 4.000000, 4.000000, 4.000000, 4.000000, 4.000000, 4.000000, 4.000000, 4.000000, 4.000000, 4.000000, 4.000000, 4.000000
113.000000, 0.000000, 4225.641113, 4286.666504, 4224.102539, 4214.871582, 4216.922852, 4191.281738, 4201.538574, 4192.307617, 4135.384277, 4227.692383, 4213.333008, 4220.000000, 4284.615234, 4227.179199, 3454.000000, 8256.000000, 8174.000000, 0.000000, 0.000000, 0.000000, 25680.000000, 834.358948, 4.000000, 4.000000, 4.000000, 4.000000, 4.000000, 4.000000, 4.000000, 4.000000, 4.000000, 4.000000, 4.000000, 4.000000, 4.000000, 4.000000, 4.000000, 4.000000
114.000000, 0.000000, 4207.179199, 4275.897461, 4204.615234, 4203.076660, 4212.820313, 4190.769043, 4199.487305, 4188.717773, 4128.717773, 4224.102539, 4215.384277, 4214.358887, 4282.051270, 4218.461426, 3290.000000, 8256.000000, 8174.000000, 0.000000, 0.000000, 0.000000, 25680.000000, 842.051270, 4.000000, 4.000000, 4.000000, 4.000000, 4.000000, 4.000000, 4.000000, 4.000000, 4.000000, 4.000000, 4.000000, 4.000000, 4.000000, 4.000000, 4.000000, 4.000000
115.000000, 0.000000, 4208.205078, 4281.538574, 4204.102539, 4212.820313, 4214.358887, 4197.948730, 4201.025391, 4194.871582, 4126.666504, 4230.256348, 4215.384277, 4217.948730, 4281.538574, 4216.410156, 3577.000000, 8266.000000, 8173.000000, 0.000000, 0.000000, 0.000000, 25680.000000, 849.743591, 4.000000, 4.000000, 4.000000, 4.000000, 4.000000, 4.000000, 4.000000, 4.000000, 4.000000, 4.000000, 4.000000, 4.000000, 4.000000, 4.000000, 4.000000, 4.000000
116.000000, 0.000000, 4217.436035, 4290.769043, 4215.897461, 4214.871582, 4219.487305, 4202.051270, 4205.641113, 4211.794922, 4140.000000, 4243.589844, 4217.948730, 4226.153809, 4289.230469, 4223.076660, 3518.000000, 8266.000000, 8173.000000, 0.000000, 0.000000, 0.000000, 25680.000000, 857.435852, 4.000000, 4.000000, 4.000000, 4.000000, 4.000000, 4.000000, 4.000000, 4.000000, 4.000000, 4.000000, 4.000000, 4.000000, 4.000000, 4.000000, 4.000000, 4.000000
117.000000, 0.000000, 4211.281738, 4281.538574, 4211.281738, 4209.230469, 4212.820313, 4200.000000, 4202.563965, 4217.948730, 4140.512695, 4240.000000, 4223.076660, 4226.153809, 4295.897461, 4225.127930, 3454.000000, 8268.000000, 8179.000000, 0.000000, 0.000000, 0.000000, 25680.000000, 865.128174, 4.000000, 4.000000, 4.000000, 4.000000, 4.000000, 4.000000, 4.000000, 4.000000, 4.000000, 4.000000, 4.000000, 4.000000, 4.000000, 4.000000, 4.000000, 4.000000
118.000000, 0.000000, 4207.179199, 4271.281738, 4204.102539, 4208.205078, 4202.563965, 4198.974121, 4202.051270, 4203.589844, 4121.025391, 4222.051270, 4217.436035, 4216.922852, 4287.179199, 4219.487305, 3290.000000, 8268.000000, 8179.000000, 0.000000, 0.000000, 0.000000, 25680.000000, 872.820496, 4.000000, 4.000000, 4.000000, 4.000000, 4.000000, 4.000000, 4.000000, 4.000000, 4.000000, 4.000000, 4.000000, 4.000000, 4.000000, 4.000000, 4.000000, 4.000000
119.000000, 0.000000, 4205.127930, 4268.205078, 4202.563965, 4196.922852, 4201.025391, 4191.281738, 4199.487305, 4190.256348, 4109.743652, 4214.358887, 4197.948730, 4209.230469, 4273.846191, 4212.820313, 3577.000000, 8265.000000, 8193.000000, 0.000000, 0.000000, 0.000000, 25680.000000, 880.512817, 4.000000, 4.000000, 4.000000, 4.000000, 4.000000, 4.000000, 4.000000, 4.000000, 4.000000, 4.000000, 4.000000, 4.000000, 4.000000, 4.000000, 4.000000, 4.000000
120.000000, 0.000000, 4205.641113, 4256.922852, 4210.256348, 4201.538574, 4197.948730, 4187.179199, 4194.871582, 4195.897461, 4118.461426, 4222.051270, 4193.846191, 4211.281738, 4271.281738, 4211.794922, 3518.000000, 8265.000000, 8193.000000, 0.000000, 0.000000, 0.000000, 25680.000000, 888.717957, 4.000000, 4.000000, 4.000000, 4.000000, 4.000000, 4.000000, 4.000000, 4.000000, 4.000000, 4.000000, 4.000000, 4.000000, 4.000000, 4.000000, 4.000000, 4.000000
121.000000, 0.000000, 4212.307617, 4245.127930, 4218.461426, 4208.717773, 4201.538574, 4197.948730, 4198.974121, 4210.769043, 4129.230469, 4230.769043, 4212.307617, 4216.922852, 4278.974121, 4216.922852, 3454.000000, 8259.000000, 8194.000000, 0.000000, 0.000000, 0.000000, 25680.000000, 896.410217, 4.000000, 4.000000, 4.000000, 4.000000, 4.000000, 4.000000, 4.000000, 4.000000, 4.000000, 4.000000, 4.000000, 4.000000, 4.000000, 4.000000, 4.000000, 4.000000
122.000000, 0.000000, 4209.230469, 4254.871582, 4210.256348, 4201.538574, 4210.769043, 4200.000000, 4205.127930, 4211.794922, 4127.692383, 4228.717773, 4223.589844, 4218.461426, 4287.179199, 4218.461426, 3290.000000, 8259.000000, 8194.000000, 0.000000, 0.000000, 0.000000, 25680.000000, 904.102539, 4.000000, 4.000000, 4.000000, 4.000000, 4.000000, 4.000000, 4.000000, 4.000000, 4.000000, 4.000000, 4.000000, 4.000000, 4.000000, 4.000000, 4.000000, 4.000000
123.000000, 0.000000, 4197.948730, 4270.256348, 4197.436035, 4195.384277, 4211.794922, 4190.256348, 4202.563965, 4206.153809, 4122.051270, 4216.922852, 4217.436035, 4216.922852, 4291.794922, 4216.410156, 3577.000000, 8254.000000, 8200.000000, 0.000000, 0.000000, 0.000000, 25680.000000, 911.794861, 4.000000, 4.000000, 4.000000, 4.000000, 4.000000, 4.000000, 4.000000, 4.000000, 4.000000, 4.000000, 4.000000, 4.000000, 4.000000, 4.000000, 4.000000, 4.000000
124.000000, 0.000000, 4201.538574, 4271.794922, 4199.487305, 4196.410156, 4204.615234, 4186.666504, 4195.384277, 4201.025391, 4121.538574, 4203.589844, 4205.127930, 4213.846191, 4295.384277, 4217.436035, 3518.000000, 8254.000000, 8200.000000, 0.000000, 0.000000, 0.000000, 25680.000000, 919.487183, 4.000000, 4.000000, 4.000000, 4.000000, 4.000000, 4.000000, 4.000000, 4.000000, 4.000000, 4.000000, 4.000000, 4.000000, 4.000000, 4.000000, 4.000000, 4.000000
125.000000, 0.000000, 4208.205078, 4277.436035, 4205.641113, 4200.000000, 4201.025391, 4192.820313, 4201.538574, 4197.436035, 4119.487305, 4201.025391, 4199.487305, 4214.871582, 4291.281738, 4213.846191, 3454.000000, 8232.000000, 8204.000000, 0.000000, 0.000000, 0.000000, 25680.000000, 927.179443, 4.000000, 4.000000, 4.000000, 4.000000, 4.000000, 4.000000, 4.000000, 4.000000, 4.000000, 4.000000, 4.000000, 4.000000, 4.000000, 4.000000, 4.000000, 4.000000
126.000000, 0.000000, 4203.076660, 4275.384277, 4207.179199, 4188.205078, 4205.127930, 4202.563965, 4212.820313, 4210.256348, 4117.948730, 4201.025391, 4201.025391, 4214.871582, 4283.076660, 4205.127930, 3290.000000, 8232.000000, 8204.000000, 0.000000, 0.000000, 0.000000, 25680.000000, 935.384583, 4.000000, 4.000000, 4.000000, 4.000000, 4.000000, 4.000000, 4.000000, 4.000000, 4.000000, 4.000000, 4.000000, 4.000000, 4.000000, 4.000000, 4.000000, 4.000000
127.000000, 0.000000, 4203.589844, 4271.794922, 4208.717773, 4184.102539, 4205.127930, 4200.000000, 4205.127930, 4215.897461, 4120.000000, 4200.512695, 4203.589844, 4209.743652, 4289.743652, 4203.076660, 53.000000, 8217.000000, 8198.000000, 0.000000, 0.000000, 0.000000, 25680.000000, 943.076904, 4.000000, 4.000000, 4.000000, 4.000000, 4.000000, 4.000000, 4.000000, 4.000000, 4.000000, 4.000000, 4.000000, 4.000000, 4.000000, 4.000000, 4.000000, 4.000000
0.000000, 0.000000, 4202.563965, 4275.384277, 4202.051270, 4198.974121, 4199.487305, 4190.256348, 4190.256348, 4197.436035, 4116.410156, 4197.948730, 4203.589844, 4203.589844, 4302.051270, 4204.102539, 3485.000000, 8217.000000, 8198.000000, 0.000000, 0.000000, 0.000000, 25680.000000, 950.769226, 4.000000, 4.000000, 4.000000, 4.000000, 4.000000, 4.000000, 4.000000, 4.000000, 4.000000, 4.000000, 4.000000, 4.000000, 4.000000, 4.000000, 4.000000, 4.000000
1.000000, 0.000000, 4198.974121, 4274.358887, 4198.974121, 4208.717773, 4207.179199, 4197.436035, 4198.974121, 4192.820313, 4112.820313, 4189.743652, 4200.512695, 4203.589844, 4302.563965, 4202.563965, 2217.000000, 8189.000000, 8187.000000, 0.000000, 0.000000, 0.000000, 25680.000000, 958.461487, 4.000000, 4.000000, 4.000000, 4.000000, 4.000000, 4.000000, 4.000000, 4.000000, 4.000000, 4.000000, 4.000000, 4.000000, 4.000000, 4.000000, 4.000000, 4.000000
2.000000, 0.000000, 4200.000000, 4282.563965, 4206.153809, 4201.025391, 4217.948730, 4207.692383, 4212.820313, 4199.487305, 4111.281738, 4179.487305, 4194.358887, 4203.589844, 4299.487305, 4198.974121, 3141.000000, 8189.000000, 8187.000000, 0.000000, 0.000000, 0.000000, 25680.000000, 966.153809, 4.000000, 4.000000, 4.000000, 4.000000, 4.000000, 4.000000, 4.000000, 4.000000, 4.000000, 4.000000, 4.000000, 4.000000, 4.000000, 4.000000, 4.000000, 4.000000
3.000000, 0.000000, 4197.948730, 4296.410156, 4204.615234, 4186.666504, 4207.692383, 4196.410156, 4200.512695, 4190.256348, 4104.615234, 4174.358887, 4187.179199, 4198.461426, 4297.436035, 4191.794922, 3552.000000, 8182.000000, 8183.000000, 0.000000, 0.000000, 0.000000, 25680.000000, 973.846130, 4.000000, 4.000000, 4.000000, 4.000000, 4.000000, 4.000000, 4.000000, 4.000000, 4.000000, 4.000000, 4.000000, 4.000000, 4.000000, 4.000000, 4.000000, 4.000000
4.000000, 0.000000, 4197.436035, 4292.307617, 4201.025391, 4194.358887, 4194.871582, 4188.205078, 4187.179199, 4178.974121, 4091.794678, 4170.256348, 4187.179199, 4196.922852, 4296.410156, 4192.820313, 3533.000000, 8182.000000, 8183.000000, 0.000000, 0.000000, 0.000000, 25680.000000, 982.051270, 4.000000, 4.000000, 4.000000, 4.000000, 4.000000, 4.000000, 4.000000, 4.000000, 4.000000, 4.000000, 4.000000, 4.000000, 4.000000, 4.000000, 4.000000, 4.000000
5.000000, 0.000000, 4199.487305, 4293.333008, 4201.538574, 4201.025391, 4203.076660, 4190.769043, 4185.641113, 4168.205078, 4085.640869, 4160.512695, 4187.179199, 4201.025391, 4293.846191, 4197.436035, 3561.000000, 8163.000000, 8167.000000, 0.000000, 0.000000, 0.000000, 25680.000000, 989.743591, 4.000000, 4.000000, 4.000000, 4.000000, 4.000000, 4.000000, 4.000000, 4.000000, 4.000000, 4.000000, 4.000000, 4.000000, 4.000000, 4.000000, 4.000000, 4.000000
6.000000, 0.000000, 4196.922852, 4300.512695, 4200.512695, 4184.102539, 4201.025391, 4186.153809, 4185.127930, 4159.487305, 4093.333252, 4155.897461, 4182.563965, 4197.948730, 4284.615234, 4191.281738, 3497.000000, 8163.000000, 8167.000000, 0.000000, 0.000000, 0.000000, 25680.000000, 997.435852, 4.000000, 4.000000, 4.000000, 4.000000, 4.000000, 4.000000, 4.000000, 4.000000, 4.000000, 4.000000, 4.000000, 4.000000, 4.000000, 4.000000, 4.000000, 4.000000
7.000000, 0.000000, 4194.358887, 4291.281738, 4200.000000, 4186.153809, 4188.717773, 4183.076660, 4186.153809, 4167.179199, 4078.461426, 4163.076660, 4181.025391, 4194.871582, 4277.948730, 4186.153809, 3507.000000, 8161.000000, 8160.000000, 0.000000, 0.000000, 0.000000, 25681.000000, 5.128205, 4.000000, 4.000000, 4.000000, 4.000000, 4.000000, 4.000000, 4.000000, 4.000000, 4.000000, 4.000000, 4.000000, 4.000000, 4.000000, 4.000000, 4.000000, 4.000000
8.000000, 0.000000, 4198.974121, 4296.410156, 4197.948730, 4194.871582, 4196.922852, 4184.102539, 4181.025391, 4170.256348, 4059.487061, 4169.230469, 4181.538574, 4195.897461, 4278.461426, 4190.769043, 3367.000000, 8161.000000, 8160.000000, 0.000000, 0.000000, 0.000000, 25681.000000, 12.820513, 4.000000, 4.000000, 4.000000, 4.000000, 4.000000, 4.000000, 4.000000, 4.000000, 4.000000, 4.000000, 4.000000, 4.000000, 4.000000, 4.000000, 4.000000, 4.000000
9.000000, 0.000000, 4201.025391, 4317.436035, 4195.897461, 4195.384277, 4207.692383, 4186.153809, 4181.538574, 4173.846191, 4095.897217, 4173.846191, 4188.717773, 4199.487305, 4283.589844, 4195.897461, 3532.000000, 8165.000000, 8161.000000, 0.000000, 0.000000, 0.000000, 25681.000000, 20.512819, 4.000000, 4.000000, 4.000000, 4.000000, 4.000000, 4.000000, 4.000000, 4.000000, 4.000000, 4.000000, 4.000000, 4.000000, 4.000000, 4.000000, 4.000000, 4.000000
10.000000, 0.000000, 4199.487305, 4322.563965, 4199.487305, 4201.538574, 4205.127930, 4192.820313, 4192.307617, 4197.948730, 4144.615234, 4187.692383, 4204.102539, 4212.307617, 4293.846191, 4203.589844, 3310.000000, 8165.000000, 8161.000000, 0.000000, 0.000000, 0.000000, 25681.000000, 28.717949, 4.000000, 4.000000, 4.000000, 4.000000, 4.000000, 4.000000, 4.000000, 4.000000, 4.000000, 4.000000, 4.000000, 4.000000, 4.000000, 4.000000, 4.000000, 4.000000
11.000000, 0.000000, 4198.974121, 4320.000000, 4201.538574, 4200.000000, 4202.051270, 4195.897461, 4192.820313, 4201.025391, 4130.256348, 4193.846191, 4208.205078, 4216.922852, 4289.743652, 4208.205078, 3582.000000, 8167.000000, 8167.000000, 0.000000, 0.000000, 0.000000, 25681.000000, 36.410255, 4.000000, 4.000000, 4.000000, 4.000000, 4.000000, 4.000000, 4.000000, 4.000000, 4.000000, 4.000000, 4.000000, 4.000000, 4.000000, 4.000000, 4.000000, 4.000000
12.000000, 0.000000, 4201.025391, 4323.076660, 4200.000000, 4201.538574, 4203.076660, 4187.692383, 4184.102539, 4177.948730, 4101.538574, 4180.512695, 4196.922852, 4209.230469, 4277.436035, 4201.538574, 3509.000000, 8167.000000, 8167.000000, 0.000000, 0.000000, 0.000000, 25681.000000, 44.102562, 4.000000, 4.000000, 4.000000, 4.000000, 4.000000, 4.000000, 4.000000, 4.000000, 4.000000, 4.000000, 4.000000, 4.000000, 4.000000, 4.000000, 4.000000, 4.000000
13.000000, 0.000000, 4200.512695, 4321.538574, 4201.025391, 4201.538574, 4201.025391, 4184.615234, 4186.153809, 4181.538574, 4110.769043, 4174.358887, 4189.230469, 4198.974121, 4277.948730, 4195.897461, 3453.000000, 8172.000000, 8177.000000, 0.000000, 0.000000, 0.000000, 25681.000000, 51.794872, 4.000000, 4.000000, 4.000000, 4.000000, 4.000000, 4.000000, 4.000000, 4.000000, 4.000000, 4.000000, 4.000000, 4.000000, 4.000000, 4.000000, 4.000000, 4.000000
14.000000, 0.000000, 4194.358887, 4314.358887, 4198.974121, 4197.948730, 4198.974121, 4188.205078, 4191.281738, 4195.384277, 4114.358887, 4174.358887, 4185.127930, 4185.127930, 4273.846191, 4188.717773, 3310.000000, 8172.000000, 8177.000000, 0.000000, 0.000000, 0.000000, 25681.000000, 59.487179, 4.000000, 4.000000, 4.000000, 4.000000, 4.000000, 4.000000, 4.000000, 4.000000, 4.000000, 4.000000, 4.000000, 4.000000, 4.000000, 4.000000, 4.000000, 4.000000
15.000000, 0.000000, 4189.230469, 4308.717773, 4192.820313, 4201.025391, 4197.948730, 4184.615234, 4183.589844, 4181.025391, 4101.538574, 4167.179199, 4180.512695, 4179.487305, 4261.538574, 4180.512695, 3582.000000, 8179.000000, 8196.000000, 0.000000, 0.000000, 0.000000, 25681.000000, 67.179489, 4.000000, 4.000000, 4.000000, 4.000000, 4.000000, 4.000000, 4.000000, 4.000000, 4.000000, 4.000000, 4.000000, 4.000000, 4.000000, 4.000000, 4.000000, 4.000000
16.000000, 0.000000, 4195.384277, 4310.256348, 4195.897461, 4198.461426, 4202.051270, 4182.563965, 4182.051270, 4165.127930, 4098.461426, 4168.717773, 4186.666504, 4195.897461, 4265.641113, 4190.256348, 0.000000, 8179.000000, 8196.000000, 0.000000, 0.000000, 0.000000, 25681.000000, 74.871796, 4.000000, 4.000000, 4.000000, 4.000000, 4.000000, 4.000000, 4.000000, 4.000000, 4.000000, 4.000000, 4.000000, 4.000000, 4.000000, 4.000000, 4.000000, 4.000000
17.000000, 0.000000, 4207.692383, 4312.307617, 4211.281738, 4205.641113, 4206.666504, 4184.615234, 4183.589844, 4168.717773, 4100.512695, 4177.436035, 4200.000000, 4216.410156, 4274.358887, 4206.666504, 0.000000, 8185.000000, 8209.000000, 0.000000, 0.000000, 0.000000, 25681.000000, 83.076920, 4.000000, 4.000000, 4.000000, 4.000000, 4.000000, 4.000000, 4.000000, 4.000000, 4.000000, 4.000000, 4.000000, 4.000000, 4.000000, 4.000000, 4.000000, 4.000000
18.000000, 0.000000, 4212.307617, 4302.051270, 4219.487305, 4213.846191, 4205.641113, 4185.641113, 4181.025391, 4175.384277, 4095.897217, 4173.333008, 4202.051270, 4219.487305, 4266.666504, 4210.256348, 0.000000, 8185.000000, 8209.000000, 0.000000, 0.000000, 0.000000, 25681.000000, 90.769226, 4.000000, 4.000000, 4.000000, 4.000000, 4.000000, 4.000000, 4.000000, 4.000000, 4.000000, 4.000000, 4.000000, 4.000000, 4.000000, 4.000000, 4.000000, 4.000000
19.000000, 0.000000, 4205.127930, 4280.512695, 4208.205078, 4210.256348, 4211.794922, 4192.820313, 4189.743652, 4172.820313, 4084.615234, 4160.000000, 4188.717773, 4208.205078, 4246.666504, 4198.974121, 0.000000, 8192.000000, 8216.000000, 0.000000, 0.000000, 0.000000, 25681.000000, 98.461533, 4.000000, 4.000000, 4.000000, 4.000000, 4.000000, 4.000000, 4.000000, 4.000000, 4.000000, 4.000000, 4.000000, 4.000000, 4.000000, 4.000000, 4.000000, 4.000000
20.000000, 0.000000, 4188.717773, 4249.230469, 4189.743652, 4204.615234, 4215.384277, 4200.512695, 4199.487305, 4166.666504, 4076.410156, 4146.666504, 4170.256348, 4192.307617, 4218.974121, 4177.948730, 0.000000, 8192.000000, 8216.000000, 0.000000, 0.000000, 0.000000, 25681.000000, 106.153847, 4.000000, 4.000000, 4.000000, 4.000000, 4.000000, 4.000000, 4.000000, 4.000000, 4.000000, 4.000000, 4.000000, 4.000000, 4.000000, 4.000000, 4.000000, 4.000000
21.000000, 0.000000, 4174.871582, 4215.897461, 4180.000000, 4195.897461, 4208.205078, 4201.025391, 4198.461426, 4174.358887, 4087.692139, 4146.153809, 4165.127930, 4183.589844, 4201.538574, 4165.127930, 0.000000, 8202.000000, 8225.000000, 0.000000, 0.000000, 0.000000, 25681.000000, 113.846153, 4.000000, 4.000000, 4.000000, 4.000000, 4.000000, 4.000000, 4.000000, 4.000000, 4.000000, 4.000000, 4.000000, 4.000000, 4.000000, 4.000000, 4.000000, 4.000000
22.000000, 0.000000, 4180.512695, 4193.846191, 4185.127930, 4198.461426, 4203.076660, 4199.487305, 4200.000000, 4198.974121, 4115.897461, 4167.179199, 4178.974121, 4190.769043, 4204.102539, 4171.281738, 0.000000, 8202.000000, 8225.000000, 0.000000, 0.000000, 0.000000, 25681.000000, 121.538460, 4.000000, 4.000000, 4.000000, 4.000000, 4.000000, 4.000000, 4.000000, 4.000000, 4.000000, 4.000000, 4.000000, 4.000000, 4.000000, 4.000000, 4.000000, 4.000000
23.000000, 0.000000, 4188.717773, 4179.487305, 4190.256348, 4203.589844, 4205.641113, 4196.922852, 4202.051270, 4206.666504, 4130.256348, 4187.179199, 4191.281738, 4200.512695, 4207.179199, 4183.589844, 0.000000, 8207.000000, 8231.000000, 0.000000, 0.000000, 0.000000, 25681.000000, 129.743591, 4.000000, 4.000000, 4.000000, 4.000000, 4.000000, 4.000000, 4.000000, 4.000000, 4.000000, 4.000000, 4.000000, 4.000000, 4.000000, 4.000000, 4.000000, 4.000000
24.000000, 0.000000, 4189.743652, 4165.127930, 4189.743652, 4201.025391, 4211.794922, 4191.794922, 4189.743652, 4183.589844, 4114.871582, 4187.692383, 4190.769043, 4198.974121, 4198.461426, 4192.307617, 0.000000, 8207.000000, 8231.000000, 0.000000, 0.000000, 0.000000, 25681.000000, 137.435898, 4.000000, 4.000000, 4.000000, 4.000000, 4.000000, 4.000000, 4.000000, 4.000000, 4.000000, 4.000000, 4.000000, 4.000000, 4.000000, 4.000000, 4.000000, 4.000000
25.000000, 0.000000, 4193.846191, 4146.666504, 4189.743652, 4206.153809, 4212.307617, 4186.666504, 4183.076660, 4171.794922, 4099.487305, 4183.589844, 4187.179199, 4196.410156, 4185.641113, 4195.384277, 0.000000, 8220.000000, 8251.000000, 0.000000, 0.000000, 0.000000, 25681.000000, 145.128204, 4.000000, 4.000000, 4.000000, 4.000000, 4.000000, 4.000000, 4.000000, 4.000000, 4.000000, 4.000000, 4.000000, 4.000000, 4.000000, 4.000000, 4.000000, 4.000000
26.000000, 0.000000, 4197.436035, 4122.051270, 4187.179199, 4204.615234, 4206.153809, 4185.127930, 4189.230469, 4177.436035, 4115.384277, 4184.615234, 4185.127930, 4194.871582, 4169.743652, 4190.256348, 0.000000, 8220.000000, 8251.000000, 0.000000, 0.000000, 0.000000, 25681.000000, 152.820511, 4.000000, 4.000000, 4.000000, 4.000000, 4.000000, 4.000000, 4.000000, 4.000000, 4.000000, 4.000000, 4.000000, 4.000000, 4.000000, 4.000000, 4.000000, 4.000000
27.000000, 0.000000, 4190.769043, 4093.845947, 4184.102539, 4200.512695, 4201.538574, 4183.589844, 4182.051270, 4168.717773, 4110.256348, 4178.461426, 4178.974121, 4187.692383, 4155.897461, 4183.076660, 0.000000, 8225.000000, 8254.000000, 0.000000, 0.000000, 0.000000, 25681.000000, 160.512817, 4.000000, 4.000000, 4.000000, 4.000000, 4.000000, 4.000000, 4.000000, 4.000000, 4.000000, 4.000000, 4.000000, 4.000000, 4.000000, 4.000000, 4.000000, 4.000000
28.000000, 0.000000, 4182.051270, 4076.923096, 4182.563965, 4202.051270, 4203.076660, 4177.948730, 4168.205078, 4161.538574, 4074.871582, 4170.256348, 4176.410156, 4181.538574, 4147.179199, 4180.512695, 0.000000, 8225.000000, 8254.000000, 0.000000, 0.000000, 0.000000, 25681.000000, 168.205124, 4.000000, 4.000000, 4.000000, 4.000000, 4.000000, 4.000000, 4.000000, 4.000000, 4.000000, 4.000000, 4.000000, 4.000000, 4.000000, 4.000000, 4.000000, 4.000000
29.000000, 0.000000, 4187.179199, 4075.384521, 4184.102539, 4205.127930, 4203.076660, 4174.871582, 4172.820313, 4169.743652, 4083.076904, 4177.436035, 4184.615234, 4188.717773, 4143.589844, 4183.589844, 0.000000, 8233.000000, 8242.000000, 0.000000, 0.000000, 0.000000, 25681.000000, 176.410248, 4.000000, 4.000000, 4.000000, 4.000000, 4.000000, 4.000000, 4.000000, 4.000000, 4.000000, 4.000000, 4.000000, 4.000000, 4.000000, 4.000000, 4.000000, 4.000000
30.000000, 0.000000, 4197.948730, 4071.281982, 4192.307617, 4213.846191, 4205.641113, 4180.000000, 4186.153809, 4175.897461, 4124.615234, 4190.769043, 4194.358887, 4204.615234, 4145.641113, 4193.333008, 0.000000, 8233.000000, 8242.000000, 0.000000, 0.000000, 0.000000, 25681.000000, 184.102554, 4.000000, 4.000000, 4.000000, 4.000000, 4.000000, 4.000000, 4.000000, 4.000000, 4.000000, 4.000000, 4.000000, 4.000000, 4.000000, 4.000000, 4.000000, 4.000000
31.000000, 0.000000, 4208.205078, 4067.692139, 4200.512695, 4214.871582, 4213.333008, 4186.153809, 4188.717773, 4183.589844, 4134.358887, 4200.512695, 4203.076660, 4213.846191, 4152.820313, 4209.230469, 0.000000, 8232.000000, 8232.000000, 0.000000, 0.000000, 0.000000, 25681.000000, 191.794861, 4.000000, 4.000000, 4.000000, 4.000000, 4.000000, 4.000000, 4.000000, 4.000000, 4.000000, 4.000000, 4.000000, 4.000000, 4.000000, 4.000000, 4.000000, 4.000000
32.000000, 0.000000, 4219.487305, 4072.820313, 4205.641113, 4216.922852, 4217.436035, 4187.179199, 4185.127930, 4191.794922, 4123.589844, 4207.179199, 4209.230469, 4218.974121, 4155.384277, 4222.051270, 0.000000, 8232.000000, 8232.000000, 0.000000, 0.000000, 0.000000, 25681.000000, 199.487167, 4.000000, 4.000000, 4.000000, 4.000000, 4.000000, 4.000000, 4.000000, 4.000000, 4.000000, 4.000000, 4.000000, 4.000000, 4.000000, 4.000000, 4.000000, 4.000000
33.000000, 0.000000, 4215.897461, 4066.153809, 4210.769043, 4218.974121, 4219.487305, 4187.179199, 4187.179199, 4183.589844, 4126.153809, 4208.205078, 4205.641113, 4221.538574, 4140.512695, 4217.436035, 0.000000, 8234.000000, 8213.000000, 0.000000, 0.000000, 0.000000, 25681.000000, 207.692307, 4.000000, 4.000000, 4.000000, 4.000000, 4.000000, 4.000000, 4.000000, 4.000000, 4.000000, 4.000000, 4.000000, 4.000000, 4.000000, 4.000000, 4.000000, 4.000000
34.000000, 0.000000, 4208.717773, 4052.307617, 4212.820313, 4214.358887, 4218.461426, 4184.102539, 4181.025391, 4172.307617, 4125.641113, 4204.615234, 4198.461426, 4215.897461, 4127.692383, 4205.641113, 0.000000, 8234.000000, 8213.000000, 0.000000, 0.000000, 0.000000, 25681.000000, 215.384613, 4.000000, 4.000000, 4.000000, 4.000000, 4.000000, 4.000000, 4.000000, 4.000000, 4.000000, 4.000000, 4.000000, 4.000000, 4.000000, 4.000000, 4.000000, 4.000000
35.000000, 0.000000, 4214.358887, 4054.871582, 4207.692383, 4219.487305, 4214.871582, 4182.051270, 4169.230469, 4172.820313, 4121.538574, 4203.589844, 4202.051270, 4208.717773, 4134.871582, 4208.205078, 0.000000, 8222.000000, 8202.000000, 0.000000, 0.000000, 0.000000, 25681.000000, 223.076920, 4.000000, 4.000000, 4.000000, 4.000000, 4.000000, 4.000000, 4.000000, 4.000000, 4.000000, 4.000000, 4.000000, 4.000000, 4.000000, 4.000000, 4.000000, 4.000000
36.000000, 0.000000, 4215.384277, 4055.897217, 4198.974121, 4214.871582, 4214.358887, 4188.717773, 4175.384277, 4177.436035, 4125.641113, 4207.692383, 4201.538574, 4201.538574, 4136.410156, 4210.769043, 0.000000, 8222.000000, 8202.000000, 0.000000, 0.000000, 0.000000, 25681.000000, 230.769226, 4.000000, 4.000000, 4.000000, 4.000000, 4.000000, 4.000000, 4.000000, 4.000000, 4.000000, 4.000000, 4.000000, 4.000000, 4.000000, 4.000000, 4.000000, 4.000000
37.000000, 0.000000, 4206.153809, 4040.512695, 4191.794922, 4204.615234, 4216.410156, 4193.846191, 4187.692383, 4175.897461, 4125.127930, 4204.615234, 4189.743652, 4192.820313, 4118.461426, 4195.384277, 0.000000, 8213.000000, 8197.000000, 0.000000, 0.000000, 0.000000, 25681.000000, 238.461533, 4.000000, 4.000000, 4.000000, 4.000000, 4.000000, 4.000000, 4.000000, 4.000000, 4.000000, 4.000000, 4.000000, 4.000000, 4.000000, 4.000000, 4.000000, 4.000000
38.000000, 0.000000, 4200.512695, 4030.256348, 4185.641113, 4204.615234, 4215.384277, 4188.205078, 4185.641113, 4166.153809, 4116.410156, 4193.333008, 4179.487305, 4187.179199, 4103.589844, 4186.153809, 0.000000, 8213.000000, 8197.000000, 0.000000, 0.000000, 0.000000, 25681.000000, 246.666656, 4.000000, 4.000000, 4.000000, 4.000000, 4.000000, 4.000000, 4.000000, 4.000000, 4.000000, 4.000000, 4.000000, 4.000000, 4.000000, 4.000000, 4.000000, 4.000000
39.000000, 0.000000, 4197.436035, 4026.153809, 4183.076660, 4199.487305, 4212.307617, 4181.025391, 4179.487305, 4159.487305, 4105.127930, 4183.589844, 4175.384277, 4182.051270, 4098.461426, 4188.717773, 0.000000, 8199.000000, 8209.000000, 0.000000, 0.000000, 0.000000, 25681.000000, 254.358963, 4.000000, 4.000000, 4.000000, 4.000000, 4.000000, 4.000000, 4.000000, 4.000000, 4.000000, 4.000000, 4.000000, 4.000000, 4.000000, 4.000000, 4.000000, 4.000000
40.000000, 0.000000, 4191.794922, 4015.897217, 4184.102539, 4200.000000, 4210.769043, 4185.641113, 4185.127930, 4162.051270, 4100.512695, 4178.974121, 4175.384277, 4183.589844, 4093.333252, 4184.615234, 0.000000, 8199.000000, 8209.000000, 0.000000, 0.000000, 0.000000, 25681.000000, 262.051270, 4.000000, 4.000000, 4.000000, 4.000000, 4.000000, 4.000000, 4.000000, 4.000000, 4.000000, 4.000000, 4.000000, 4.000000, 4.000000, 4.000000, 4.000000, 4.000000
41.000000, 0.000000, 4193.333008, 4017.948730, 4185.127930, 4205.641113, 4216.410156, 4195.384277, 4187.692383, 4170.256348, 4108.205078, 4184.102539, 4185.127930, 4193.333008, 4094.871582, 4186.666504, 0.000000, 8194.000000, 8212.000000, 0.000000, 0.000000, 0.000000, 25681.000000, 269.743591, 4.000000, 4.000000, 4.000000, 4.000000, 4.000000, 4.000000, 4.000000, 4.000000, 4.000000, 4.000000, 4.000000, 4.000000, 4.000000, 4.000000, 4.000000, 4.000000
42.000000, 0.000000, 4200.512695, 4024.102539, 4188.717773, 4207.692383, 4218.974121, 4191.281738, 4183.589844, 4177.436035, 4115.384277, 4195.384277, 4192.307617, 4197.948730, 4097.948730, 4196.410156, 0.000000, 8194.000000, 8212.000000, 0.000000, 0.000000, 0.000000, 25681.000000, 277.435883, 4.000000, 4.000000, 4.000000, 4.000000, 4.000000, 4.000000, 4.000000, 4.000000, 4.000000, 4.000000, 4.000000, 4.000000, 4.000000, 4.000000, 4.000000, 4.000000
43.000000, 0.000000, 4196.410156, 4011.794678, 4187.692383, 4207.179199, 4214.871582, 4179.487305, 4184.102539, 4170.769043, 4109.230469, 4195.384277, 4186.153809, 4190.256348, 4090.769043, 4190.256348, 0.000000, 8188.000000, 8213.000000, 0.000000, 0.000000, 0.000000, 25681.000000, 285.128204, 4.000000, 4.000000, 4.000000, 4.000000, 4.000000, 4.000000, 4.000000, 4.000000, 4.000000, 4.000000, 4.000000, 4.000000, 4.000000, 4.000000, 4.000000, 4.000000
44.000000, 0.000000, 4188.717773, 4001.538330, 4184.102539, 4198.974121, 4214.358887, 4183.076660, 4183.076660, 4158.974121, 4104.102539, 4187.179199, 4178.974121, 4181.538574, 4084.102539, 4181.025391, 0.000000, 8188.000000, 8213.000000, 0.000000, 0.000000, 0.000000, 25681.000000, 293.333313, 4.000000, 4.000000, 4.000000, 4.000000, 4.000000, 4.000000, 4.000000, 4.000000, 4.000000, 4.000000, 4.000000, 4.000000, 4.000000, 4.000000, 4.000000, 4.000000
45.000000, 0.000000, 4191.794922, 4008.717773, 4191.281738, 4206.666504, 4218.974121, 4198.974121, 4184.102539, 4169.230469, 4116.410156, 4191.794922, 4180.512695, 4187.692383, 4086.666504, 4187.179199, 0.000000, 8177.000000, 8199.000000, 0.000000, 0.000000, 0.000000, 25681.000000, 301.025635, 4.000000, 4.000000, 4.000000, 4.000000, 4.000000, 4.000000, 4.000000, 4.000000, 4.000000, 4.000000, 4.000000, 4.000000, 4.000000, 4.000000, 4.000000, 4.000000
46.000000, 0.000000, 4196.410156, 4013.333252, 4203.589844, 4211.281738, 4221.538574, 4203.589844, 4190.769043, 4186.153809, 4128.717773, 4200.512695, 4186.666504, 4194.871582, 4093.845947, 4195.897461, 0.000000, 8177.000000, 8199.000000, 0.000000, 0.000000, 0.000000, 25681.000000, 308.717926, 4.000000, 4.000000, 4.000000, 4.000000, 4.000000, 4.000000, 4.000000, 4.000000, 4.000000, 4.000000, 4.000000, 4.000000, 4.000000, 4.000000, 4.000000, 4.000000
47.000000, 0.000000, 4194.871582, 4009.230713, 4203.589844, 4205.641113, 4221.538574, 4192.307617, 4192.307617, 4176.410156, 4126.153809, 4198.461426, 4188.205078, 4188.717773, 4093.845947, 4195.384277, 0.000000, 8173.000000, 8190.000000, 0.000000, 0.000000, 0.000000, 25681.000000, 316.410248, 4.000000, 4.000000, 4.000000, 4.000000, 4.000000, 4.000000, 4.000000, 4.000000, 4.000000, 4.000000, 4.000000, 4.000000, 4.000000, 4.000000, 4.000000, 4.000000
48.000000, 0.000000, 4196.410156, 4013.333252, 4201.025391, 4209.743652, 4221.538574, 4184.615234, 4182.563965, 4164.102539, 4122.563965, 4195.384277, 4184.102539, 4189.230469, 4091.281982, 4195.897461, 0.000000, 8173.000000, 8190.000000, 0.000000, 0.000000, 0.000000, 25681.000000, 324.102570, 4.000000, 4.000000, 4.000000, 4.000000, 4.000000, 4.000000, 4.000000, 4.000000, 4.000000, 4.000000, 4.000000, 4.000000, 4.000000, 4.000000, 4.000000, 4.000000
49.000000, 0.000000, 4198.974121, 4018.974365, 4204.615234, 4207.692383, 4220.000000, 4188.717773, 4178.461426, 4166.666504, 4123.076660, 4192.307617, 4183.076660, 4194.871582, 4092.820313, 4201.538574, 0.000000, 8170.000000, 8181.000000, 0.000000, 0.000000, 0.000000, 25681.000000, 332.307678, 4.000000, 4.000000, 4.000000, 4.000000, 4.000000, 4.000000, 4.000000, 4.000000, 4.000000, 4.000000, 4.000000, 4.000000, 4.000000, 4.000000, 4.000000, 4.000000
50.000000, 0.000000, 4197.436035, 4013.845947, 4204.102539, 4205.641113, 4215.897461, 4192.307617, 4187.692383, 4170.769043, 4121.538574, 4185.127930, 4183.589844, 4193.333008, 4092.307617, 4200.512695, 0.000000, 8170.000000, 8181.000000, 0.000000, 0.000000, 0.000000, 25681.000000, 340.000000, 4.000000, 4.000000, 4.000000, 4.000000, 4.000000, 4.000000, 4.000000, 4.000000, 4.000000, 4.000000, 4.000000, 4.000000, 4.000000, 4.000000, 4.000000, 4.000000
51.000000, 0.000000, 4194.871582, 4012.307617, 4198.974121, 4204.615234, 4215.897461, 4186.666504, 4186.666504, 4172.820313, 4123.076660, 4187.179199, 4184.615234, 4194.358887, 4092.307617, 4196.410156, 0.000000, 8171.000000, 8178.000000, 0.000000, 0.000000, 0.000000, 25681.000000, 347.692291, 4.000000, 4.000000, 4.000000, 4.000000, 4.000000, 4.000000, 4.000000, 4.000000, 4.000000, 4.000000, 4.000000, 4.000000, 4.000000, 4.000000, 4.000000, 4.000000
52.000000, 0.000000, 4193.846191, 4015.897217, 4198.974121, 4205.127930, 4217.948730, 4183.076660, 4171.794922, 4168.205078, 4122.051270, 4189.743652, 4184.615234, 4197.436035, 4092.820313, 4192.307617, 0.000000, 8171.000000, 8178.000000, 0.000000, 0.000000, 0.000000, 25681.000000, 355.384613, 4.000000, 4.000000, 4.000000, 4.000000, 4.000000, 4.000000, 4.000000, 4.000000, 4.000000, 4.000000, 4.000000, 4.000000, 4.000000, 4.000000, 4.000000, 4.000000
53.000000, 0.000000, 4191.794922, 4012.307617, 4199.487305, 4209.743652, 4213.333008, 4184.615234, 4170.769043, 4169.230469, 4120.000000, 4185.127930, 4180.000000, 4194.358887, 4088.205078, 4185.641113, 0.000000, 8173.000000, 8168.000000, 0.000000, 0.000000, 0.000000, 25681.000000, 363.589722, 4.000000, 4.000000, 4.000000, 4.000000, 4.000000, 4.000000, 4.000000, 4.000000, 4.000000, 4.000000, 4.000000, 4.000000, 4.000000, 4.000000, 4.000000, 4.000000
54.000000, 0.000000, 4190.256348, 4006.153809, 4195.384277, 4203.076660, 4209.230469, 4185.641113, 4183.076660, 4186.153809, 4128.205078, 4187.692383, 4180.000000, 4195.384277, 4090.256348, 4183.589844, 0.000000, 8173.000000, 8168.000000, 0.000000, 0.000000, 0.000000, 25681.000000, 371.282043, 4.000000, 4.000000, 4.000000, 4.000000, 4.000000, 4.000000, 4.000000, 4.000000, 4.000000, 4.000000, 4.000000, 4.000000, 4.000000, 4.000000, 4.000000, 4.000000
55.000000, 0.000000, 4186.666504, 4004.615234, 4189.743652, 4199.487305, 4211.281738, 4185.127930, 4184.102539, 4191.794922, 4131.281738, 4194.358887, 4184.102539, 4200.512695, 4094.358887, 4185.127930, 0.000000, 8173.000000, 8168.000000, 0.000000, 0.000000, 0.000000, 25681.000000, 378.974335, 4.000000, 4.000000, 4.000000, 4.000000, 4.000000, 4.000000, 4.000000, 4.000000, 4.000000, 4.000000, 4.000000, 4.000000, 4.000000, 4.000000, 4.000000, 4.000000
56.000000, 0.000000, 4181.538574, 4004.102539, 4185.127930, 4198.461426, 4213.333008, 4187.692383, 4181.538574, 4178.974121, 4122.563965, 4197.948730, 4184.102539, 4192.307617, 4094.358887, 4184.615234, 0.000000, 8173.000000, 8168.000000, 0.000000, 0.000000, 0.000000, 25681.000000, 386.666656, 4.000000, 4.000000, 4.000000, 4.000000, 4.000000, 4.000000, 4.000000, 4.000000, 4.000000, 4.000000, 4.000000, 4.000000, 4.000000, 4.000000, 4.000000, 4.000000
57.000000, 0.000000, 4184.615234, 4006.153809, 4181.538574, 4195.384277, 4211.281738, 4188.205078, 4189.230469, 4182.051270, 4126.666504, 4201.538574, 4185.127930, 4183.589844, 4101.025391, 4187.692383, 0.000000, 8169.000000, 8169.000000, 0.000000, 0.000000, 0.000000, 25681.000000, 394.358978, 4.000000, 4.000000, 4.000000, 4.000000, 4.000000, 4.000000, 4.000000, 4.000000, 4.000000, 4.000000, 4.000000, 4.000000, 4.000000, 4.000000, 4.000000, 4.000000
58.000000, 0.000000, 4185.127930, 4004.615234, 4182.051270, 4199.487305, 4207.179199, 4183.589844, 4187.692383, 4192.820313, 4134.871582, 4200.000000, 4182.563965, 4186.153809, 4102.051270, 4184.102539, 0.000000, 8169.000000, 8169.000000, 0.000000, 0.000000, 0.000000, 25681.000000, 402.051270, 4.000000, 4.000000, 4.000000, 4.000000, 4.000000, 4.000000, 4.000000, 4.000000, 4.000000, 4.000000, 4.000000, 4.000000, 4.000000, 4.000000, 4.000000, 4.000000
59.000000, 0.000000, 4171.794922, 3993.333252, 4184.102539, 4194.871582, 4202.051270, 4181.538574, 4173.846191, 4180.000000, 4127.692383, 4195.897461, 4178.974121, 4187.692383, 4089.230713, 4171.794922, 0.000000, 8159.000000, 8168.000000, 0.000000, 0.000000, 0.000000, 25681.000000, 410.256409, 4.000000, 4.000000, 4.000000, 4.000000, 4.000000, 4.000000, 4.000000, 4.000000, 4.000000, 4.000000, 4.000000, 4.000000, 4.000000, 4.000000, 4.000000, 4.000000
60.000000, 0.000000, 4170.256348, 3993.845947, 4185.127930, 4194.358887, 4195.897461, 4184.102539, 4170.769043, 4163.076660, 4121.025391, 4198.461426, 4182.563965, 4190.256348, 4093.333252, 4177.948730, 0.000000, 8159.000000, 8168.000000, 0.000000, 0.000000, 0.000000, 25681.000000, 417.948700, 4.000000, 4.000000, 4.000000, 4.000000, 4.000000, 4.000000, 4.000000, 4.000000, 4.000000, 4.000000, 4.000000, 4.000000, 4.000000, 4.000000, 4.000000, 4.000000
61.000000, 0.000000, 4187.179199, 4014.871582, 4188.717773, 4200.000000, 4196.410156, 4186.153809, 4183.076660, 4168.205078, 4125.127930, 4197.436035, 4187.179199, 4195.897461, 4107.179199, 4194.871582, 0.000000, 8154.000000, 8166.000000, 0.000000, 0.000000, 0.000000, 25681.000000, 425.641022, 4.000000, 4.000000, 4.000000, 4.000000, 4.000000, 4.000000, 4.000000, 4.000000, 4.000000, 4.000000, 4.000000, 4.000000, 4.000000, 4.000000, 4.000000, 4.000000
62.000000, 0.000000, 4201.025391, 4031.281982, 4196.922852, 4201.025391, 4207.179199, 4186.666504, 4190.256348, 4177.436035, 4126.153809, 4194.871582, 4190.256348, 4201.538574, 4109.743652, 4202.563965, 0.000000, 8154.000000, 8166.000000, 0.000000, 0.000000, 0.000000, 25681.000000, 433.333313, 4.000000, 4.000000, 4.000000, 4.000000, 4.000000, 4.000000, 4.000000, 4.000000, 4.000000, 4.000000, 4.000000, 4.000000, 4.000000, 4.000000, 4.000000, 4.000000
63.000000, 0.000000, 4204.102539, 4034.358887, 4203.589844, 4207.179199, 4212.820313, 4184.102539, 4179.487305, 4165.641113, 4116.922852, 4194.358887, 4198.461426, 4207.692383, 4114.358887, 4209.743652, 0.000000, 8138.000000, 8143.000000, 0.000000, 0.000000, 0.000000, 25681.000000, 441.025635, 4.000000, 4.000000, 4.000000, 4.000000, 4.000000, 4.000000, 4.000000, 4.000000, 4.000000, 4.000000, 4.000000, 4.000000, 4.000000, 4.000000, 4.000000, 4.000000
64.000000, 0.000000, 4206.153809, 4032.820313, 4200.512695, 4203.589844, 4207.179199, 4183.589844, 4174.871582, 4160.512695, 4111.281738, 4195.897461, 4199.487305, 4210.769043, 4119.487305, 4215.897461, 3485.000000, 8138.000000, 8143.000000, 0.000000, 0.000000, 0.000000, 25681.000000, 449.230743, 4.000000, 4.000000, 4.000000, 4.000000, 4.000000, 4.000000, 4.000000, 4.000000, 4.000000, 4.000000, 4.000000, 4.000000, 4.000000, 4.000000, 4.000000, 4.000000
65.000000, 0.000000, 4204.615234, 4026.153809, 4191.281738, 4196.410156, 4200.512695, 4185.127930, 4181.025391, 4169.230469, 4113.846191, 4194.871582, 4188.717773, 4206.666504, 4112.307617, 4209.743652, 2215.000000, 8132.000000, 8146.000000, 0.000000, 0.000000, 0.000000, 25681.000000, 456.923065, 4.000000, 4.000000, 4.000000, 4.000000, 4.000000, 4.000000, 4.000000, 4.000000, 4.000000, 4.000000, 4.000000, 4.000000, 4.000000, 4.000000, 4.000000, 4.000000
66.000000, 0.000000, 4194.871582, 4020.512695, 4185.127930, 4196.922852, 4198.974121, 4184.102539, 4182.563965, 4164.102539, 4108.717773, 4189.230469, 4184.615234, 4200.000000, 4106.666504, 4200.512695, 3142.000000, 8132.000000, 8146.000000, 0.000000, 0.000000, 0.000000, 25681.000000, 464.615387, 4.000000, 4.000000, 4.000000, 4.000000, 4.000000, 4.000000, 4.000000, 4.000000, 4.000000, 4.000000, 4.000000, 4.000000, 4.000000, 4.000000, 4.000000, 4.000000
67.000000, 0.000000, 4189.230469, 4024.615234, 4186.153809, 4196.410156, 4204.102539, 4188.717773, 4183.076660, 4164.615234, 4102.051270, 4190.769043, 4186.153809, 4196.922852, 4108.205078, 4194.358887, 3566.000000, 8129.000000, 8141.000000, 0.000000, 0.000000, 0.000000, 25681.000000, 472.307678, 4.000000, 4.000000, 4.000000, 4.000000, 4.000000, 4.000000, 4.000000, 4.000000, 4.000000, 4.000000, 4.000000, 4.000000, 4.000000, 4.000000, 4.000000, 4.000000
68.000000, 0.000000, 4191.281738, 4026.153809, 4188.205078, 4200.000000, 4207.179199, 4192.820313, 4187.179199, 4183.589844, 4108.205078, 4195.897461, 4186.666504, 4194.871582, 4107.692383, 4188.205078, 3532.000000, 8129.000000, 8141.000000, 0.000000, 0.000000, 0.000000, 25681.000000, 480.000000, 4.000000, 4.000000, 4.000000, 4.000000, 4.000000, 4.000000, 4.000000, 4.000000, 4.000000, 4.000000, 4.000000, 4.000000, 4.000000, 4.000000, 4.000000, 4.000000
69.000000, 0.000000, 4189.230469, 4028.205078, 4186.666504, 4197.436035, 4203.589844, 4187.692383, 4188.717773, 4181.538574, 4112.820313, 4192.820313, 4184.615234, 4186.153809, 4105.641113, 4185.127930, 3561.000000, 8110.000000, 8141.000000, 0.000000, 0.000000, 0.000000, 25681.000000, 488.205109, 4.000000, 4.000000, 4.000000, 4.000000, 4.000000, 4.000000, 4.000000, 4.000000, 4.000000, 4.000000, 4.000000, 4.000000, 4.000000, 4.000000, 4.000000, 4.000000
70.000000, 0.000000, 4186.153809, 4032.307617, 4190.769043, 4197.948730, 4204.615234, 4189.230469, 4188.205078, 4162.563965, 4104.615234, 4184.102539, 4178.461426, 4180.512695, 4103.589844, 4183.076660, 3494.000000, 8110.000000, 8141.000000, 0.000000, 0.000000, 0.000000, 25681.000000, 495.897430, 4.000000, 4.000000, 4.000000, 4.000000, 4.000000, 4.000000, 4.000000, 4.000000, 4.000000, 4.000000, 4.000000, 4.000000, 4.000000, 4.000000, 4.000000, 4.000000
71.000000, 0.000000, 4189.743652, 4031.281982, 4196.410156, 4204.615234, 4208.717773, 4192.820313, 4187.179199, 4173.333008, 4107.179199, 4184.102539, 4177.436035, 4187.692383, 4103.076660, 4186.666504, 3499.000000, 8102.000000, 8144.000000, 0.000000, 0.000000, 0.000000, 25681.000000, 503.589722, 4.000000, 4.000000, 4.000000, 4.000000, 4.000000, 4.000000, 4.000000, 4.000000, 4.000000, 4.000000, 4.000000, 4.000000, 4.000000, 4.000000, 4.000000, 4.000000
72.000000, 0.000000, 4200.512695, 4037.435791, 4200.000000, 4206.153809, 4212.307617, 4191.281738, 4185.127930, 4187.692383, 4121.025391, 4193.333008, 4186.666504, 4200.000000, 4108.717773, 4201.025391, 3372.000000, 8102.000000, 8144.000000, 0.000000, 0.000000, 0.000000, 25681.000000, 511.282043, 4.000000, 4.000000, 4.000000, 4.000000, 4.000000, 4.000000, 4.000000, 4.000000, 4.000000, 4.000000, 4.000000, 4.000000, 4.000000, 4.000000, 4.000000, 4.000000
73.000000, 0.000000, 4203.589844, 4048.205078, 4204.102539, 4214.358887, 4216.922852, 4193.846191, 4187.179199, 4175.384277, 4117.436035, 4192.307617, 4188.717773, 4206.153809, 4107.692383, 4202.563965, 3530.000000, 8090.000000, 8148.000000, 0.000000, 0.000000, 0.000000, 25681.000000, 518.974365, 4.000000, 4.000000, 4.000000, 4.000000, 4.000000, 4.000000, 4.000000, 4.000000, 4.000000, 4.000000, 4.000000, 4.000000, 4.000000, 4.000000, 4.000000, 4.000000
74.000000, 0.000000, 4196.922852, 4043.076904, 4203.589844, 4213.846191, 4214.871582, 4193.846191, 4185.127930, 4164.615234, 4109.230469, 4186.666504, 4184.615234, 4201.538574, 4103.076660, 4191.794922, 3331.000000, 8090.000000, 8148.000000, 0.000000, 0.000000, 0.000000, 25681.000000, 527.179504, 4.000000, 4.000000, 4.000000, 4.000000, 4.000000, 4.000000, 4.000000, 4.000000, 4.000000, 4.000000, 4.000000, 4.000000, 4.000000, 4.000000, 4.000000, 4.000000
75.000000, 0.000000, 4193.333008, 4030.769043, 4197.436035, 4206.153809, 4209.230469, 4183.076660, 4183.076660, 4172.307617, 4117.436035, 4189.230469, 4186.153809, 4199.487305, 4105.641113, 4192.820313, 3585.000000, 8089.000000, 8156.000000, 0.000000, 0.000000, 0.000000, 25681.000000, 534.871765, 4.000000, 4.000000, 4.000000, 4.000000, 4.000000, 4.000000, 4.000000, 4.000000, 4.000000, 4.000000, 4.000000, 4.000000, 4.000000, 4.000000, 4.000000, 4.000000
76.000000, 0.000000, 4197.436035, 4036.923096, 4201.025391, 4209.230469, 4212.820313, 4182.563965, 4189.230469, 4183.589844, 4126.153809, 4197.948730, 4187.179199, 4210.256348, 4109.743652, 4198.974121, 3509.000000, 8089.000000, 8156.000000, 0.000000, 0.000000, 0.000000, 25681.000000, 542.564087, 4.000000, 4.000000, 4.000000, 4.000000, 4.000000, 4.000000, 4.000000, 4.000000, 4.000000, 4.000000, 4.000000, 4.000000, 4.000000, 4.000000, 4.000000, 4.000000
77.000000, 0.000000, 4204.615234, 4051.281982, 4212.820313, 4209.230469, 4210.769043, 4192.820313, 4195.897461, 4188.717773, 4124.102539, 4200.512695, 4190.256348, 4218.974121, 4108.717773, 4199.487305, 3454.000000, 8085.000000, 8153.000000, 0.000000, 0.000000, 0.000000, 25681.000000, 550.769226, 4.000000, 4.000000, 4.000000, 4.000000, 4.000000, 4.000000, 4.000000, 4.000000, 4.000000, 4.000000, 4.000000, 4.000000, 4.000000, 4.000000, 4.000000, 4.000000
78.000000, 0.000000, 4205.127930, 4052.307617, 4213.333008, 4213.333008, 4197.436035, 4189.743652, 4201.025391, 4186.153809, 4124.615234, 4196.410156, 4196.410156, 4221.025391, 4110.769043, 4202.563965, 3331.000000, 8085.000000, 8153.000000, 0.000000, 0.000000, 0.000000, 25681.000000, 558.461548, 4.000000, 4.000000, 4.000000, 4.000000, 4.000000, 4.000000, 4.000000, 4.000000, 4.000000, 4.000000, 4.000000, 4.000000, 4.000000, 4.000000, 4.000000, 4.000000
79.000000, 0.000000, 4202.051270, 4047.179443, 4204.615234, 4212.820313, 4199.487305, 4187.179199, 4197.436035, 4178.461426, 4129.230469, 4194.871582, 4194.358887, 4215.897461, 4111.794922, 4202.563965, 3585.000000, 8087.000000, 8153.000000, 0.000000, 0.000000, 0.000000, 25681.000000, 566.153809, 4.000000, 4.000000, 4.000000, 4.000000, 4.000000, 4.000000, 4.000000, 4.000000, 4.000000, 4.000000, 4.000000, 4.000000, 4.000000, 4.000000, 4.000000, 4.000000
80.000000, 0.000000, 4199.487305, 4047.179443, 4196.922852, 4206.666504, 4210.256348, 4196.922852, 4189.743652, 4185.127930, 4135.897461, 4190.769043, 4184.615234, 4201.538574, 4101.025391, 4192.307617, 3509.000000, 8087.000000, 8153.000000, 0.000000, 0.000000, 0.000000, 25681.000000, 573.846130, 4.000000, 4.000000, 4.000000, 4.000000, 4.000000, 4.000000, 4.000000, 4.000000, 4.000000, 4.000000, 4.000000, 4.000000, 4.000000, 4.000000, 4.000000, 4.000000
81.000000, 0.000000, 4192.820313, 4045.640869, 4188.717773, 4203.589844, 4206.153809, 4196.922852, 4194.358887, 4193.333008, 4136.410156, 4185.127930, 4175.897461, 4188.717773, 4095.897217, 4179.487305, 3454.000000, 8094.000000, 8156.000000, 0.000000, 0.000000, 0.000000, 25681.000000, 582.051270, 4.000000, 4.000000, 4.000000, 4.000000, 4.000000, 4.000000, 4.000000, 4.000000, 4.000000, 4.000000, 4.000000, 4.000000, 4.000000, 4.000000, 4.000000, 4.000000
82.000000, 0.000000, 4186.153809, 4043.589600, 4181.538574, 4196.922852, 4202.563965, 4187.692383, 4198.461426, 4188.717773, 4139.487305, 4192.820313, 4175.897461, 4188.205078, 4104.102539, 4179.487305, 3331.000000, 8094.000000, 8156.000000, 0.000000, 0.000000, 0.000000, 25681.000000, 589.743591, 4.000000, 4.000000, 4.000000, 4.000000, 4.000000, 4.000000, 4.000000, 4.000000, 4.000000, 4.000000, 4.000000, 4.000000, 4.000000, 4.000000, 4.000000, 4.000000
83.000000, 0.000000, 4184.102539, 4045.640869, 4185.127930, 4200.000000, 4207.179199, 4189.743652, 4190.256348, 4191.794922, 4148.205078, 4205.641113, 4182.051270, 4194.871582, 4109.230469, 4183.076660, 3585.000000, 8112.000000, 8163.000000, 0.000000, 0.000000, 0.000000, 25681.000000, 597.948730, 4.000000, 4.000000, 4.000000, 4.000000, 4.000000, 4.000000, 4.000000, 4.000000, 4.000000, 4.000000, 4.000000, 4.000000, 4.000000, 4.000000, 4.000000, 4.000000
84.000000, 0.000000, 4184.615234, 4050.769043, 4193.846191, 4203.076660, 4208.205078, 4200.512695, 4189.743652, 4200.512695, 4147.692383, 4206.666504, 4189.230469, 4201.538574, 4107.692383, 4184.615234, 3509.000000, 8112.000000, 8163.000000, 0.000000, 0.000000, 0.000000, 25681.000000, 605.640991, 4.000000, 4.000000, 4.000000, 4.000000, 4.000000, 4.000000, 4.000000, 4.000000, 4.000000, 4.000000, 4.000000, 4.000000, 4.000000, 4.000000, 4.000000, 4.000000
85.000000, 0.000000, 4187.179199, 4057.948730, 4196.922852, 4202.051270, 4204.102539, 4200.000000, 4198.461426, 4203.589844, 4143.589844, 4207.179199, 4194.871582, 4209.230469, 4109.230469, 4189.230469, 3454.000000, 8123.000000, 8161.000000, 0.000000, 0.000000, 0.000000, 25681.000000, 613.846130, 4.000000, 4.000000, 4.000000, 4.000000, 4.000000, 4.000000, 4.000000, 4.000000, 4.000000, 4.000000, 4.000000, 4.000000, 4.000000, 4.000000, 4.000000, 4.000000
86.000000, 0.000000, 4188.205078, 4058.461426, 4195.897461, 4206.153809, 4201.538574, 4194.871582, 4198.974121, 4205.641113, 4146.666504, 4212.307617, 4196.922852, 4216.410156, 4113.333008, 4192.820313, 3331.000000, 8123.000000, 8161.000000, 0.000000, 0.000000, 0.000000, 25681.000000, 621.538452, 4.000000, 4.000000, 4.000000, 4.000000, 4.000000, 4.000000, 4.000000, 4.000000, 4.000000, 4.000000, 4.000000, 4.000000, 4.000000, 4.000000, 4.000000, 4.000000
87.000000, 0.000000, 4185.127930, 4058.974365, 4194.358887, 4199.487305, 4205.127930, 4200.000000, 4198.974121, 4204.615234, 4144.102539, 4213.846191, 4199.487305, 4217.948730, 4118.974121, 4193.846191, 3585.000000, 8137.000000, 8169.000000, 0.000000, 0.000000, 0.000000, 25681.000000, 629.743591, 4.000000, 4.000000, 4.000000, 4.000000, 4.000000, 4.000000, 4.000000, 4.000000, 4.000000, 4.000000, 4.000000, 4.000000, 4.000000, 4.000000, 4.000000, 4.000000
88.000000, 0.000000, 4187.692383, 4067.179443, 4193.333008, 4198.974121, 4209.230469, 4198.974121, 4200.512695, 4197.948730, 4133.333008, 4210.769043, 4200.000000, 4214.871582, 4123.076660, 4193.846191, 3509.000000, 8137.000000, 8169.000000, 0.000000, 0.000000, 0.000000, 25681.000000, 637.948730, 4.000000, 4.000000, 4.000000, 4.000000, 4.000000, 4.000000, 4.000000, 4.000000, 4.000000, 4.000000, 4.000000, 4.000000, 4.000000, 4.000000, 4.000000, 4.000000
89.000000, 0.000000, 4193.333008, 4070.256348, 4190.256348, 4202.563965, 4207.179199, 4190.769043, 4197.948730, 4195.897461, 4131.281738, 4210.769043, 4197.948730, 4210.769043, 4120.000000, 4191.281738, 3454.000000, 8154.000000, 8171.000000, 0.000000, 0.000000, 0.000000, 25681.000000, 645.640991, 4.000000, 4.000000, 4.000000, 4.000000, 4.000000, 4.000000, 4.000000, 4.000000, 4.000000, 4.000000, 4.000000, 4.000000, 4.000000, 4.000000, 4.000000, 4.000000
90.000000, 0.000000, 4190.769043, 4067.692139, 4188.717773, 4200.512695, 4206.666504, 4193.846191, 4197.436035, 4206.153809, 4134.358887, 4207.692383, 4191.794922, 4203.076660, 4113.846191, 4187.179199, 3331.000000, 8154.000000, 8171.000000, 0.000000, 0.000000, 0.000000, 25681.000000, 653.333313, 4.000000, 4.000000, 4.000000, 4.000000, 4.000000, 4.000000, 4.000000, 4.000000, 4.000000, 4.000000, 4.000000, 4.000000, 4.000000, 4.000000, 4.000000, 4.000000
91.000000, 0.000000, 4182.563965, 4062.563965, 4186.153809, 4202.051270, 4208.205078, 4201.538574, 4201.538574, 4209.230469, 4130.256348, 4201.025391, 4186.666504, 4197.948730, 4106.153809, 4180.000000, 3585.000000, 8164.000000, 8168.000000, 0.000000, 0.000000, 0.000000, 25681.000000, 661.538452, 4.000000, 4.000000, 4.000000, 4.000000, 4.000000, 4.000000, 4.000000, 4.000000, 4.000000, 4.000000, 4.000000, 4.000000, 4.000000, 4.000000, 4.000000, 4.000000
92.000000, 0.000000, 4181.025391, 4062.563965, 4181.025391, 4197.948730, 4210.256348, 4202.051270, 4209.743652, 4205.127930, 4126.153809, 4201.538574, 4184.615234, 4192.820313, 4105.127930, 4173.846191, 3509.000000, 8164.000000, 8168.000000, 0.000000, 0.000000, 0.000000, 25681.000000, 669.743591, 4.000000, 4.000000, 4.000000, 4.000000, 4.000000, 4.000000, 4.000000, 4.000000, 4.000000, 4.000000, 4.000000, 4.000000, 4.000000, 4.000000, 4.000000, 4.000000
93.000000, 0.000000, 4186.153809, 4071.281982, 4182.563965, 4201.025391, 4214.358887, 4201.538574, 4213.333008, 4203.589844, 4123.589844, 4203.589844, 4186.153809, 4190.256348, 4112.307617, 4174.871582, 3454.000000, 8178.000000, 8160.000000, 0.000000, 0.000000, 0.000000, 25681.000000, 677.435852, 4.000000, 4.000000, 4.000000, 4.000000, 4.000000, 4.000000, 4.000000, 4.000000, 4.000000, 4.000000, 4.000000, 4.000000, 4.000000, 4.000000, 4.000000, 4.000000
94.000000, 0.000000, 4186.153809, 4073.333252, 4185.641113, 4202.051270, 4214.871582, 4196.410156, 4204.102539, 4200.512695, 4119.487305, 4201.538574, 4186.153809, 4195.384277, 4113.333008, 4178.461426, 3331.000000, 8178.000000, 8160.000000, 0.000000, 0.000000, 0.000000, 25681.000000, 685.640991, 4.000000, 4.000000, 4.000000, 4.000000, 4.000000, 4.000000, 4.000000, 4.000000, 4.000000, 4.000000, 4.000000, 4.000000, 4.000000, 4.000000, 4.000000, 4.000000
95.000000, 0.000000, 4178.461426, 4062.563965, 4183.076660, 4190.256348, 4204.615234, 4190.256348, 4197.436035, 4188.717773, 4108.717773, 4189.230469, 4175.897461, 4194.871582, 4103.076660, 4171.281738, 3585.000000, 8179.000000, 8159.000000, 0.000000, 0.000000, 0.000000, 25681.000000, 693.333313, 4.000000, 4.000000, 4.000000, 4.000000, 4.000000, 4.000000, 4.000000, 4.000000, 4.000000, 4.000000, 4.000000, 4.000000, 4.000000, 4.000000, 4.000000, 4.000000
96.000000, 0.000000, 4178.461426, 4059.487061, 4183.589844, 4194.871582, 4198.461426, 4197.436035, 4197.948730, 4181.025391, 4101.538574, 4181.538574, 4170.769043, 4192.820313, 4103.076660, 4164.102539, 3509.000000, 8179.000000, 8159.000000, 0.000000, 0.000000, 0.000000, 25681.000000, 701.538452, 4.000000, 4.000000, 4.000000, 4.000000, 4.000000, 4.000000, 4.000000, 4.000000, 4.000000, 4.000000, 4.000000, 4.000000, 4.000000, 4.000000, 4.000000, 4.000000
97.000000, 0.000000, 4183.076660, 4067.692139, 4187.179199, 4201.538574, 4204.615234, 4202.051270, 4191.281738, 4190.769043, 4108.717773, 4193.846191, 4185.127930, 4200.512695, 4115.384277, 4171.794922, 3454.000000, 8184.000000, 8162.000000, 0.000000, 0.000000, 0.000000, 25681.000000, 709.230774, 4.000000, 4.000000, 4.000000, 4.000000, 4.000000, 4.000000, 4.000000, 4.000000, 4.000000, 4.000000, 4.000000, 4.000000, 4.000000, 4.000000, 4.000000, 4.000000
98.000000, 0.000000, 4177.948730, 4061.025635, 4184.615234, 4195.897461, 4203.076660, 4196.922852, 4187.179199, 4192.307617, 4107.179199, 4195.897461, 4186.153809, 4202.563965, 4111.794922, 4173.333008, 3331.000000, 8184.000000, 8162.000000, 0.000000, 0.000000, 0.000000, 25681.000000, 717.435852, 4.000000, 4.000000, 4.000000, 4.000000, 4.000000, 4.000000, 4.000000, 4.000000, 4.000000, 4.000000, 4.000000, 4.000000, 4.000000, 4.000000, 4.000000, 4.000000
99.000000, 0.000000, 4171.281738, 4054.358887, 4180.512695, 4190.769043, 4199.487305, 4196.922852, 4193.333008, 4181.538574, 4092.820313, 4184.102539, 4171.281738, 4192.307617, 4105.641113, 4165.127930, 3585.000000, 8188.000000, 8159.000000, 0.000000, 0.000000, 0.000000, 25681.000000, 725.128174, 4.000000, 4.000000, 4.000000, 4.000000, 4.000000, 4.000000, 4.000000, 4.000000, 4.000000, 4.000000, 4.000000, 4.000000, 4.000000, 4.000000, 4.000000, 4.000000
100.000000, 0.000000, 4175.384277, 4066.153809, 4183.076660, 4190.256348, 4199.487305, 4192.820313, 4190.769043, 4184.102539, 4089.230713, 4187.179199, 4174.358887, 4191.794922, 4118.461426, 4168.717773, 3509.000000, 8188.000000, 8159.000000, 0.000000, 0.000000, 0.000000, 25681.000000, 733.333313, 4.000000, 4.000000, 4.000000, 4.000000, 4.000000, 4.000000, 4.000000, 4.000000, 4.000000, 4.000000, 4.000000, 4.000000, 4.000000, 4.000000, 4.000000, 4.000000
101.000000, 0.000000, 4182.563965, 4076.923096, 4187.692383, 4196.922852, 4200.000000, 4187.179199, 4188.717773, 4188.717773, 4094.871582, 4201.025391, 4186.666504, 4203.589844, 4130.769043, 4182.563965, 3454.000000, 8192.000000, 8155.000000, 0.000000, 0.000000, 0.000000, 25681.000000, 741.025635, 4.000000, 4.000000, 4.000000, 4.000000, 4.000000, 4.000000, 4.000000, 4.000000, 4.000000, 4.000000, 4.000000, 4.000000, 4.000000, 4.000000, 4.000000, 4.000000
102.000000, 0.000000, 4184.615234, 4077.435791, 4188.717773, 4195.897461, 4200.000000, 4192.820313, 4201.025391, 4187.692383, 4094.871582, 4204.102539, 4188.205078, 4203.589844, 4127.179199, 4182.563965, 3331.000000, 8192.000000, 8155.000000, 0.000000, 0.000000, 0.000000, 25681.000000, 749.230774, 4.000000, 4.000000, 4.000000, 4.000000, 4.000000, 4.000000, 4.000000, 4.000000, 4.000000, 4.000000, 4.000000, 4.000000, 4.000000, 4.000000, 4.000000, 4.000000
103.000000, 0.000000, 4185.641113, 4074.358887, 4188.205078, 4192.307617, 4200.512695, 4190.769043, 4200.000000, 4191.281738, 4093.845947, 4200.000000, 4183.076660, 4193.846191, 4122.563965, 4170.769043, 3585.000000, 8190.000000, 8146.000000, 0.000000, 0.000000, 0.000000, 25681.000000, 756.923035, 4.000000, 4.000000, 4.000000, 4.000000, 4.000000, 4.000000, 4.000000, 4.000000, 4.000000, 4.000000, 4.000000, 4.000000, 4.000000, 4.000000, 4.000000, 4.000000
104.000000, 0.000000, 4182.563965, 4073.845947, 4185.127930, 4193.333008, 4200.512695, 4182.051270, 4184.615234, 4198.461426, 4098.974121, 4201.025391, 4175.897461, 4189.743652, 4121.025391, 4166.153809, 3509.000000, 8190.000000, 8146.000000, 0.000000, 0.000000, 0.000000, 25681.000000, 765.128174, 4.000000, 4.000000, 4.000000, 4.000000, 4.000000, 4.000000, 4.000000, 4.000000, 4.000000, 4.000000, 4.000000, 4.000000, 4.000000, 4.000000, 4.000000, 4.000000
105.000000, 0.000000, 4181.025391, 4079.487061, 4184.102539, 4191.281738, 4201.025391, 4188.205078, 4192.820313, 4194.871582, 4098.461426, 4202.563965, 4172.307617, 4189.743652, 4118.974121, 4168.205078, 3454.000000, 8192.000000, 8149.000000, 0.000000, 0.000000, 0.000000, 25681.000000, 772.820496, 4.000000, 4.000000, 4.000000, 4.000000, 4.000000, 4.000000, 4.000000, 4.000000, 4.000000, 4.000000, 4.000000, 4.000000, 4.000000, 4.000000, 4.000000, 4.000000
106.000000, 0.000000, 4191.281738, 4089.230713, 4190.769043, 4198.461426, 4203.589844, 4194.358887, 4203.589844, 4184.615234, 4091.281982, 4204.102539, 4179.487305, 4192.820313, 4123.076660, 4176.410156, 3331.000000, 8192.000000, 8149.000000, 0.000000, 0.000000, 0.000000, 25681.000000, 781.025635, 4.000000, 4.000000, 4.000000, 4.000000, 4.000000, 4.000000, 4.000000, 4.000000, 4.000000, 4.000000, 4.000000, 4.000000, 4.000000, 4.000000, 4.000000, 4.000000
107.000000, 0.000000, 4196.410156, 4092.820313, 4194.358887, 4198.974121, 4209.230469, 4192.820313, 4189.743652, 4182.051270, 4089.743408, 4205.641113, 4185.127930, 4196.410156, 4127.179199, 4181.025391, 3585.000000, 8196.000000, 8130.000000, 0.000000, 0.000000, 0.000000, 25681.000000, 788.717957, 4.000000, 4.000000, 4.000000, 4.000000, 4.000000, 4.000000, 4.000000, 4.000000, 4.000000, 4.000000, 4.000000, 4.000000, 4.000000, 4.000000, 4.000000, 4.000000
108.000000, 0.000000, 4194.358887, 4096.410156, 4194.871582, 4196.922852, 4214.871582, 4197.948730, 4180.512695, 4181.538574, 4092.307617, 4212.820313, 4183.589844, 4200.512695, 4132.307617, 4179.487305, 3509.000000, 8196.000000, 8130.000000, 0.000000, 0.000000, 0.000000, 25681.000000, 796.923035, 4.000000, 4.000000, 4.000000, 4.000000, 4.000000, 4.000000, 4.000000, 4.000000, 4.000000, 4.000000, 4.000000, 4.000000, 4.000000, 4.000000, 4.000000, 4.000000
109.000000, 0.000000, 4196.410156, 4105.127930, 4198.974121, 4206.153809, 4210.256348, 4197.436035, 4187.692383, 4186.666504, 4091.794678, 4215.384277, 4185.641113, 4203.589844, 4136.922852, 4181.538574, 3454.000000, 8190.000000, 8135.000000, 0.000000, 0.000000, 0.000000, 25681.000000, 804.615356, 4.000000, 4.000000, 4.000000, 4.000000, 4.000000, 4.000000, 4.000000, 4.000000, 4.000000, 4.000000, 4.000000, 4.000000, 4.000000, 4.000000, 4.000000, 4.000000
110.000000, 0.000000, 4201.025391, 4109.230469, 4201.025391, 4207.179199, 4206.666504, 4190.769043, 4190.769043, 4190.256348, 4082.051270, 4206.153809, 4184.102539, 4200.000000, 4131.794922, 4182.563965, 3331.000000, 8190.000000, 8135.000000, 0.000000, 0.000000, 0.000000, 25681.000000, 812.820496, 4.000000, 4.000000, 4.000000, 4.000000, 4.000000, 4.000000, 4.000000, 4.000000, 4.000000, 4.000000, 4.000000, 4.000000, 4.000000, 4.000000, 4.000000, 4.000000
111.000000, 0.000000, 4202.563965, 4108.717773, 4200.512695, 4207.179199, 4213.333008, 4190.769043, 4184.102539, 4174.358887, 4066.153809, 4195.384277, 4176.410156, 4192.307617, 4124.615234, 4174.871582, 3585.000000, 8205.000000, 8138.000000, 0.000000, 0.000000, 0.000000, 25681.000000, 821.025635, 4.000000, 4.000000, 4.000000, 4.000000, 4.000000, 4.000000, 4.000000, 4.000000, 4.000000, 4.000000, 4.000000, 4.000000, 4.000000, 4.000000, 4.000000, 4.000000
112.000000, 0.000000, 4195.897461, 4107.692383, 4195.384277, 4202.051270, 4219.487305, 4200.000000, 4184.102539, 4162.051270, 4057.435791, 4186.153809, 4166.153809, 4185.127930, 4116.410156, 4165.641113, 3509.000000, 8205.000000, 8138.000000, 0.000000, 0.000000, 0.000000, 25681.000000, 828.717957, 4.000000, 4.000000, 4.000000, 4.000000, 4.000000, 4.000000, 4.000000, 4.000000, 4.000000, 4.000000, 4.000000, 4.000000, 4.000000, 4.000000, 4.000000, 4.000000
113.000000, 0.000000, 4190.256348, 4102.563965, 4189.230469, 4198.974121, 4221.538574, 4213.333008, 4200.512695, 4181.538574, 4065.128174, 4181.025391, 4162.051270, 4180.512695, 4106.666504, 4160.512695, 3454.000000, 8202.000000, 8139.000000, 0.000000, 0.000000, 0.000000, 25681.000000, 836.923035, 4.000000, 4.000000, 4.000000, 4.000000, 4.000000, 4.000000, 4.000000, 4.000000, 4.000000, 4.000000, 4.000000, 4.000000, 4.000000, 4.000000, 4.000000, 4.000000
114.000000, 0.000000, 4188.717773, 4094.871582, 4186.666504, 4203.589844, 4218.974121, 4214.871582, 4212.820313, 4203.589844, 4079.487061, 4189.743652, 4163.076660, 4180.000000, 4108.717773, 4156.410156, 3331.000000, 8202.000000, 8139.000000, 0.000000, 0.000000, 0.000000, 25681.000000, 844.615356, 4.000000, 4.000000, 4.000000, 4.000000, 4.000000, 4.000000, 4.000000, 4.000000, 4.000000, 4.000000, 4.000000, 4.000000, 4.000000, 4.000000, 4.000000, 4.000000
115.000000, 0.000000, 4187.179199, 4094.871582, 4186.666504, 4196.922852, 4210.769043, 4203.589844, 4203.076660, 4203.076660, 4087.179443, 4206.153809, 4169.230469, 4184.615234, 4120.000000, 4161.025391, 3585.000000, 8211.000000, 8138.000000, 0.000000, 0.000000, 0.000000, 25681.000000, 852.820496, 4.000000, 4.000000, 4.000000, 4.000000, 4.000000, 4.000000, 4.000000, 4.000000, 4.000000, 4.000000, 4.000000, 4.000000, 4.000000, 4.000000, 4.000000, 4.000000
116.000000, 0.000000, 4196.410156, 4109.743652, 4194.871582, 4202.563965, 4209.230469, 4198.974121, 4197.948730, 4201.538574, 4084.615234, 4213.846191, 4182.563965, 4198.974121, 4131.281738, 4179.487305, 3509.000000, 8211.000000, 8138.000000, 0.000000, 0.000000, 0.000000, 25681.000000, 860.512817, 4.000000, 4.000000, 4.000000, 4.000000, 4.000000, 4.000000, 4.000000, 4.000000, 4.000000, 4.000000, 4.000000, 4.000000, 4.000000, 4.000000, 4.000000, 4.000000
117.000000, 0.000000, 4211.281738, 4127.692383, 4210.256348, 4213.846191, 4213.846191, 4197.948730, 4199.487305, 4203.076660, 4076.923096, 4214.871582, 4193.846191, 4209.230469, 4146.153809, 4197.948730, 3454.000000, 8211.000000, 8144.000000, 0.000000, 0.000000, 0.000000, 25681.000000, 868.717957, 4.000000, 4.000000, 4.000000, 4.000000, 4.000000, 4.000000, 4.000000, 4.000000, 4.000000, 4.000000, 4.000000, 4.000000, 4.000000, 4.000000, 4.000000, 4.000000
118.000000, 0.000000, 4213.846191, 4130.256348, 4213.333008, 4210.769043, 4213.846191, 4187.179199, 4187.692383, 4191.794922, 4069.230713, 4215.897461, 4197.436035, 4206.153809, 4155.384277, 4202.563965, 3331.000000, 8211.000000, 8144.000000, 0.000000, 0.000000, 0.000000, 25681.000000, 876.410217, 4.000000, 4.000000, 4.000000, 4.000000, 4.000000, 4.000000, 4.000000, 4.000000, 4.000000, 4.000000, 4.000000, 4.000000, 4.000000, 4.000000, 4.000000, 4.000000
119.000000, 0.000000, 4208.717773, 4123.076660, 4207.692383, 4210.256348, 4211.794922, 4184.102539, 4178.974121, 4181.538574, 4064.102539, 4213.333008, 4196.922852, 4209.230469, 4153.846191, 4200.512695, 3585.000000, 8216.000000, 8149.000000, 0.000000, 0.000000, 0.000000, 25681.000000, 884.615356, 4.000000, 4.000000, 4.000000, 4.000000, 4.000000, 4.000000, 4.000000, 4.000000, 4.000000, 4.000000, 4.000000, 4.000000, 4.000000, 4.000000, 4.000000, 4.000000
120.000000, 0.000000, 4208.717773, 4122.563965, 4204.615234, 4211.794922, 4209.743652, 4191.794922, 4185.641113, 4191.794922, 4066.153809, 4211.281738, 4197.948730, 4217.948730, 4151.281738, 4201.538574, 3509.000000, 8216.000000, 8149.000000, 0.000000, 0.000000, 0.000000, 25681.000000, 892.307678, 4.000000, 4.000000, 4.000000, 4.000000, 4.000000, 4.000000, 4.000000, 4.000000, 4.000000, 4.000000, 4.000000, 4.000000, 4.000000, 4.000000, 4.000000, 4.000000
121.000000, 0.000000, 4203.589844, 4124.615234, 4197.948730, 4209.230469, 4202.563965, 4189.743652, 4188.717773, 4192.820313, 4063.589600, 4208.205078, 4189.743652, 4207.692383, 4144.615234, 4194.358887, 3454.000000, 8215.000000, 8149.000000, 0.000000, 0.000000, 0.000000, 25681.000000, 900.512817, 4.000000, 4.000000, 4.000000, 4.000000, 4.000000, 4.000000, 4.000000, 4.000000, 4.000000, 4.000000, 4.000000, 4.000000, 4.000000, 4.000000, 4.000000, 4.000000
122.000000, 0.000000, 4195.384277, 4119.487305, 4188.717773, 4202.051270, 4198.461426, 4183.589844, 4184.615234, 4171.281738, 4049.230713, 4198.974121, 4175.897461, 4189.743652, 4133.846191, 4181.538574, 3331.000000, 8215.000000, 8149.000000, 0.000000, 0.000000, 0.000000, 25681.000000, 908.205078, 4.000000, 4.000000, 4.000000, 4.000000, 4.000000, 4.000000, 4.000000, 4.000000, 4.000000, 4.000000, 4.000000, 4.000000, 4.000000, 4.000000, 4.000000, 4.000000
123.000000, 0.000000, 4198.974121, 4120.512695, 4187.692383, 4198.974121, 4200.512695, 4186.666504, 4182.563965, 4169.743652, 4048.717773, 4198.974121, 4178.461426, 4190.769043, 4137.948730, 4183.589844, 3585.000000, 8214.000000, 8148.000000, 0.000000, 0.000000, 0.000000, 25681.000000, 916.410217, 4.000000, 4.000000, 4.000000, 4.000000, 4.000000, 4.000000, 4.000000, 4.000000, 4.000000, 4.000000, 4.000000, 4.000000, 4.000000, 4.000000, 4.000000, 4.000000
124.000000, 0.000000, 4203.076660, 4132.820313, 4193.846191, 4206.666504, 4201.538574, 4190.769043, 4186.666504, 4190.769043, 4060.512695, 4209.230469, 4188.717773, 4195.897461, 4148.717773, 4190.256348, 3509.000000, 8214.000000, 8148.000000, 0.000000, 0.000000, 0.000000, 25681.000000, 924.615356, 4.000000, 4.000000, 4.000000, 4.000000, 4.000000, 4.000000, 4.000000, 4.000000, 4.000000, 4.000000, 4.000000, 4.000000, 4.000000, 4.000000, 4.000000, 4.000000
125.000000, 0.000000, 4200.512695, 4135.384277, 4193.846191, 4204.615234, 4204.102539, 4193.846191, 4190.769043, 4188.205078, 4051.281982, 4208.717773, 4183.076660, 4185.127930, 4146.153809, 4186.666504, 3454.000000, 8215.000000, 8148.000000, 0.000000, 0.000000, 0.000000, 25681.000000, 932.307678, 4.000000, 4.000000, 4.000000, 4.000000, 4.000000, 4.000000, 4.000000, 4.000000, 4.000000, 4.000000, 4.000000, 4.000000, 4.000000, 4.000000, 4.000000, 4.000000
126.000000, 0.000000, 4201.538574, 4129.743652, 4191.281738, 4204.615234, 4209.743652, 4197.436035, 4187.692383, 4171.794922, 4032.307617, 4197.948730, 4171.794922, 4178.974121, 4135.897461, 4181.538574, 3331.000000, 8215.000000, 8148.000000, 0.000000, 0.000000, 0.000000, 25681.000000, 940.512817, 4.000000, 4.000000, 4.000000, 4.000000, 4.000000, 4.000000, 4.000000, 4.000000, 4.000000, 4.000000, 4.000000, 4.000000, 4.000000, 4.000000, 4.000000, 4.000000
127.000000, 0.000000, 4207.179199, 4135.384277, 4196.410156, 4210.256348, 4215.384277, 4203.076660, 4187.179199, 4176.410156, 4036.410156, 4200.512695, 4178.974121, 4187.692383, 4141.025391, 4183.589844, 53.000000, 8207.000000, 8162.000000, 0.000000, 0.000000, 0.000000, 25681.000000, 948.205078, 4.000000, 4.000000, 4.000000, 4.000000, 4.000000, 4.000000, 4.000000, 4.000000, 4.000000, 4.000000, 4.000000, 4.000000, 4.000000, 4.000000, 4.000000, 4.000000
0.000000, 0.000000, 4212.820313, 4146.153809, 4202.051270, 4208.205078, 4220.512695, 4206.666504, 4189.743652, 4191.281738, 4049.743408, 4210.769043, 4190.256348, 4195.384277, 4157.948730, 4189.230469, 3484.000000, 8207.000000, 8162.000000, 0.000000, 0.000000, 0.000000, 25681.000000, 956.410217, 4.000000, 4.000000, 4.000000, 4.000000, 4.000000, 4.000000, 4.000000, 4.000000, 4.000000, 4.000000, 4.000000, 4.000000, 4.000000, 4.000000, 4.000000, 4.000000
1.000000, 0.000000, 4207.179199, 4142.563965, 4193.333008, 4208.205078, 4218.461426, 4204.102539, 4188.205078, 4188.717773, 4045.640869, 4207.179199, 4187.692383, 4195.897461, 4156.410156, 4188.205078, 2207.000000, 8202.000000, 8173.000000, 0.000000, 0.000000, 0.000000, 25681.000000, 964.102539, 4.000000, 4.000000, 4.000000, 4.000000, 4.000000, 4.000000, 4.000000, 4.000000, 4.000000, 4.000000, 4.000000, 4.000000, 4.000000, 4.000000, 4.000000, 4.000000
2.000000, 0.000000, 4194.871582, 4129.743652, 4182.563965, 4200.512695, 4210.769043, 4201.025391, 4192.307617, 4173.846191, 4033.845947, 4198.461426, 4181.538574, 4191.281738, 4138.461426, 4181.538574, 3142.000000, 8202.000000, 8173.000000, 0.000000, 0.000000, 0.000000, 25681.000000, 972.307678, 4.000000, 4.000000, 4.000000, 4.000000, 4.000000, 4.000000, 4.000000, 4.000000, 4.000000, 4.000000, 4.000000, 4.000000, 4.000000, 4.000000, 4.000000, 4.000000
3.000000, 0.000000, 4194.871582, 4128.717773, 4189.230469, 4200.000000, 4210.769043, 4202.051270, 4199.487305, 4174.871582, 4036.923096, 4200.000000, 4184.102539, 4195.897461, 4135.384277, 4183.076660, 3560.000000, 8193.000000, 8192.000000, 0.000000, 0.000000, 0.000000, 25681.000000, 980.000000, 4.000000, 4.000000, 4.000000, 4.000000, 4.000000, 4.000000, 4.000000, 4.000000, 4.000000, 4.000000, 4.000000, 4.000000, 4.000000, 4.000000, 4.000000, 4.000000
4.000000, 0.000000, 4202.051270, 4130.769043, 4194.871582, 4209.230469, 4218.461426, 4204.102539, 4194.871582, 4188.717773, 4045.128174, 4201.538574, 4187.179199, 4203.076660, 4138.974121, 4187.692383, 3523.000000, 8193.000000, 8192.000000, 0.000000, 0.000000, 0.000000, 25681.000000, 988.205078, 4.000000, 4.000000, 4.000000, 4.000000, 4.000000, 4.000000, 4.000000, 4.000000, 4.000000, 4.000000, 4.000000, 4.000000, 4.000000, 4.000000, 4.000000, 4.000000
5.000000, 0.000000, 4199.487305, 4124.615234, 4190.256348, 4205.641113, 4217.436035, 4202.563965, 4188.717773, 4190.256348, 4034.871582, 4190.769043, 4180.512695, 4197.948730, 4131.281738, 4182.051270, 3561.000000, 8187.000000, 8201.000000, 0.000000, 0.000000, 0.000000, 25681.000000, 995.897400, 4.000000, 4.000000, 4.000000, 4.000000, 4.000000, 4.000000, 4.000000, 4.000000, 4.000000, 4.000000, 4.000000, 4.000000, 4.000000, 4.000000, 4.000000, 4.000000
6.000000, 0.000000, 4187.692383, 4115.897461, 4188.205078, 4203.076660, 4211.794922, 4200.512695, 4194.871582, 4178.974121, 4017.948730, 4180.512695, 4168.717773, 4188.205078, 4113.333008, 4170.256348, 3493.000000, 8187.000000, 8201.000000, 0.000000, 0.000000, 0.000000, 25682.000000, 4.102564, 4.000000, 4.000000, 4.000000, 4.000000, 4.000000, 4.000000, 4.000000, 4.000000, 4.000000, 4.000000, 4.000000, 4.000000, 4.000000, 4.000000, 4.000000, 4.000000
7.000000, 0.000000, 4182.563965, 4119.487305, 4186.153809, 4202.051270, 4212.307617, 4201.025391, 4190.769043, 4171.794922, 4016.410156, 4183.076660, 4169.230469, 4184.615234, 4109.743652, 4168.717773, 3498.000000, 8187.000000, 8218.000000, 0.000000, 0.000000, 0.000000, 25682.000000, 11.794871, 4.000000, 4.000000, 4.000000, 4.000000, 4.000000, 4.000000, 4.000000, 4.000000, 4.000000, 4.000000, 4.000000, 4.000000, 4.000000, 4.000000, 4.000000, 4.000000
8.000000, 0.000000, 4193.846191, 4126.153809, 4184.102539, 4202.051270, 4214.358887, 4200.000000, 4181.025391, 4172.307617, 4024.615234, 4188.205078, 4180.512695, 4185.127930, 4130.256348, 4179.487305, 3372.000000, 8187.000000, 8218.000000, 0.000000, 0.000000, 0.000000, 25682.000000, 20.000000, 4.000000, 4.000000, 4.000000, 4.000000, 4.000000, 4.000000, 4.000000, 4.000000, 4.000000, 4.000000, 4.000000, 4.000000, 4.000000, 4.000000, 4.000000, 4.000000
9.000000, 0.000000, 4200.512695, 4122.051270, 4189.743652, 4205.127930, 4213.846191, 4200.512695, 4188.717773, 4176.922852, 4026.666504, 4187.692383, 4182.051270, 4184.615234, 4136.410156, 4186.153809, 3527.000000, 8182.000000, 8229.000000, 0.000000, 0.000000, 0.000000, 25682.000000, 28.205128, 4.000000, 4.000000, 4.000000, 4.000000, 4.000000, 4.000000, 4.000000, 4.000000, 4.000000, 4.000000, 4.000000, 4.000000, 4.000000, 4.000000, 4.000000, 4.000000
10.000000, 0.000000, 4196.410156, 4121.538574, 4201.538574, 4204.615234, 4214.871582, 4201.025391, 4195.897461, 4178.974121, 4023.589600, 4187.179199, 4176.410156, 4185.641113, 4125.641113, 4186.153809, 3331.000000, 8182.000000, 8229.000000, 0.000000, 0.000000, 0.000000, 25682.000000, 35.897434, 4.000000, 4.000000, 4.000000, 4.000000, 4.000000, 4.000000, 4.000000, 4.000000, 4.000000, 4.000000, 4.000000, 4.000000, 4.000000, 4.000000, 4.000000, 4.000000
11.000000, 0.000000, 4196.922852, 4127.179199, 4206.153809, 4210.256348, 4215.897461, 4198.974121, 4184.615234, 4171.794922, 4020.000000, 4189.743652, 4180.000000, 4195.384277, 4129.230469, 4185.641113, 3585.000000, 8185.000000, 8243.000000, 0.000000, 0.000000, 0.000000, 25682.000000, 44.102562, 4.000000, 4.000000, 4.000000, 4.000000, 4.000000, 4.000000, 4.000000, 4.000000, 4.000000, 4.000000, 4.000000, 4.000000, 4.000000, 4.000000, 4.000000, 4.000000
12.000000, 0.000000, 4198.461426, 4129.230469, 4202.051270, 4209.230469, 4218.461426, 4199.487305, 4178.974121, 4174.358887, 4021.025635, 4190.256348, 4188.717773, 4202.563965, 4140.000000, 4187.179199, 3511.000000, 8185.000000, 8243.000000, 0.000000, 0.000000, 0.000000, 25682.000000, 51.794872, 4.000000, 4.000000, 4.000000, 4.000000, 4.000000, 4.000000, 4.000000, 4.000000, 4.000000, 4.000000, 4.000000, 4.000000, 4.000000, 4.000000, 4.000000, 4.000000
13.000000, 0.000000, 4195.384277, 4124.615234, 4198.461426, 4204.102539, 4218.974121, 4202.051270, 4191.794922, 4183.076660, 4020.512695, 4186.153809, 4188.717773, 4201.538574, 4136.410156, 4188.717773, 3453.000000, 8177.000000, 8256.000000, 0.000000, 0.000000, 0.000000, 25682.000000, 60.000000, 4.000000, 4.000000, 4.000000, 4.000000, 4.000000, 4.000000, 4.000000, 4.000000, 4.000000, 4.000000, 4.000000, 4.000000, 4.000000, 4.000000, 4.000000, 4.000000
14.000000, 0.000000, 4191.794922, 4122.563965, 4198.974121, 4204.102539, 4216.410156, 4203.076660, 4203.589844, 4184.102539, 4012.820313, 4179.487305, 4182.051270, 4198.461426, 4128.717773, 4183.589844, 3331.000000, 8177.000000, 8256.000000, 0.000000, 0.000000, 0.000000, 25682.000000, 67.692307, 4.000000, 4.000000, 4.000000, 4.000000, 4.000000, 4.000000, 4.000000, 4.000000, 4.000000, 4.000000, 4.000000, 4.000000, 4.000000, 4.000000, 4.000000, 4.000000
15.000000, 0.000000, 4187.692383, 4123.076660, 4196.922852, 4198.461426, 4215.897461, 4204.615234, 4198.974121, 4186.153809, 4007.692139, 4175.384277, 4176.922852, 4194.871582, 4125.641113, 4175.897461, 3585.000000, 8168.000000, 8254.000000, 0.000000, 0.000000, 0.000000, 25682.000000, 75.897430, 4.000000, 4.000000, 4.000000, 4.000000, 4.000000, 4.000000, 4.000000, 4.000000, 4.000000, 4.000000, 4.000000, 4.000000, 4.000000, 4.000000, 4.000000, 4.000000
16.000000, 0.000000, 4180.000000, 4116.922852, 4187.692383, 4198.461426, 4213.846191, 4204.102539, 4190.769043, 4181.025391, 4002.563965, 4168.205078, 4168.717773, 4185.641113, 4119.487305, 4167.692383, 0.000000, 8168.000000, 8254.000000, 0.000000, 0.000000, 0.000000, 25682.000000, 83.589745, 4.000000, 4.000000, 4.000000, 4.000000, 4.000000, 4.000000, 4.000000, 4.000000, 4.000000, 4.000000, 4.000000, 4.000000, 4.000000, 4.000000, 4.000000, 4.000000
17.000000, 0.000000, 4177.948730, 4117.436035, 4181.025391, 4200.000000, 4213.846191, 4205.127930, 4196.410156, 4169.743652, 4000.512695, 4164.615234, 4164.615234, 4181.025391, 4118.461426, 4166.153809, 0.000000, 8170.000000, 8230.000000, 0.000000, 0.000000, 0.000000, 25682.000000, 91.794868, 4.000000, 4.000000, 4.000000, 4.000000, 4.000000, 4.000000, 4.000000, 4.000000, 4.000000, 4.000000, 4.000000, 4.000000, 4.000000, 4.000000, 4.000000, 4.000000
18.000000, 0.000000, 4186.666504, 4132.820313, 4186.666504, 4203.076660, 4219.487305, 4212.307617, 4197.948730, 4172.820313, 4007.179443, 4174.871582, 4175.384277, 4186.666504, 4129.230469, 4175.897461, 0.000000, 8170.000000, 8230.000000, 0.000000, 0.000000, 0.000000, 25682.000000, 99.487175, 4.000000, 4.000000, 4.000000, 4.000000, 4.000000, 4.000000, 4.000000, 4.000000, 4.000000, 4.000000, 4.000000, 4.000000, 4.000000, 4.000000, 4.000000, 4.000000
19.000000, 0.000000, 4194.871582, 4142.051270, 4194.358887, 4211.281738, 4221.025391, 4213.846191, 4191.281738, 4181.025391, 4011.794678, 4181.538574, 4182.051270, 4189.743652, 4137.948730, 4181.538574, 0.000000, 8177.000000, 8216.000000, 0.000000, 0.000000, 0.000000, 25682.000000, 107.692307, 4.000000, 4.000000, 4.000000, 4.000000, 4.000000, 4.000000, 4.000000, 4.000000, 4.000000, 4.000000, 4.000000, 4.000000, 4.000000, 4.000000, 4.000000, 4.000000
20.000000, 0.000000, 4195.897461, 4138.461426, 4197.436035, 4206.666504, 4217.948730, 4205.641113, 4198.461426, 4178.974121, 4009.230713, 4174.358887, 4174.871582, 4186.153809, 4134.871582, 4179.487305, 0.000000, 8177.000000, 8216.000000, 0.000000, 0.000000, 0.000000, 25682.000000, 115.384613, 4.000000, 4.000000, 4.000000, 4.000000, 4.000000, 4.000000, 4.000000, 4.000000, 4.000000, 4.000000, 4.000000, 4.000000, 4.000000, 4.000000, 4.000000, 4.000000
21.000000, 0.000000, 4197.948730, 4136.922852, 4201.538574, 4204.102539, 4215.897461, 4203.589844, 4202.051270, 4174.871582, 4004.615234, 4169.230469, 4170.256348, 4185.641113, 4133.846191, 4181.538574, 0.000000, 8187.000000, 8208.000000, 0.000000, 0.000000, 0.000000, 25682.000000, 123.589737, 4.000000, 4.000000, 4.000000, 4.000000, 4.000000, 4.000000, 4.000000, 4.000000, 4.000000, 4.000000, 4.000000, 4.000000, 4.000000, 4.000000, 4.000000, 4.000000
22.000000, 0.000000, 4196.922852, 4138.461426, 4200.512695, 4204.615234, 4208.205078, 4201.025391, 4185.127930, 4174.871582, 3998.461426, 4170.256348, 4172.820313, 4186.153809, 4137.948730, 4182.563965, 0.000000, 8187.000000, 8208.000000, 0.000000, 0.000000, 0.000000, 25682.000000, 131.282043, 4.000000, 4.000000, 4.000000, 4.000000, 4.000000, 4.000000, 4.000000, 4.000000, 4.000000, 4.000000, 4.000000, 4.000000, 4.000000, 4.000000, 4.000000, 4.000000
23.000000, 0.000000, 4190.769043, 4142.563965, 4194.358887, 4201.538574, 4199.487305, 4191.281738, 4175.897461, 4175.384277, 3999.487061, 4170.769043, 4171.794922, 4184.615234, 4138.974121, 4178.974121, 0.000000, 8196.000000, 8195.000000, 0.000000, 0.000000, 0.000000, 25682.000000, 139.487183, 4.000000, 4.000000, 4.000000, 4.000000, 4.000000, 4.000000, 4.000000, 4.000000, 4.000000, 4.000000, 4.000000, 4.000000, 4.000000, 4.000000, 4.000000, 4.000000
24.000000, 0.000000, 4191.281738, 4149.743652, 4194.871582, 4206.153809, 4201.538574, 4190.769043, 4183.076660, 4181.538574, 4008.717773, 4174.871582, 4174.358887, 4189.743652, 4140.512695, 4181.025391, 0.000000, 8196.000000, 8195.000000, 0.000000, 0.000000, 0.000000, 25682.000000, 147.179489, 4.000000, 4.000000, 4.000000, 4.000000, 4.000000, 4.000000, 4.000000, 4.000000, 4.000000, 4.000000, 4.000000, 4.000000, 4.000000, 4.000000, 4.000000, 4.000000
25.000000, 0.000000, 4197.948730, 4149.230469, 4196.410156, 4204.102539, 4204.102539, 4200.512695, 4184.102539, 4187.692383, 4010.769043, 4177.948730, 4184.102539, 4197.436035, 4144.102539, 4187.179199, 0.000000, 8200.000000, 8190.000000, 0.000000, 0.000000, 0.000000, 25682.000000, 154.871796, 4.000000, 4.000000, 4.000000, 4.000000, 4.000000, 4.000000, 4.000000, 4.000000, 4.000000, 4.000000, 4.000000, 4.000000, 4.000000, 4.000000, 4.000000, 4.000000
26.000000, 0.000000, 4195.897461, 4146.153809, 4195.384277, 4202.563965, 4198.974121, 4199.487305, 4185.641113, 4186.666504, 4003.589600, 4170.256348, 4185.641113, 4200.000000, 4145.641113, 4185.641113, 0.000000, 8200.000000, 8190.000000, 0.000000, 0.000000, 0.000000, 25682.000000, 163.076920, 4.000000, 4.000000, 4.000000, 4.000000, 4.000000, 4.000000, 4.000000, 4.000000, 4.000000, 4.000000, 4.000000, 4.000000, 4.000000, 4.000000, 4.000000, 4.000000
27.000000, 0.000000, 4193.333008, 4150.256348, 4197.436035, 4202.051270, 4198.974121, 4188.717773, 4187.179199, 4183.589844, 4001.025635, 4168.717773, 4181.538574, 4200.000000, 4148.205078, 4183.589844, 0.000000, 8215.000000, 8192.000000, 0.000000, 0.000000, 0.000000, 25682.000000, 170.769226, 4.000000, 4.000000, 4.000000, 4.000000, 4.000000, 4.000000, 4.000000, 4.000000, 4.000000, 4.000000, 4.000000, 4.000000, 4.000000, 4.000000, 4.000000, 4.000000
28.000000, 0.000000, 4201.538574, 4159.487305, 4202.563965, 4202.051270, 4203.076660, 4189.743652, 4186.666504, 4185.127930, 4003.589600, 4176.922852, 4187.179199, 4203.589844, 4154.871582, 4189.743652, 0.000000, 8215.000000, 8192.000000, 0.000000, 0.000000, 0.000000, 25682.000000, 178.974350, 4.000000, 4.000000, 4.000000, 4.000000, 4.000000, 4.000000, 4.000000, 4.000000, 4.000000, 4.000000, 4.000000, 4.000000, 4.000000, 4.000000, 4.000000, 4.000000
29.000000, 0.000000, 4204.615234, 4166.153809, 4200.512695, 4208.205078, 4201.538574, 4199.487305, 4193.333008, 4181.538574, 4001.025635, 4176.410156, 4193.846191, 4204.102539, 4157.436035, 4199.487305, 0.000000, 8215.000000, 8190.000000, 0.000000, 0.000000, 0.000000, 25682.000000, 186.666656, 4.000000, 4.000000, 4.000000, 4.000000, 4.000000, 4.000000, 4.000000, 4.000000, 4.000000, 4.000000, 4.000000, 4.000000, 4.000000, 4.000000, 4.000000, 4.000000
30.000000, 0.000000, 4194.871582, 4165.127930, 4190.769043, 4201.025391, 4198.461426, 4200.512695, 4197.436035, 4176.410156, 3997.948730, 4172.307617, 4194.358887, 4198.974121, 4157.436035, 4200.000000, 0.000000, 8215.000000, 8190.000000, 0.000000, 0.000000, 0.000000, 25682.000000, 194.871796, 4.000000, 4.000000, 4.000000, 4.000000, 4.000000, 4.000000, 4.000000, 4.000000, 4.000000, 4.000000, 4.000000, 4.000000, 4.000000, 4.000000, 4.000000, 4.000000
31.000000, 0.000000, 4192.820313, 4159.487305, 4187.692383, 4196.410156, 4198.461426, 4197.436035, 4191.281738, 4177.948730, 3997.435791, 4172.307617, 4191.281738, 4198.974121, 4162.563965, 4189.230469, 0.000000, 8220.000000, 8182.000000, 0.000000, 0.000000, 0.000000, 25682.000000, 202.564102, 4.000000, 4.000000, 4.000000, 4.000000, 4.000000, 4.000000, 4.000000, 4.000000, 4.000000, 4.000000, 4.000000, 4.000000, 4.000000, 4.000000, 4.000000, 4.000000
32.000000, 0.000000, 4193.846191, 4163.589844, 4191.794922, 4201.538574, 4197.436035, 4195.384277, 4184.102539, 4175.384277, 3994.871582, 4170.769043, 4190.256348, 4202.563965, 4168.205078, 4185.641113, 0.000000, 8220.000000, 8182.000000, 0.000000, 0.000000, 0.000000, 25682.000000, 210.769226, 4.000000, 4.000000, 4.000000, 4.000000, 4.000000, 4.000000, 4.000000, 4.000000, 4.000000, 4.000000, 4.000000, 4.000000, 4.000000, 4.000000, 4.000000, 4.000000
33.000000, 0.000000, 4189.743652, 4171.281738, 4191.281738, 4197.948730, 4195.384277, 4193.333008, 4182.051270, 4168.717773, 3997.435791, 4168.205078, 4190.256348, 4197.436035, 4162.563965, 4190.256348, 0.000000, 8214.000000, 8171.000000, 0.000000, 0.000000, 0.000000, 25682.000000, 218.461533, 4.000000, 4.000000, 4.000000, 4.000000, 4.000000, 4.000000, 4.000000, 4.000000, 4.000000, 4.000000, 4.000000, 4.000000, 4.000000, 4.000000, 4.000000, 4.000000
34.000000, 0.000000, 4188.717773, 4167.692383, 4185.127930, 4197.948730, 4195.384277, 4196.922852, 4185.641113, 4180.512695, 4000.512695, 4168.205078, 4185.641113, 4194.358887, 4153.846191, 4189.230469, 0.000000, 8214.000000, 8171.000000, 0.000000, 0.000000, 0.000000, 25682.000000, 226.666656, 4.000000, 4.000000, 4.000000, 4.000000, 4.000000, 4.000000, 4.000000, 4.000000, 4.000000, 4.000000, 4.000000, 4.000000, 4.000000, 4.000000, 4.000000, 4.000000
35.000000, 0.000000, 4190.769043, 4166.153809, 4186.666504, 4196.922852, 4198.974121, 4201.538574, 4189.230469, 4188.205078, 3996.923096, 4169.743652, 4186.153809, 4198.461426, 4155.384277, 4186.153809, 0.000000, 8218.000000, 8169.000000, 0.000000, 0.000000, 0.000000, 25682.000000, 234.358963, 4.000000, 4.000000, 4.000000, 4.000000, 4.000000, 4.000000, 4.000000, 4.000000, 4.000000, 4.000000, 4.000000, 4.000000, 4.000000, 4.000000, 4.000000, 4.000000
36.000000, 0.000000, 4189.743652, 4175.384277, 4196.922852, 4198.974121, 4202.051270, 4200.512695, 4194.871582, 4169.743652, 3990.769043, 4168.205078, 4195.897461, 4203.589844, 4158.461426, 4191.281738, 0.000000, 8218.000000, 8169.000000, 0.000000, 0.000000, 0.000000, 25682.000000, 242.564102, 4.000000, 4.000000, 4.000000, 4.000000, 4.000000, 4.000000, 4.000000, 4.000000, 4.000000, 4.000000, 4.000000, 4.000000, 4.000000, 4.000000, 4.000000, 4.000000
37.000000, 0.000000, 4194.358887, 4186.666504, 4203.076660, 4205.127930, 4202.051270, 4202.563965, 4198.974121, 4168.205078, 3992.307617, 4164.102539, 4198.461426, 4209.743652, 4157.948730, 4197.436035, 0.000000, 8217.000000, 8162.000000, 0.000000, 0.000000, 0.000000, 25682.000000, 250.256409, 4.000000, 4.000000, 4.000000, 4.000000, 4.000000, 4.000000, 4.000000, 4.000000, 4.000000, 4.000000, 4.000000, 4.000000, 4.000000, 4.000000, 4.000000, 4.000000
38.000000, 0.000000, 4198.461426, 4190.256348, 4200.512695, 4205.127930, 4199.487305, 4203.076660, 4192.307617, 4186.666504, 3992.820313, 4166.153809, 4190.769043, 4209.743652, 4157.948730, 4193.846191, 0.000000, 8217.000000, 8162.000000, 0.000000, 0.000000, 0.000000, 25682.000000, 258.461517, 4.000000, 4.000000, 4.000000, 4.000000, 4.000000, 4.000000, 4.000000, 4.000000, 4.000000, 4.000000, 4.000000, 4.000000, 4.000000, 4.000000, 4.000000, 4.000000
39.000000, 0.000000, 4188.717773, 4183.589844, 4195.384277, 4207.179199, 4197.948730, 4198.974121, 4187.692383, 4187.179199, 3988.205078, 4163.076660, 4185.641113, 4203.589844, 4155.384277, 4183.589844, 0.000000, 8213.000000, 8155.000000, 0.000000, 0.000000, 0.000000, 25682.000000, 266.153839, 4.000000, 4.000000, 4.000000, 4.000000, 4.000000, 4.000000, 4.000000, 4.000000, 4.000000, 4.000000, 4.000000, 4.000000, 4.000000, 4.000000, 4.000000, 4.000000
40.000000, 0.000000, 4182.563965, 4184.615234, 4194.871582, 4202.563965, 4200.512695, 4200.000000, 4193.333008, 4179.487305, 3990.769043, 4154.358887, 4188.717773, 4198.461426, 4156.410156, 4183.076660, 0.000000, 8213.000000, 8155.000000, 0.000000, 0.000000, 0.000000, 25682.000000, 273.846161, 4.000000, 4.000000, 4.000000, 4.000000, 4.000000, 4.000000, 4.000000, 4.000000, 4.000000, 4.000000, 4.000000, 4.000000, 4.000000, 4.000000, 4.000000, 4.000000
41.000000, 0.000000, 4188.205078, 4196.922852, 4195.384277, 4199.487305, 4202.051270, 4201.538574, 4194.871582, 4185.127930, 3995.897217, 4158.974121, 4190.256348, 4194.358887, 4160.000000, 4185.641113, 0.000000, 8205.000000, 8159.000000, 0.000000, 0.000000, 0.000000, 25682.000000, 282.051270, 4.000000, 4.000000, 4.000000, 4.000000, 4.000000, 4.000000, 4.000000, 4.000000, 4.000000, 4.000000, 4.000000, 4.000000, 4.000000, 4.000000, 4.000000, 4.000000
42.000000, 0.000000, 4188.717773, 4197.948730, 4188.717773, 4198.461426, 4194.871582, 4196.410156, 4192.820313, 4193.333008, 3998.974365, 4167.179199, 4184.615234, 4191.794922, 4158.461426, 4183.589844, 0.000000, 8205.000000, 8159.000000, 0.000000, 0.000000, 0.000000, 25682.000000, 289.743591, 4.000000, 4.000000, 4.000000, 4.000000, 4.000000, 4.000000, 4.000000, 4.000000, 4.000000, 4.000000, 4.000000, 4.000000, 4.000000, 4.000000, 4.000000, 4.000000
43.000000, 0.000000, 4186.153809, 4190.256348, 4183.589844, 4190.769043, 4190.769043, 4191.794922, 4196.410156, 4190.256348, 3994.871582, 4156.922852, 4182.051270, 4192.307617, 4155.897461, 4183.076660, 0.000000, 8205.000000, 8156.000000, 0.000000, 0.000000, 0.000000, 25682.000000, 297.948700, 4.000000, 4.000000, 4.000000, 4.000000, 4.000000, 4.000000, 4.000000, 4.000000, 4.000000, 4.000000, 4.000000, 4.000000, 4.000000, 4.000000, 4.000000, 4.000000
44.000000, 0.000000, 4191.794922, 4196.410156, 4191.794922, 4199.487305, 4196.922852, 4187.179199, 4190.769043, 4184.102539, 3987.692139, 4146.666504, 4186.153809, 4195.897461, 4159.487305, 4184.615234, 0.000000, 8205.000000, 8156.000000, 0.000000, 0.000000, 0.000000, 25682.000000, 305.641022, 4.000000, 4.000000, 4.000000, 4.000000, 4.000000, 4.000000, 4.000000, 4.000000, 4.000000, 4.000000, 4.000000, 4.000000, 4.000000, 4.000000, 4.000000, 4.000000
45.000000, 0.000000, 4197.436035, 4207.692383, 4203.589844, 4206.153809, 4201.025391, 4184.615234, 4179.487305, 4181.025391, 3985.640869, 4155.897461, 4191.794922, 4197.948730, 4169.230469, 4188.205078, 0.000000, 8204.000000, 8154.000000, 0.000000, 0.000000, 0.000000, 25682.000000, 313.846161, 4.000000, 4.000000, 4.000000, 4.000000, 4.000000, 4.000000, 4.000000, 4.000000, 4.000000, 4.000000, 4.000000, 4.000000, 4.000000, 4.000000, 4.000000, 4.000000
46.000000, 0.000000, 4192.307617, 4205.127930, 4202.051270, 4200.000000, 4195.897461, 4188.717773, 4181.025391, 4177.436035, 3980.512695, 4156.410156, 4189.743652, 4201.538574, 4171.794922, 4189.230469, 0.000000, 8204.000000, 8154.000000, 0.000000, 0.000000, 0.000000, 25682.000000, 321.538452, 4.000000, 4.000000, 4.000000, 4.000000, 4.000000, 4.000000, 4.000000, 4.000000, 4.000000, 4.000000, 4.000000, 4.000000, 4.000000, 4.000000, 4.000000, 4.000000
47.000000, 0.000000, 4180.512695, 4194.358887, 4191.281738, 4197.948730, 4193.846191, 4192.307617, 4183.589844, 4163.076660, 3964.615234, 4142.563965, 4181.025391, 4203.589844, 4159.487305, 4180.000000, 0.000000, 8203.000000, 8169.000000, 0.000000, 0.000000, 0.000000, 25682.000000, 329.230774, 4.000000, 4.000000, 4.000000, 4.000000, 4.000000, 4.000000, 4.000000, 4.000000, 4.000000, 4.000000, 4.000000, 4.000000, 4.000000, 4.000000, 4.000000, 4.000000
48.000000, 0.000000, 4182.051270, 4194.871582, 4186.153809, 4195.897461, 4200.512695, 4196.410156, 4185.127930, 4159.487305, 3962.051270, 4145.641113, 4178.974121, 4197.436035, 4157.948730, 4173.333008, 0.000000, 8203.000000, 8169.000000, 0.000000, 0.000000, 0.000000, 25682.000000, 336.923065, 4.000000, 4.000000, 4.000000, 4.000000, 4.000000, 4.000000, 4.000000, 4.000000, 4.000000, 4.000000, 4.000000, 4.000000, 4.000000, 4.000000, 4.000000, 4.000000
49.000000, 0.000000, 4187.179199, 4201.538574, 4187.692383, 4198.461426, 4195.897461, 4196.922852, 4187.692383, 4175.384277, 3974.358887, 4152.307617, 4181.538574, 4191.281738, 4167.179199, 4178.461426, 0.000000, 8200.000000, 8167.000000, 0.000000, 0.000000, 0.000000, 25682.000000, 345.128204, 4.000000, 4.000000, 4.000000, 4.000000, 4.000000, 4.000000, 4.000000, 4.000000, 4.000000, 4.000000, 4.000000, 4.000000, 4.000000, 4.000000, 4.000000, 4.000000
50.000000, 0.000000, 4183.076660, 4200.000000, 4190.769043, 4194.358887, 4188.205078, 4191.281738, 4186.153809, 4177.436035, 3970.256348, 4143.076660, 4187.179199, 4194.358887, 4170.769043, 4185.641113, 0.000000, 8200.000000, 8167.000000, 0.000000, 0.000000, 0.000000, 25682.000000, 352.820496, 4.000000, 4.000000, 4.000000, 4.000000, 4.000000, 4.000000, 4.000000, 4.000000, 4.000000, 4.000000, 4.000000, 4.000000, 4.000000, 4.000000, 4.000000, 4.000000
51.000000, 0.000000, 4183.589844, 4197.948730, 4197.436035, 4191.794922, 4192.307617, 4187.692383, 4186.666504, 4165.641113, 3956.923096, 4140.000000, 4191.281738, 4199.487305, 4175.384277, 4185.641113, 0.000000, 8198.000000, 8173.000000, 0.000000, 0.000000, 0.000000, 25682.000000, 361.025635, 4.000000, 4.000000, 4.000000, 4.000000, 4.000000, 4.000000, 4.000000, 4.000000, 4.000000, 4.000000, 4.000000, 4.000000, 4.000000, 4.000000, 4.000000, 4.000000
52.000000, 0.000000, 4193.333008, 4208.205078, 4201.538574, 4200.000000, 4192.820313, 4184.102539, 4183.076660, 4166.153809, 3962.563965, 4151.794922, 4188.717773, 4196.410156, 4181.025391, 4185.641113, 0.000000, 8198.000000, 8173.000000, 0.000000, 0.000000, 0.000000, 25682.000000, 368.717926, 4.000000, 4.000000, 4.000000, 4.000000, 4.000000, 4.000000, 4.000000, 4.000000, 4.000000, 4.000000, 4.000000, 4.000000, 4.000000, 4.000000, 4.000000, 4.000000
53.000000, 0.000000, 4202.563965, 4222.051270, 4202.051270, 4200.512695, 4190.256348, 4184.102539, 4177.436035, 4175.384277, 3975.897217, 4157.436035, 4187.179199, 4197.948730, 4182.563965, 4195.897461, 0.000000, 8196.000000, 8174.000000, 0.000000, 0.000000, 0.000000, 25682.000000, 376.923065, 4.000000, 4.000000, 4.000000, 4.000000, 4.000000, 4.000000, 4.000000, 4.000000, 4.000000, 4.000000, 4.000000, 4.000000, 4.000000, 4.000000, 4.000000, 4.000000
54.000000, 0.000000, 4204.102539, 4222.051270, 4203.589844, 4202.563965, 4192.820313, 4193.333008, 4182.051270, 4173.333008, 3974.871582, 4153.333008, 4189.743652, 4205.127930, 4181.025391, 4202.051270, 0.000000, 8196.000000, 8174.000000, 0.000000, 0.000000, 0.000000, 25682.000000, 384.615387, 4.000000, 4.000000, 4.000000, 4.000000, 4.000000, 4.000000, 4.000000, 4.000000, 4.000000, 4.000000, 4.000000, 4.000000, 4.000000, 4.000000, 4.000000, 4.000000
55.000000, 0.000000, 4197.436035, 4213.846191, 4203.076660, 4201.538574, 4194.358887, 4200.000000, 4190.256348, 4170.769043, 3972.820313, 4154.358887, 4191.281738, 4202.563965, 4178.461426, 4195.384277, 0.000000, 8200.000000, 8176.000000, 0.000000, 0.000000, 0.000000, 25682.000000, 392.307678, 4.000000, 4.000000, 4.000000, 4.000000, 4.000000, 4.000000, 4.000000, 4.000000, 4.000000, 4.000000, 4.000000, 4.000000, 4.000000, 4.000000, 4.000000, 4.000000
56.000000, 0.000000, 4190.256348, 4212.820313, 4199.487305, 4198.461426, 4188.205078, 4201.025391, 4189.743652, 4181.538574, 3977.435791, 4158.974121, 4188.717773, 4199.487305, 4172.307617, 4186.666504, 0.000000, 8200.000000, 8176.000000, 0.000000, 0.000000, 0.000000, 25682.000000, 400.000000, 4.000000, 4.000000, 4.000000, 4.000000, 4.000000, 4.000000, 4.000000, 4.000000, 4.000000, 4.000000, 4.000000, 4.000000, 4.000000, 4.000000, 4.000000, 4.000000
57.000000, 0.000000, 4187.179199, 4211.281738, 4194.358887, 4202.563965, 4186.153809, 4200.512695, 4188.205078, 4185.127930, 3980.000000, 4155.384277, 4186.666504, 4202.051270, 4168.717773, 4185.127930, 0.000000, 8189.000000, 8180.000000, 0.000000, 0.000000, 0.000000, 25682.000000, 407.692291, 4.000000, 4.000000, 4.000000, 4.000000, 4.000000, 4.000000, 4.000000, 4.000000, 4.000000, 4.000000, 4.000000, 4.000000, 4.000000, 4.000000, 4.000000, 4.000000
58.000000, 0.000000, 4181.538574, 4205.641113, 4187.692383, 4196.922852, 4185.127930, 4192.307617, 4187.692383, 4174.871582, 3977.435791, 4145.641113, 4185.641113, 4199.487305, 4169.743652, 4182.563965, 0.000000, 8189.000000, 8180.000000, 0.000000, 0.000000, 0.000000, 25682.000000, 415.897430, 4.000000, 4.000000, 4.000000, 4.000000, 4.000000, 4.000000, 4.000000, 4.000000, 4.000000, 4.000000, 4.000000, 4.000000, 4.000000, 4.000000, 4.000000, 4.000000
59.000000, 0.000000, 4185.641113, 4207.692383, 4190.769043, 4196.922852, 4182.051270, 4186.153809, 4183.076660, 4170.256348, 3972.820313, 4145.641113, 4184.615234, 4200.000000, 4169.230469, 4181.025391, 0.000000, 8195.000000, 8181.000000, 0.000000, 0.000000, 0.000000, 25682.000000, 424.102539, 4.000000, 4.000000, 4.000000, 4.000000, 4.000000, 4.000000, 4.000000, 4.000000, 4.000000, 4.000000, 4.000000, 4.000000, 4.000000, 4.000000, 4.000000, 4.000000
60.000000, 0.000000, 4195.897461, 4217.948730, 4198.461426, 4204.615234, 4186.666504, 4196.410156, 4181.538574, 4180.512695, 3975.897217, 4153.846191, 4188.205078, 4203.076660, 4172.820313, 4187.179199, 0.000000, 8195.000000, 8181.000000, 0.000000, 0.000000, 0.000000, 25682.000000, 431.794861, 4.000000, 4.000000, 4.000000, 4.000000, 4.000000, 4.000000, 4.000000, 4.000000, 4.000000, 4.000000, 4.000000, 4.000000, 4.000000, 4.000000, 4.000000, 4.000000
61.000000, 0.000000, 4192.820313, 4218.461426, 4197.948730, 4203.589844, 4189.230469, 4202.051270, 4184.615234, 4185.127930, 3977.948730, 4152.307617, 4188.205078, 4197.436035, 4173.333008, 4186.153809, 0.000000, 8196.000000, 8193.000000, 0.000000, 0.000000, 0.000000, 25682.000000, 440.000000, 4.000000, 4.000000, 4.000000, 4.000000, 4.000000, 4.000000, 4.000000, 4.000000, 4.000000, 4.000000, 4.000000, 4.000000, 4.000000, 4.000000, 4.000000, 4.000000
62.000000, 0.000000, 4190.256348, 4213.333008, 4198.974121, 4204.102539, 4187.179199, 4198.461426, 4188.205078, 4182.051270, 3973.845947, 4148.717773, 4184.615234, 4193.846191, 4171.281738, 4180.512695, 0.000000, 8196.000000, 8193.000000, 0.000000, 0.000000, 0.000000, 25682.000000, 447.692291, 4.000000, 4.000000, 4.000000, 4.000000, 4.000000, 4.000000, 4.000000, 4.000000, 4.000000, 4.000000, 4.000000, 4.000000, 4.000000, 4.000000, 4.000000, 4.000000
63.000000, 0.000000, 4193.846191, 4213.846191, 4201.538574, 4202.051270, 4186.153809, 4202.051270, 4190.256348, 4182.563965, 3974.871582, 4152.820313, 4182.563965, 4193.333008, 4172.307617, 4182.051270, 0.000000, 8195.000000, 8200.000000, 0.000000, 0.000000, 0.000000, 25682.000000, 455.897430, 4.000000, 4.000000, 4.000000, 4.000000, 4.000000, 4.000000, 4.000000, 4.000000, 4.000000, 4.000000, 4.000000, 4.000000, 4.000000, 4.000000, 4.000000, 4.000000
64.000000, 0.000000, 4191.794922, 4215.897461, 4195.897461, 4202.563965, 4184.615234, 4201.025391, 4188.205078, 4183.076660, 3978.974365, 4153.333008, 4183.076660, 4189.743652, 4171.794922, 4184.102539, 3479.000000, 8195.000000, 8200.000000, 0.000000, 0.000000, 0.000000, 25682.000000, 463.589722, 4.000000, 4.000000, 4.000000, 4.000000, 4.000000, 4.000000, 4.000000, 4.000000, 4.000000, 4.000000, 4.000000, 4.000000, 4.000000, 4.000000, 4.000000, 4.000000
65.000000, 0.000000, 4185.127930, 4212.307617, 4187.179199, 4199.487305, 4184.102539, 4189.743652, 4186.153809, 4185.127930, 3976.923096, 4150.256348, 4184.102539, 4189.743652, 4171.794922, 4182.051270, 2208.000000, 8200.000000, 8212.000000, 0.000000, 0.000000, 0.000000, 25682.000000, 471.794861, 4.000000, 4.000000, 4.000000, 4.000000, 4.000000, 4.000000, 4.000000, 4.000000, 4.000000, 4.000000, 4.000000, 4.000000, 4.000000, 4.000000, 4.000000, 4.000000
66.000000, 0.000000, 4184.102539, 4206.153809, 4184.615234, 4188.717773, 4184.615234, 4187.179199, 4184.615234, 4185.127930, 3974.358887, 4154.358887, 4184.102539, 4190.256348, 4175.384277, 4182.563965, 3139.000000, 8200.000000, 8212.000000, 0.000000, 0.000000, 0.000000, 25682.000000, 479.487183, 4.000000, 4.000000, 4.000000, 4.000000, 4.000000, 4.000000, 4.000000, 4.000000, 4.000000, 4.000000, 4.000000, 4.000000, 4.000000, 4.000000, 4.000000, 4.000000
67.000000, 0.000000, 4189.230469, 4210.769043, 4186.666504, 4192.307617, 4184.615234, 4192.307617, 4188.717773, 4184.615234, 3980.512695, 4160.512695, 4190.256348, 4192.820313, 4181.025391, 4186.666504, 3551.000000, 8202.000000, 8214.000000, 0.000000, 0.000000, 0.000000, 25682.000000, 487.692291, 4.000000, 4.000000, 4.000000, 4.000000, 4.000000, 4.000000, 4.000000, 4.000000, 4.000000, 4.000000, 4.000000, 4.000000, 4.000000, 4.000000, 4.000000, 4.000000
68.000000, 0.000000, 4193.846191, 4217.948730, 4190.256348, 4195.384277, 4185.641113, 4190.769043, 4191.281738, 4196.410156, 3983.589600, 4161.025391, 4196.922852, 4201.025391, 4186.153809, 4191.281738, 3523.000000, 8202.000000, 8214.000000, 0.000000, 0.000000, 0.000000, 25682.000000, 495.384613, 4.000000, 4.000000, 4.000000, 4.000000, 4.000000, 4.000000, 4.000000, 4.000000, 4.000000, 4.000000, 4.000000, 4.000000, 4.000000, 4.000000, 4.000000, 4.000000
69.000000, 0.000000, 4192.307617, 4212.820313, 4191.281738, 4194.358887, 4188.205078, 4184.102539, 4186.153809, 4202.051270, 3974.358887, 4162.051270, 4193.333008, 4200.512695, 4184.615234, 4191.794922, 3557.000000, 8207.000000, 8214.000000, 0.000000, 0.000000, 0.000000, 25682.000000, 503.589722, 4.000000, 4.000000, 4.000000, 4.000000, 4.000000, 4.000000, 4.000000, 4.000000, 4.000000, 4.000000, 4.000000, 4.000000, 4.000000, 4.000000, 4.000000, 4.000000
70.000000, 0.000000, 4185.127930, 4211.281738, 4188.717773, 4196.922852, 4185.127930, 4186.666504, 4192.820313, 4187.179199, 3965.128174, 4167.692383, 4187.179199, 4195.897461, 4175.897461, 4187.179199, 3484.000000, 8207.000000, 8214.000000, 0.000000, 0.000000, 0.000000, 25682.000000, 511.282043, 4.000000, 4.000000, 4.000000, 4.000000, 4.000000, 4.000000, 4.000000, 4.000000, 4.000000, 4.000000, 4.000000, 4.000000, 4.000000, 4.000000, 4.000000, 4.000000
71.000000, 0.000000, 4186.666504, 4217.948730, 4185.127930, 4195.384277, 4187.179199, 4196.410156, 4200.000000, 4180.512695, 3968.717773, 4170.256348, 4188.205078, 4196.410156, 4175.897461, 4185.641113, 3674.000000, 8205.000000, 8210.000000, 0.000000, 0.000000, 0.000000, 25682.000000, 519.487183, 4.000000, 4.000000, 4.000000, 4.000000, 4.000000, 4.000000, 4.000000, 4.000000, 4.000000, 4.000000, 4.000000, 4.000000, 4.000000, 4.000000, 4.000000, 4.000000
72.000000, 0.000000, 4189.743652, 4217.436035, 4186.153809, 4200.000000, 4193.333008, 4195.384277, 4186.666504, 4185.127930, 3972.307617, 4169.230469, 4191.281738, 4195.384277, 4185.641113, 4187.179199, 3529.000000, 8205.000000, 8210.000000, 0.000000, 0.000000, 0.000000, 25682.000000, 527.179504, 4.000000, 4.000000, 4.000000, 4.000000, 4.000000, 4.000000, 4.000000, 4.000000, 4.000000, 4.000000, 4.000000, 4.000000, 4.000000, 4.000000, 4.000000, 4.000000
73.000000, 0.000000, 4183.589844, 4212.307617, 4187.179199, 4195.897461, 4191.281738, 4187.692383, 4176.922852, 4177.948730, 3965.640869, 4169.230469, 4188.717773, 4184.615234, 4185.127930, 4183.076660, 3525.000000, 8206.000000, 8209.000000, 0.000000, 0.000000, 0.000000, 25682.000000, 534.871765, 4.000000, 4.000000, 4.000000, 4.000000, 4.000000, 4.000000, 4.000000, 4.000000, 4.000000, 4.000000, 4.000000, 4.000000, 4.000000, 4.000000, 4.000000, 4.000000
74.000000, 0.000000, 4175.897461, 4211.794922, 4180.512695, 4190.256348, 4190.769043, 4191.794922, 4186.153809, 4165.127930, 3958.974365, 4161.025391, 4181.538574, 4173.333008, 4175.384277, 4175.384277, 3323.000000, 8206.000000, 8209.000000, 0.000000, 0.000000, 0.000000, 25682.000000, 543.076904, 4.000000, 4.000000, 4.000000, 4.000000, 4.000000, 4.000000, 4.000000, 4.000000, 4.000000, 4.000000, 4.000000, 4.000000, 4.000000, 4.000000, 4.000000, 4.000000
75.000000, 0.000000, 4171.794922, 4201.538574, 4175.897461, 4189.743652, 4195.897461, 4202.051270, 4187.692383, 4161.538574, 3953.333252, 4144.615234, 4165.641113, 4165.127930, 4163.589844, 4166.666504, 3585.000000, 8203.000000, 8210.000000, 0.000000, 0.000000, 0.000000, 25682.000000, 550.769226, 4.000000, 4.000000, 4.000000, 4.000000, 4.000000, 4.000000, 4.000000, 4.000000, 4.000000, 4.000000, 4.000000, 4.000000, 4.000000, 4.000000, 4.000000, 4.000000
76.000000, 0.000000, 4163.076660, 4182.563965, 4178.974121, 4182.051270, 4191.794922, 4205.127930, 4184.102539, 4174.871582, 3953.845947, 4136.922852, 4152.307617, 4162.563965, 4147.179199, 4155.384277, 3667.000000, 8203.000000, 8210.000000, 0.000000, 0.000000, 0.000000, 25682.000000, 558.461548, 4.000000, 4.000000, 4.000000, 4.000000, 4.000000, 4.000000, 4.000000, 4.000000, 4.000000, 4.000000, 4.000000, 4.000000, 4.000000, 4.000000, 4.000000, 4.000000
77.000000, 0.000000, 4159.487305, 4178.974121, 4183.589844, 4185.127930, 4184.615234, 4205.641113, 4198.461426, 4190.769043, 3964.102539, 4147.179199, 4160.512695, 4175.384277, 4147.692383, 4155.897461, 3453.000000, 8203.000000, 8199.000000, 0.000000, 0.000000, 0.000000, 25682.000000, 566.666626, 4.000000, 4.000000, 4.000000, 4.000000, 4.000000, 4.000000, 4.000000, 4.000000, 4.000000, 4.000000, 4.000000, 4.000000, 4.000000, 4.000000, 4.000000, 4.000000
78.000000, 0.000000, 4176.922852, 4202.051270, 4190.769043, 4192.820313, 4191.794922, 4205.641113, 4203.589844, 4192.820313, 3975.897217, 4170.769043, 4186.666504, 4192.820313, 4173.333008, 4176.410156, 3323.000000, 8203.000000, 8199.000000, 0.000000, 0.000000, 0.000000, 25682.000000, 574.358948, 4.000000, 4.000000, 4.000000, 4.000000, 4.000000, 4.000000, 4.000000, 4.000000, 4.000000, 4.000000, 4.000000, 4.000000, 4.000000, 4.000000, 4.000000, 4.000000
79.000000, 0.000000, 4203.589844, 4232.307617, 4201.538574, 4201.538574, 4203.589844, 4201.538574, 4190.769043, 4187.692383, 3979.487061, 4189.743652, 4209.230469, 4202.051270, 4196.922852, 4202.051270, 3585.000000, 8200.000000, 8192.000000, 0.000000, 0.000000, 0.000000, 25682.000000, 582.051270, 4.000000, 4.000000, 4.000000, 4.000000, 4.000000, 4.000000, 4.000000, 4.000000, 4.000000, 4.000000, 4.000000, 4.000000, 4.000000, 4.000000, 4.000000, 4.000000
80.000000, 0.000000, 4213.333008, 4245.641113, 4204.615234, 4210.769043, 4202.051270, 4192.820313, 4184.615234, 4181.025391, 3972.307617, 4187.692383, 4211.794922, 4210.769043, 4203.076660, 4212.820313, 3667.000000, 8200.000000, 8192.000000, 0.000000, 0.000000, 0.000000, 25682.000000, 590.256409, 4.000000, 4.000000, 4.000000, 4.000000, 4.000000, 4.000000, 4.000000, 4.000000, 4.000000, 4.000000, 4.000000, 4.000000, 4.000000, 4.000000, 4.000000, 4.000000
81.000000, 0.000000, 4207.692383, 4240.000000, 4201.025391, 4205.127930, 4193.333008, 4184.615234, 4181.025391, 4172.820313, 3961.025635, 4178.974121, 4203.589844, 4213.333008, 4202.051270, 4207.692383, 3453.000000, 8197.000000, 8187.000000, 0.000000, 0.000000, 0.000000, 25682.000000, 597.948730, 4.000000, 4.000000, 4.000000, 4.000000, 4.000000, 4.000000, 4.000000, 4.000000, 4.000000, 4.000000, 4.000000, 4.000000, 4.000000, 4.000000, 4.000000, 4.000000
82.000000, 0.000000, 4203.076660, 4230.769043, 4201.025391, 4204.615234, 4191.281738, 4186.153809, 4176.922852, 4173.333008, 3958.974365, 4181.025391, 4200.512695, 4208.205078, 4198.974121, 4201.538574, 3323.000000, 8197.000000, 8187.000000, 0.000000, 0.000000, 0.000000, 25682.000000, 606.153809, 4.000000, 4.000000, 4.000000, 4.000000, 4.000000, 4.000000, 4.000000, 4.000000, 4.000000, 4.000000, 4.000000, 4.000000, 4.000000, 4.000000, 4.000000, 4.000000
83.000000, 0.000000, 4200.000000, 4229.743652, 4201.025391, 4207.179199, 4196.922852, 4197.948730, 4182.563965, 4183.076660, 3970.256348, 4187.179199, 4205.641113, 4206.666504, 4197.948730, 4202.051270, 3585.000000, 8199.000000, 8188.000000, 0.000000, 0.000000, 0.000000, 25682.000000, 613.846130, 4.000000, 4.000000, 4.000000, 4.000000, 4.000000, 4.000000, 4.000000, 4.000000, 4.000000, 4.000000, 4.000000, 4.000000, 4.000000, 4.000000, 4.000000, 4.000000
84.000000, 0.000000, 4203.589844, 4236.410156, 4200.512695, 4211.794922, 4201.025391, 4201.025391, 4190.769043, 4194.871582, 3978.974365, 4189.743652, 4207.692383, 4206.666504, 4202.563965, 4204.615234, 3667.000000, 8199.000000, 8188.000000, 0.000000, 0.000000, 0.000000, 25682.000000, 622.051270, 4.000000, 4.000000, 4.000000, 4.000000, 4.000000, 4.000000, 4.000000, 4.000000, 4.000000, 4.000000, 4.000000, 4.000000, 4.000000, 4.000000, 4.000000, 4.000000
85.000000, 0.000000, 4207.692383, 4235.897461, 4202.051270, 4215.897461, 4198.461426, 4189.743652, 4189.743652, 4200.000000, 3969.743408, 4187.179199, 4203.076660, 4198.461426, 4198.974121, 4200.000000, 3453.000000, 8193.000000, 8174.000000, 0.000000, 0.000000, 0.000000, 25682.000000, 629.743591, 4.000000, 4.000000, 4.000000, 4.000000, 4.000000, 4.000000, 4.000000, 4.000000, 4.000000, 4.000000, 4.000000, 4.000000, 4.000000, 4.000000, 4.000000, 4.000000
86.000000, 0.000000, 4202.051270, 4228.717773, 4200.000000, 4208.717773, 4192.307617, 4182.563965, 4186.153809, 4184.615234, 3951.281982, 4177.436035, 4197.948730, 4188.205078, 4188.717773, 4192.820313, 3323.000000, 8193.000000, 8174.000000, 0.000000, 0.000000, 0.000000, 25682.000000, 637.948730, 4.000000, 4.000000, 4.000000, 4.000000, 4.000000, 4.000000, 4.000000, 4.000000, 4.000000, 4.000000, 4.000000, 4.000000, 4.000000, 4.000000, 4.000000, 4.000000
87.000000, 0.000000, 4195.384277, 4219.487305, 4191.281738, 4207.179199, 4185.127930, 4184.615234, 4184.615234, 4162.051270, 3938.461426, 4168.205078, 4191.794922, 4187.179199, 4186.666504, 4187.179199, 3585.000000, 8199.000000, 8165.000000, 0.000000, 0.000000, 0.000000, 25682.000000, 645.640991, 4.000000, 4.000000, 4.000000, 4.000000, 4.000000, 4.000000, 4.000000, 4.000000, 4.000000, 4.000000, 4.000000, 4.000000, 4.000000, 4.000000, 4.000000, 4.000000
88.000000, 0.000000, 4192.820313, 4215.897461, 4187.179199, 4205.127930, 4183.589844, 4185.127930, 4186.153809, 4161.538574, 3940.000000, 4168.205078, 4188.717773, 4188.205078, 4187.692383, 4187.179199, 3667.000000, 8199.000000, 8165.000000, 0.000000, 0.000000, 0.000000, 25682.000000, 653.333313, 4.000000, 4.000000, 4.000000, 4.000000, 4.000000, 4.000000, 4.000000, 4.000000, 4.000000, 4.000000, 4.000000, 4.000000, 4.000000, 4.000000, 4.000000, 4.000000
89.000000, 0.000000, 4190.769043, 4217.948730, 4189.230469, 4202.051270, 4191.794922, 4180.512695, 4184.102539, 4176.410156, 3946.153809, 4174.871582, 4194.871582, 4190.769043, 4186.153809, 4189.743652, 3453.000000, 8198.000000, 8164.000000, 0.000000, 0.000000, 0.000000, 25682.000000, 661.538452, 4.000000, 4.000000, 4.000000, 4.000000, 4.000000, 4.000000, 4.000000, 4.000000, 4.000000, 4.000000, 4.000000, 4.000000, 4.000000, 4.000000, 4.000000, 4.000000
90.000000, 0.000000, 4185.127930, 4216.410156, 4186.153809, 4207.179199, 4192.820313, 4181.538574, 4174.871582, 4177.948730, 3936.410156, 4175.897461, 4195.384277, 4191.794922, 4184.615234, 4186.666504, 3323.000000, 8198.000000, 8164.000000, 0.000000, 0.000000, 0.000000, 25682.000000, 669.230774, 4.000000, 4.000000, 4.000000, 4.000000, 4.000000, 4.000000, 4.000000, 4.000000, 4.000000, 4.000000, 4.000000, 4.000000, 4.000000, 4.000000, 4.000000, 4.000000
91.000000, 0.000000, 4184.102539, 4213.846191, 4180.512695, 4203.589844, 4187.692383, 4185.641113, 4173.846191, 4166.153809, 3916.410156, 4172.307617, 4186.666504, 4184.615234, 4181.538574, 4182.563965, 3585.000000, 8191.000000, 8167.000000, 0.000000, 0.000000, 0.000000, 25682.000000, 677.435852, 4.000000, 4.000000, 4.000000, 4.000000, 4.000000, 4.000000, 4.000000, 4.000000, 4.000000, 4.000000, 4.000000, 4.000000, 4.000000, 4.000000, 4.000000, 4.000000
92.000000, 0.000000, 4186.153809, 4215.384277, 4186.153809, 4204.102539, 4188.205078, 4185.127930, 4186.153809, 4165.127930, 3913.845947, 4169.230469, 4185.127930, 4183.589844, 4179.487305, 4182.563965, 3667.000000, 8191.000000, 8167.000000, 0.000000, 0.000000, 0.000000, 25682.000000, 685.128174, 4.000000, 4.000000, 4.000000, 4.000000, 4.000000, 4.000000, 4.000000, 4.000000, 4.000000, 4.000000, 4.000000, 4.000000, 4.000000, 4.000000, 4.000000, 4.000000
93.000000, 0.000000, 4186.153809, 4217.436035, 4191.794922, 4208.205078, 4192.820313, 4184.615234, 4189.743652, 4176.410156, 3924.615234, 4169.230469, 4194.871582, 4193.846191, 4178.974121, 4182.563965, 3453.000000, 8184.000000, 8180.000000, 0.000000, 0.000000, 0.000000, 25682.000000, 692.820496, 4.000000, 4.000000, 4.000000, 4.000000, 4.000000, 4.000000, 4.000000, 4.000000, 4.000000, 4.000000, 4.000000, 4.000000, 4.000000, 4.000000, 4.000000, 4.000000
94.000000, 0.000000, 4187.179199, 4215.384277, 4189.743652, 4205.641113, 4194.358887, 4185.641113, 4182.563965, 4182.563965, 3921.025635, 4169.230469, 4200.512695, 4197.948730, 4174.871582, 4183.589844, 3323.000000, 8184.000000, 8180.000000, 0.000000, 0.000000, 0.000000, 25682.000000, 701.025635, 4.000000, 4.000000, 4.000000, 4.000000, 4.000000, 4.000000, 4.000000, 4.000000, 4.000000, 4.000000, 4.000000, 4.000000, 4.000000, 4.000000, 4.000000, 4.000000
95.000000, 0.000000, 4187.179199, 4213.846191, 4192.820313, 4209.230469, 4195.897461, 4186.153809, 4181.025391, 4177.948730, 3908.205078, 4168.717773, 4196.922852, 4194.358887, 4171.281738, 4187.179199, 3585.000000, 8180.000000, 8191.000000, 0.000000, 0.000000, 0.000000, 25682.000000, 708.717957, 4.000000, 4.000000, 4.000000, 4.000000, 4.000000, 4.000000, 4.000000, 4.000000, 4.000000, 4.000000, 4.000000, 4.000000, 4.000000, 4.000000, 4.000000, 4.000000
96.000000, 0.000000, 4188.717773, 4213.846191, 4195.384277, 4209.743652, 4201.538574, 4189.230469, 4188.717773, 4175.384277, 3903.076904, 4172.820313, 4194.871582, 4192.820313, 4175.384277, 4188.717773, 3667.000000, 8180.000000, 8191.000000, 0.000000, 0.000000, 0.000000, 25682.000000, 716.923035, 4.000000, 4.000000, 4.000000, 4.000000, 4.000000, 4.000000, 4.000000, 4.000000, 4.000000, 4.000000, 4.000000, 4.000000, 4.000000, 4.000000, 4.000000, 4.000000
97.000000, 0.000000, 4188.717773, 4208.205078, 4192.820313, 4210.769043, 4197.948730, 4190.256348, 4191.281738, 4172.820313, 3897.435791, 4171.281738, 4188.717773, 4189.743652, 4168.205078, 4184.102539, 3453.000000, 8177.000000, 8187.000000, 0.000000, 0.000000, 0.000000, 25682.000000, 724.615356, 4.000000, 4.000000, 4.000000, 4.000000, 4.000000, 4.000000, 4.000000, 4.000000, 4.000000, 4.000000, 4.000000, 4.000000, 4.000000, 4.000000, 4.000000, 4.000000
98.000000, 0.000000, 4182.563965, 4197.948730, 4190.256348, 4207.692383, 4188.717773, 4187.179199, 4184.615234, 4169.230469, 3890.769043, 4163.589844, 4181.025391, 4182.051270, 4152.307617, 4179.487305, 3323.000000, 8177.000000, 8187.000000, 0.000000, 0.000000, 0.000000, 25682.000000, 732.307678, 4.000000, 4.000000, 4.000000, 4.000000, 4.000000, 4.000000, 4.000000, 4.000000, 4.000000, 4.000000, 4.000000, 4.000000, 4.000000, 4.000000, 4.000000, 4.000000
99.000000, 0.000000, 4183.589844, 4202.051270, 4193.333008, 4206.153809, 4194.871582, 4193.846191, 4187.692383, 4176.410156, 3894.358887, 4165.127930, 4189.743652, 4183.589844, 4161.538574, 4184.102539, 3585.000000, 8181.000000, 8190.000000, 0.000000, 0.000000, 0.000000, 25682.000000, 740.512817, 4.000000, 4.000000, 4.000000, 4.000000, 4.000000, 4.000000, 4.000000, 4.000000, 4.000000, 4.000000, 4.000000, 4.000000, 4.000000, 4.000000, 4.000000, 4.000000
