title:neutral26, recorded:21.05.18 11.38.21, timestamp started:2018-05-12T20:28:52.032863+02:00            , sampling:128, subject:Noé, labels:COUNTER INTERPOLATED AF3 F7 F3 FC5 T7 P7 O1 O2 P8 T8 FC6 F4 F8 AF4 RAW_CQ GYROX GYROY MARKER MARKER_HARDWARE SYNC TIME_STAMP_s TIME_STAMP_ms CQ_AF3 CQ_F7 CQ_F3 CQ_FC5 CQ_T7 CQ_P7 CQ_O1 CQ_O2 CQ_P8 CQ_T8 CQ_FC6 CQ_F4 CQ_F8 CQ_AF4 CQ_CMS CQ_DRL, chan:40, samples:2630, units:emotiv
46.000000, 0.000000, 4709.230469, 4504.102539, 4614.358887, 4667.179199, 4670.769043, 4664.102539, 4638.974121, 4694.871582, 4208.717773, 4625.127930, 4714.358887, 4713.846191, 4771.281738, 4711.281738, 0.000000, 8146.000000, 8207.000000, 0.000000, 0.000000, 0.000000, 24873.000000, 813.846130, 4.000000, 4.000000, 4.000000, 4.000000, 4.000000, 4.000000, 4.000000, 4.000000, 4.000000, 4.000000, 4.000000, 4.000000, 4.000000, 4.000000, 4.000000, 4.000000
47.000000, 0.000000, 4709.230469, 4502.051270, 4611.281738, 4660.000000, 4661.538574, 4658.461426, 4630.769043, 4681.025391, 4201.025391, 4615.897461, 4704.102539, 4711.281738, 4764.615234, 4685.641113, 0.000000, 8144.000000, 8202.000000, 0.000000, 0.000000, 0.000000, 24873.000000, 822.051270, 4.000000, 4.000000, 4.000000, 4.000000, 4.000000, 4.000000, 4.000000, 4.000000, 4.000000, 4.000000, 4.000000, 4.000000, 4.000000, 4.000000, 4.000000, 4.000000
48.000000, 0.000000, 4700.000000, 4491.794922, 4598.461426, 4647.179199, 4645.641113, 4649.230469, 4626.666504, 4674.871582, 4200.512695, 4605.641113, 4697.948730, 4709.230469, 4750.256348, 4661.025391, 0.000000, 8144.000000, 8202.000000, 0.000000, 0.000000, 0.000000, 24873.000000, 829.743591, 4.000000, 4.000000, 4.000000, 4.000000, 4.000000, 4.000000, 4.000000, 4.000000, 4.000000, 4.000000, 4.000000, 4.000000, 4.000000, 4.000000, 4.000000, 4.000000
49.000000, 0.000000, 4689.230469, 4486.153809, 4588.205078, 4639.487305, 4646.666504, 4648.717773, 4643.076660, 4692.820313, 4209.743652, 4598.974121, 4699.487305, 4701.025391, 4746.153809, 4678.974121, 0.000000, 8139.000000, 8187.000000, 0.000000, 0.000000, 0.000000, 24873.000000, 837.435852, 4.000000, 4.000000, 4.000000, 4.000000, 4.000000, 4.000000, 4.000000, 4.000000, 4.000000, 4.000000, 4.000000, 4.000000, 4.000000, 4.000000, 4.000000, 4.000000
50.000000, 0.000000, 4695.897461, 4498.974121, 4595.897461, 4645.127930, 4655.897461, 4654.358887, 4647.692383, 4687.692383, 4209.743652, 4596.410156, 4703.076660, 4704.615234, 4749.230469, 4697.948730, 0.000000, 8139.000000, 8187.000000, 0.000000, 0.000000, 0.000000, 24873.000000, 845.128174, 4.000000, 4.000000, 4.000000, 4.000000, 4.000000, 4.000000, 4.000000, 4.000000, 4.000000, 4.000000, 4.000000, 4.000000, 4.000000, 4.000000, 4.000000, 4.000000
51.000000, 0.000000, 4695.897461, 4504.615234, 4599.487305, 4645.641113, 4652.307617, 4649.743652, 4624.615234, 4668.205078, 4204.102539, 4604.102539, 4701.538574, 4710.256348, 4749.230469, 4692.307617, 0.000000, 8137.000000, 8177.000000, 0.000000, 0.000000, 0.000000, 24873.000000, 853.333313, 4.000000, 4.000000, 4.000000, 4.000000, 4.000000, 4.000000, 4.000000, 4.000000, 4.000000, 4.000000, 4.000000, 4.000000, 4.000000, 4.000000, 4.000000, 4.000000
52.000000, 0.000000, 4683.076660, 4494.871582, 4591.794922, 4635.897461, 4642.051270, 4641.025391, 4610.769043, 4669.743652, 4202.563965, 4609.743652, 4692.307617, 4696.410156, 4746.666504, 4693.333008, 0.000000, 8137.000000, 8177.000000, 0.000000, 0.000000, 0.000000, 24873.000000, 861.025635, 4.000000, 4.000000, 4.000000, 4.000000, 4.000000, 4.000000, 4.000000, 4.000000, 4.000000, 4.000000, 4.000000, 4.000000, 4.000000, 4.000000, 4.000000, 4.000000
53.000000, 0.000000, 4695.897461, 4496.922852, 4595.897461, 4638.974121, 4647.179199, 4645.127930, 4618.974121, 4666.666504, 4202.563965, 4610.769043, 4691.281738, 4685.641113, 4748.205078, 4709.230469, 0.000000, 8118.000000, 8140.000000, 0.000000, 0.000000, 0.000000, 24873.000000, 869.230774, 4.000000, 4.000000, 4.000000, 4.000000, 4.000000, 4.000000, 4.000000, 4.000000, 4.000000, 4.000000, 4.000000, 4.000000, 4.000000, 4.000000, 4.000000, 4.000000
54.000000, 0.000000, 4711.794922, 4513.333008, 4603.589844, 4650.769043, 4660.000000, 4655.384277, 4622.563965, 4656.922852, 4209.743652, 4619.487305, 4706.153809, 4700.512695, 4753.333008, 4718.974121, 0.000000, 8118.000000, 8140.000000, 0.000000, 0.000000, 0.000000, 24873.000000, 876.923035, 4.000000, 4.000000, 4.000000, 4.000000, 4.000000, 4.000000, 4.000000, 4.000000, 4.000000, 4.000000, 4.000000, 4.000000, 4.000000, 4.000000, 4.000000, 4.000000
55.000000, 0.000000, 4689.230469, 4511.281738, 4594.871582, 4649.743652, 4661.538574, 4649.230469, 4617.948730, 4666.153809, 4213.846191, 4618.974121, 4708.717773, 4704.615234, 4749.230469, 4714.871582, 0.000000, 8112.000000, 8133.000000, 0.000000, 0.000000, 0.000000, 24873.000000, 884.615356, 4.000000, 4.000000, 4.000000, 4.000000, 4.000000, 4.000000, 4.000000, 4.000000, 4.000000, 4.000000, 4.000000, 4.000000, 4.000000, 4.000000, 4.000000, 4.000000
56.000000, 0.000000, 4672.820313, 4497.948730, 4587.692383, 4640.512695, 4652.307617, 4633.846191, 4612.820313, 4671.281738, 4202.051270, 4604.615234, 4692.307617, 4694.871582, 4735.897461, 4702.051270, 0.000000, 8112.000000, 8133.000000, 0.000000, 0.000000, 0.000000, 24873.000000, 892.820496, 4.000000, 4.000000, 4.000000, 4.000000, 4.000000, 4.000000, 4.000000, 4.000000, 4.000000, 4.000000, 4.000000, 4.000000, 4.000000, 4.000000, 4.000000, 4.000000
57.000000, 0.000000, 4688.205078, 4502.051270, 4595.384277, 4641.538574, 4643.076660, 4631.794922, 4607.179199, 4666.666504, 4200.000000, 4603.076660, 4685.641113, 4702.563965, 4731.794922, 4709.230469, 0.000000, 8111.000000, 8131.000000, 0.000000, 0.000000, 0.000000, 24873.000000, 901.025635, 4.000000, 4.000000, 4.000000, 4.000000, 4.000000, 4.000000, 4.000000, 4.000000, 4.000000, 4.000000, 4.000000, 4.000000, 4.000000, 4.000000, 4.000000, 4.000000
58.000000, 0.000000, 4681.025391, 4510.256348, 4600.000000, 4644.102539, 4648.717773, 4636.922852, 4610.769043, 4667.692383, 4211.794922, 4606.666504, 4690.256348, 4704.615234, 4733.846191, 4735.384277, 0.000000, 8111.000000, 8131.000000, 0.000000, 0.000000, 0.000000, 24873.000000, 908.717957, 4.000000, 4.000000, 4.000000, 4.000000, 4.000000, 4.000000, 4.000000, 4.000000, 4.000000, 4.000000, 4.000000, 4.000000, 4.000000, 4.000000, 4.000000, 4.000000
59.000000, 0.000000, 4655.384277, 4504.615234, 4594.358887, 4637.435547, 4650.256348, 4634.871582, 4617.435547, 4661.025391, 4208.717773, 4596.922852, 4678.974121, 4682.563965, 4716.410156, 4711.794922, 0.000000, 8102.000000, 8129.000000, 0.000000, 0.000000, 0.000000, 24873.000000, 916.923035, 4.000000, 4.000000, 4.000000, 4.000000, 4.000000, 4.000000, 4.000000, 4.000000, 4.000000, 4.000000, 4.000000, 4.000000, 4.000000, 4.000000, 4.000000, 4.000000
60.000000, 0.000000, 4662.563965, 4495.897461, 4588.205078, 4630.256348, 4637.948730, 4636.922852, 4618.461426, 4652.820313, 4203.589844, 4592.820313, 4666.153809, 4669.230469, 4703.076660, 4687.179199, 0.000000, 8102.000000, 8129.000000, 0.000000, 0.000000, 0.000000, 24873.000000, 924.615356, 4.000000, 4.000000, 4.000000, 4.000000, 4.000000, 4.000000, 4.000000, 4.000000, 4.000000, 4.000000, 4.000000, 4.000000, 4.000000, 4.000000, 4.000000, 4.000000
61.000000, 0.000000, 4675.897461, 4488.205078, 4581.025391, 4625.127930, 4634.358887, 4640.000000, 4617.435547, 4653.333008, 4206.666504, 4592.820313, 4661.025391, 4669.230469, 4705.127930, 4708.205078, 0.000000, 8106.000000, 8127.000000, 0.000000, 0.000000, 0.000000, 24873.000000, 932.820496, 4.000000, 4.000000, 4.000000, 4.000000, 4.000000, 4.000000, 4.000000, 4.000000, 4.000000, 4.000000, 4.000000, 4.000000, 4.000000, 4.000000, 4.000000, 4.000000
62.000000, 0.000000, 4664.102539, 4486.153809, 4576.922852, 4616.922852, 4640.512695, 4626.153809, 4615.384277, 4653.333008, 4205.641113, 4583.076660, 4648.717773, 4663.076660, 4696.922852, 4700.000000, 0.000000, 8106.000000, 8127.000000, 0.000000, 0.000000, 0.000000, 24873.000000, 940.512817, 4.000000, 4.000000, 4.000000, 4.000000, 4.000000, 4.000000, 4.000000, 4.000000, 4.000000, 4.000000, 4.000000, 4.000000, 4.000000, 4.000000, 4.000000, 4.000000
63.000000, 0.000000, 4660.000000, 4494.871582, 4578.974121, 4614.358887, 4638.974121, 4622.051270, 4616.410156, 4654.871582, 4206.666504, 4581.025391, 4645.641113, 4662.563965, 4692.820313, 4693.846191, 0.000000, 8128.000000, 8124.000000, 0.000000, 0.000000, 0.000000, 24873.000000, 948.717896, 4.000000, 4.000000, 4.000000, 4.000000, 4.000000, 4.000000, 4.000000, 4.000000, 4.000000, 4.000000, 4.000000, 4.000000, 4.000000, 4.000000, 4.000000, 4.000000
64.000000, 0.000000, 4663.076660, 4497.948730, 4585.641113, 4621.538574, 4633.846191, 4636.922852, 4618.461426, 4657.948730, 4213.333008, 4588.205078, 4656.922852, 4670.769043, 4704.102539, 4734.358887, 2994.000000, 8128.000000, 8124.000000, 0.000000, 0.000000, 0.000000, 24873.000000, 956.410217, 4.000000, 4.000000, 4.000000, 4.000000, 4.000000, 4.000000, 4.000000, 4.000000, 4.000000, 4.000000, 4.000000, 4.000000, 4.000000, 4.000000, 4.000000, 4.000000
65.000000, 0.000000, 4655.897461, 4491.794922, 4597.948730, 4628.205078, 4633.333008, 4640.512695, 4619.487305, 4661.025391, 4216.410156, 4587.179199, 4662.563965, 4676.410156, 4706.153809, 4757.435547, 3476.000000, 8142.000000, 8130.000000, 0.000000, 0.000000, 0.000000, 24873.000000, 964.102539, 4.000000, 4.000000, 4.000000, 4.000000, 4.000000, 4.000000, 4.000000, 4.000000, 4.000000, 4.000000, 4.000000, 4.000000, 4.000000, 4.000000, 4.000000, 4.000000
66.000000, 0.000000, 4667.692383, 4493.333008, 4596.922852, 4627.692383, 4629.230469, 4631.794922, 4615.384277, 4661.025391, 4213.333008, 4586.153809, 4660.000000, 4674.871582, 4700.000000, 4771.281738, 3478.000000, 8142.000000, 8130.000000, 0.000000, 0.000000, 0.000000, 24873.000000, 971.794861, 4.000000, 4.000000, 4.000000, 4.000000, 4.000000, 4.000000, 4.000000, 4.000000, 4.000000, 4.000000, 4.000000, 4.000000, 4.000000, 4.000000, 4.000000, 4.000000
67.000000, 0.000000, 4690.769043, 4500.000000, 4590.256348, 4627.179199, 4632.820313, 4631.281738, 4605.641113, 4650.769043, 4213.333008, 4590.256348, 4661.025391, 4669.230469, 4708.205078, 4833.333008, 2209.000000, 8186.000000, 8131.000000, 0.000000, 0.000000, 0.000000, 24873.000000, 980.000000, 4.000000, 4.000000, 4.000000, 4.000000, 4.000000, 4.000000, 4.000000, 4.000000, 4.000000, 4.000000, 4.000000, 4.000000, 4.000000, 4.000000, 4.000000, 4.000000
68.000000, 0.000000, 4677.435547, 4494.358887, 4594.358887, 4630.769043, 4642.051270, 4631.794922, 4601.538574, 4645.127930, 4217.436035, 4590.769043, 4662.051270, 4676.410156, 4712.307617, 4859.487305, 3481.000000, 8186.000000, 8131.000000, 0.000000, 0.000000, 0.000000, 24873.000000, 988.205078, 4.000000, 4.000000, 4.000000, 4.000000, 4.000000, 4.000000, 4.000000, 4.000000, 4.000000, 4.000000, 4.000000, 4.000000, 4.000000, 4.000000, 4.000000, 4.000000
69.000000, 0.000000, 4668.205078, 4486.666504, 4603.076660, 4635.897461, 4641.025391, 4625.641113, 4601.025391, 4647.179199, 4214.358887, 4590.256348, 4654.871582, 4692.820313, 4698.974121, 4827.179199, 3521.000000, 8206.000000, 8127.000000, 0.000000, 0.000000, 0.000000, 24873.000000, 995.897400, 4.000000, 4.000000, 4.000000, 4.000000, 4.000000, 4.000000, 4.000000, 4.000000, 4.000000, 4.000000, 4.000000, 4.000000, 4.000000, 4.000000, 4.000000, 4.000000
70.000000, 0.000000, 4695.384277, 4491.794922, 4604.615234, 4634.358887, 4632.820313, 4615.384277, 4589.230469, 4635.384277, 4205.127930, 4588.717773, 4650.256348, 4686.666504, 4691.794922, 4854.358887, 3365.000000, 8206.000000, 8127.000000, 0.000000, 0.000000, 0.000000, 24874.000000, 3.589744, 4.000000, 4.000000, 4.000000, 4.000000, 4.000000, 4.000000, 4.000000, 4.000000, 4.000000, 4.000000, 4.000000, 4.000000, 4.000000, 4.000000, 4.000000, 4.000000
71.000000, 0.000000, 4701.025391, 4489.230469, 4595.897461, 4624.102539, 4621.025391, 4606.666504, 4578.461426, 4618.974121, 4203.589844, 4577.948730, 4647.692383, 4664.615234, 4689.230469, 4920.000000, 3453.000000, 8213.000000, 8123.000000, 0.000000, 0.000000, 0.000000, 24874.000000, 11.794871, 4.000000, 4.000000, 4.000000, 4.000000, 4.000000, 4.000000, 4.000000, 4.000000, 4.000000, 4.000000, 4.000000, 4.000000, 4.000000, 4.000000, 4.000000, 4.000000
72.000000, 0.000000, 4677.948730, 4480.000000, 4590.256348, 4616.922852, 4620.512695, 4609.230469, 4583.589844, 4616.410156, 4208.205078, 4565.127930, 4643.076660, 4665.641113, 4681.538574, 4921.538574, 954.000000, 8213.000000, 8123.000000, 0.000000, 0.000000, 0.000000, 24874.000000, 19.487179, 4.000000, 4.000000, 4.000000, 4.000000, 4.000000, 4.000000, 4.000000, 4.000000, 4.000000, 4.000000, 4.000000, 4.000000, 4.000000, 4.000000, 4.000000, 4.000000
73.000000, 0.000000, 4672.307617, 4477.948730, 4591.281738, 4616.410156, 4628.205078, 4616.410156, 4590.256348, 4617.435547, 4203.589844, 4569.230469, 4639.487305, 4675.897461, 4675.897461, 4889.743652, 2954.000000, 8235.000000, 8123.000000, 0.000000, 0.000000, 0.000000, 24874.000000, 27.692307, 4.000000, 4.000000, 4.000000, 4.000000, 4.000000, 4.000000, 4.000000, 4.000000, 4.000000, 4.000000, 4.000000, 4.000000, 4.000000, 4.000000, 4.000000, 4.000000
74.000000, 0.000000, 4677.948730, 4473.333008, 4588.205078, 4614.358887, 4619.487305, 4613.333008, 4591.794922, 4617.948730, 4201.025391, 4580.512695, 4640.000000, 4666.666504, 4681.025391, 4923.589844, 3524.000000, 8235.000000, 8123.000000, 0.000000, 0.000000, 0.000000, 24874.000000, 35.384613, 4.000000, 4.000000, 4.000000, 4.000000, 4.000000, 4.000000, 4.000000, 4.000000, 4.000000, 4.000000, 4.000000, 4.000000, 4.000000, 4.000000, 4.000000, 4.000000
75.000000, 0.000000, 4689.230469, 4466.153809, 4588.717773, 4613.333008, 4608.717773, 4610.256348, 4597.435547, 4625.127930, 4209.230469, 4579.487305, 4635.384277, 4657.435547, 4688.205078, 4976.410156, 3509.000000, 8237.000000, 8125.000000, 0.000000, 0.000000, 0.000000, 24874.000000, 43.589741, 4.000000, 4.000000, 4.000000, 4.000000, 4.000000, 4.000000, 4.000000, 4.000000, 4.000000, 4.000000, 4.000000, 4.000000, 4.000000, 4.000000, 4.000000, 4.000000
76.000000, 0.000000, 4706.666504, 4465.641113, 4593.846191, 4613.333008, 4615.897461, 4611.281738, 4602.563965, 4633.333008, 4210.256348, 4571.281738, 4631.281738, 4665.127930, 4684.102539, 4964.102539, 3483.000000, 8237.000000, 8125.000000, 0.000000, 0.000000, 0.000000, 24874.000000, 51.282051, 4.000000, 4.000000, 4.000000, 4.000000, 4.000000, 4.000000, 4.000000, 4.000000, 4.000000, 4.000000, 4.000000, 4.000000, 4.000000, 4.000000, 4.000000, 4.000000
77.000000, 0.000000, 4697.948730, 4473.846191, 4595.897461, 4613.333008, 4623.589844, 4614.871582, 4598.461426, 4631.281738, 4208.205078, 4571.794922, 4640.000000, 4668.717773, 4683.076660, 4973.846191, 3418.000000, 8238.000000, 8138.000000, 0.000000, 0.000000, 0.000000, 24874.000000, 58.974358, 4.000000, 4.000000, 4.000000, 4.000000, 4.000000, 4.000000, 4.000000, 4.000000, 4.000000, 4.000000, 4.000000, 4.000000, 4.000000, 4.000000, 4.000000, 4.000000
78.000000, 0.000000, 4685.641113, 4478.461426, 4597.948730, 4613.333008, 4622.563965, 4614.871582, 4591.794922, 4624.615234, 4211.794922, 4577.435547, 4644.615234, 4666.153809, 4685.641113, 5014.871582, 3524.000000, 8238.000000, 8138.000000, 0.000000, 0.000000, 0.000000, 24874.000000, 66.666664, 4.000000, 4.000000, 4.000000, 4.000000, 4.000000, 4.000000, 4.000000, 4.000000, 4.000000, 4.000000, 4.000000, 4.000000, 4.000000, 4.000000, 4.000000, 4.000000
79.000000, 0.000000, 4697.948730, 4470.769043, 4593.846191, 4610.256348, 4613.333008, 4607.179199, 4585.641113, 4617.948730, 4208.717773, 4572.307617, 4631.794922, 4662.051270, 4678.461426, 5017.435547, 3509.000000, 8235.000000, 8140.000000, 0.000000, 0.000000, 0.000000, 24874.000000, 74.871796, 4.000000, 4.000000, 4.000000, 4.000000, 4.000000, 4.000000, 4.000000, 4.000000, 4.000000, 4.000000, 4.000000, 4.000000, 4.000000, 4.000000, 4.000000, 4.000000
80.000000, 0.000000, 4703.589844, 4457.435547, 4583.076660, 4602.563965, 4597.435547, 4596.410156, 4574.871582, 4605.127930, 4203.589844, 4555.384277, 4615.384277, 4654.871582, 4655.897461, 5015.384277, 3483.000000, 8235.000000, 8140.000000, 0.000000, 0.000000, 0.000000, 24874.000000, 82.564102, 4.000000, 4.000000, 4.000000, 4.000000, 4.000000, 4.000000, 4.000000, 4.000000, 4.000000, 4.000000, 4.000000, 4.000000, 4.000000, 4.000000, 4.000000, 4.000000
81.000000, 0.000000, 4703.076660, 4455.384277, 4576.922852, 4596.410156, 4600.512695, 4598.974121, 4567.692383, 4597.435547, 4207.692383, 4551.281738, 4614.871582, 4650.256348, 4647.692383, 5030.256348, 3418.000000, 8228.000000, 8146.000000, 0.000000, 0.000000, 0.000000, 24874.000000, 90.256409, 4.000000, 4.000000, 4.000000, 4.000000, 4.000000, 4.000000, 4.000000, 4.000000, 4.000000, 4.000000, 4.000000, 4.000000, 4.000000, 4.000000, 4.000000, 4.000000
82.000000, 0.000000, 4708.717773, 4461.538574, 4576.410156, 4597.435547, 4611.794922, 4601.538574, 4572.307617, 4601.025391, 4210.769043, 4561.025391, 4620.000000, 4643.589844, 4660.000000, 5043.076660, 3524.000000, 8228.000000, 8146.000000, 0.000000, 0.000000, 0.000000, 24874.000000, 97.948715, 4.000000, 4.000000, 4.000000, 4.000000, 4.000000, 4.000000, 4.000000, 4.000000, 4.000000, 4.000000, 4.000000, 4.000000, 4.000000, 4.000000, 4.000000, 4.000000
83.000000, 0.000000, 4700.512695, 4452.820313, 4577.435547, 4596.922852, 4601.025391, 4589.230469, 4574.871582, 4595.384277, 4203.589844, 4549.743652, 4607.692383, 4632.307617, 4652.307617, 5070.769043, 3509.000000, 8211.000000, 8162.000000, 0.000000, 0.000000, 0.000000, 24874.000000, 106.153847, 4.000000, 4.000000, 4.000000, 4.000000, 4.000000, 4.000000, 4.000000, 4.000000, 4.000000, 4.000000, 4.000000, 4.000000, 4.000000, 4.000000, 4.000000, 4.000000
84.000000, 0.000000, 4697.948730, 4443.076660, 4576.410156, 4591.794922, 4586.666504, 4585.641113, 4565.641113, 4585.641113, 4204.615234, 4532.307617, 4595.384277, 4624.615234, 4632.820313, 5095.384277, 3483.000000, 8211.000000, 8162.000000, 0.000000, 0.000000, 0.000000, 24874.000000, 113.846153, 4.000000, 4.000000, 4.000000, 4.000000, 4.000000, 4.000000, 4.000000, 4.000000, 4.000000, 4.000000, 4.000000, 4.000000, 4.000000, 4.000000, 4.000000, 4.000000
85.000000, 0.000000, 4717.948730, 4445.641113, 4574.871582, 4586.153809, 4583.589844, 4587.692383, 4557.435547, 4585.127930, 4207.179199, 4537.435547, 4596.410156, 4619.487305, 4631.794922, 5098.974121, 3418.000000, 8196.000000, 8172.000000, 0.000000, 0.000000, 0.000000, 24874.000000, 122.051277, 4.000000, 4.000000, 4.000000, 4.000000, 4.000000, 4.000000, 4.000000, 4.000000, 4.000000, 4.000000, 4.000000, 4.000000, 4.000000, 4.000000, 4.000000, 4.000000
86.000000, 0.000000, 4724.102539, 4441.538574, 4572.307617, 4587.692383, 4584.102539, 4575.897461, 4552.820313, 4578.461426, 4204.615234, 4537.948730, 4594.358887, 4619.487305, 4632.820313, 5123.076660, 3524.000000, 8196.000000, 8172.000000, 0.000000, 0.000000, 0.000000, 24874.000000, 129.743591, 4.000000, 4.000000, 4.000000, 4.000000, 4.000000, 4.000000, 4.000000, 4.000000, 4.000000, 4.000000, 4.000000, 4.000000, 4.000000, 4.000000, 4.000000, 4.000000
87.000000, 0.000000, 4727.692383, 4438.974121, 4568.717773, 4589.743652, 4587.179199, 4572.307617, 4551.794922, 4575.384277, 4208.717773, 4533.333008, 4595.897461, 4626.666504, 4627.179199, 5153.846191, 3509.000000, 8191.000000, 8206.000000, 0.000000, 0.000000, 0.000000, 24874.000000, 137.948715, 4.000000, 4.000000, 4.000000, 4.000000, 4.000000, 4.000000, 4.000000, 4.000000, 4.000000, 4.000000, 4.000000, 4.000000, 4.000000, 4.000000, 4.000000, 4.000000
88.000000, 0.000000, 4752.820313, 4446.153809, 4561.538574, 4587.179199, 4592.307617, 4582.051270, 4553.333008, 4583.076660, 4214.871582, 4532.820313, 4602.051270, 4623.589844, 4629.743652, 5176.922852, 3483.000000, 8191.000000, 8206.000000, 0.000000, 0.000000, 0.000000, 24874.000000, 145.641022, 4.000000, 4.000000, 4.000000, 4.000000, 4.000000, 4.000000, 4.000000, 4.000000, 4.000000, 4.000000, 4.000000, 4.000000, 4.000000, 4.000000, 4.000000, 4.000000
89.000000, 0.000000, 4765.641113, 4443.589844, 4553.846191, 4586.153809, 4588.205078, 4577.948730, 4549.743652, 4581.025391, 4211.794922, 4525.127930, 4591.794922, 4614.358887, 4627.692383, 5203.076660, 3418.000000, 8182.000000, 8225.000000, 0.000000, 0.000000, 0.000000, 24874.000000, 153.333328, 4.000000, 4.000000, 4.000000, 4.000000, 4.000000, 4.000000, 4.000000, 4.000000, 4.000000, 4.000000, 4.000000, 4.000000, 4.000000, 4.000000, 4.000000, 4.000000
90.000000, 0.000000, 4763.589844, 4432.820313, 4558.461426, 4584.615234, 4574.358887, 4565.127930, 4542.051270, 4571.794922, 4211.281738, 4526.666504, 4578.974121, 4616.410156, 4615.384277, 5204.102539, 3524.000000, 8182.000000, 8225.000000, 0.000000, 0.000000, 0.000000, 24874.000000, 161.538452, 4.000000, 4.000000, 4.000000, 4.000000, 4.000000, 4.000000, 4.000000, 4.000000, 4.000000, 4.000000, 4.000000, 4.000000, 4.000000, 4.000000, 4.000000, 4.000000
91.000000, 0.000000, 4764.615234, 4426.153809, 4566.153809, 4587.692383, 4573.846191, 4569.743652, 4539.487305, 4573.846191, 4215.897461, 4537.435547, 4589.230469, 4618.974121, 4620.512695, 5212.820313, 3509.000000, 8176.000000, 8268.000000, 0.000000, 0.000000, 0.000000, 24874.000000, 169.230759, 4.000000, 4.000000, 4.000000, 4.000000, 4.000000, 4.000000, 4.000000, 4.000000, 4.000000, 4.000000, 4.000000, 4.000000, 4.000000, 4.000000, 4.000000, 4.000000
92.000000, 0.000000, 4776.922852, 4425.127930, 4561.025391, 4588.717773, 4581.538574, 4573.333008, 4541.025391, 4575.897461, 4212.307617, 4530.256348, 4599.487305, 4611.794922, 4629.743652, 5261.538574, 3483.000000, 8176.000000, 8268.000000, 0.000000, 0.000000, 0.000000, 24874.000000, 177.435898, 4.000000, 4.000000, 4.000000, 4.000000, 4.000000, 4.000000, 4.000000, 4.000000, 4.000000, 4.000000, 4.000000, 4.000000, 4.000000, 4.000000, 4.000000, 4.000000
93.000000, 0.000000, 4812.820313, 4427.692383, 4544.615234, 4576.410156, 4577.435547, 4560.000000, 4533.846191, 4561.538574, 4200.512695, 4518.974121, 4589.743652, 4601.025391, 4621.538574, 5288.717773, 3418.000000, 8170.000000, 8281.000000, 0.000000, 0.000000, 0.000000, 24874.000000, 185.128204, 4.000000, 4.000000, 4.000000, 4.000000, 4.000000, 4.000000, 4.000000, 4.000000, 4.000000, 4.000000, 4.000000, 4.000000, 4.000000, 4.000000, 4.000000, 4.000000
94.000000, 0.000000, 4834.871582, 4422.051270, 4536.922852, 4565.127930, 4567.692383, 4551.794922, 4523.076660, 4548.205078, 4200.512695, 4522.563965, 4581.025391, 4596.410156, 4614.358887, 5294.358887, 3524.000000, 8170.000000, 8281.000000, 0.000000, 0.000000, 0.000000, 24874.000000, 193.333328, 4.000000, 4.000000, 4.000000, 4.000000, 4.000000, 4.000000, 4.000000, 4.000000, 4.000000, 4.000000, 4.000000, 4.000000, 4.000000, 4.000000, 4.000000, 4.000000
95.000000, 0.000000, 4820.000000, 4414.871582, 4542.051270, 4573.333008, 4567.179199, 4554.358887, 4521.025391, 4554.358887, 4210.256348, 4522.563965, 4584.102539, 4599.487305, 4617.435547, 5338.461426, 3509.000000, 8168.000000, 8292.000000, 0.000000, 0.000000, 0.000000, 24874.000000, 201.025635, 4.000000, 4.000000, 4.000000, 4.000000, 4.000000, 4.000000, 4.000000, 4.000000, 4.000000, 4.000000, 4.000000, 4.000000, 4.000000, 4.000000, 4.000000, 4.000000
96.000000, 0.000000, 4835.897461, 4422.563965, 4540.000000, 4579.487305, 4572.820313, 4556.410156, 4524.102539, 4565.127930, 4215.384277, 4522.563965, 4585.127930, 4601.538574, 4620.512695, 5386.153809, 3483.000000, 8168.000000, 8292.000000, 0.000000, 0.000000, 0.000000, 24874.000000, 209.230759, 4.000000, 4.000000, 4.000000, 4.000000, 4.000000, 4.000000, 4.000000, 4.000000, 4.000000, 4.000000, 4.000000, 4.000000, 4.000000, 4.000000, 4.000000, 4.000000
97.000000, 0.000000, 4897.948730, 4426.666504, 4534.358887, 4575.384277, 4574.871582, 4555.897461, 4524.615234, 4562.051270, 4213.333008, 4527.179199, 4587.692383, 4600.512695, 4616.922852, 5396.922852, 3418.000000, 8174.000000, 8315.000000, 0.000000, 0.000000, 0.000000, 24874.000000, 216.923065, 4.000000, 4.000000, 4.000000, 4.000000, 4.000000, 4.000000, 4.000000, 4.000000, 4.000000, 4.000000, 4.000000, 4.000000, 4.000000, 4.000000, 4.000000, 4.000000
98.000000, 0.000000, 4918.461426, 4416.922852, 4540.512695, 4573.846191, 4571.794922, 4553.846191, 4520.000000, 4558.461426, 4213.333008, 4522.563965, 4589.230469, 4600.512695, 4612.307617, 5412.820313, 3524.000000, 8174.000000, 8315.000000, 0.000000, 0.000000, 0.000000, 24874.000000, 224.615372, 4.000000, 4.000000, 4.000000, 4.000000, 4.000000, 4.000000, 4.000000, 4.000000, 4.000000, 4.000000, 4.000000, 4.000000, 4.000000, 4.000000, 4.000000, 4.000000
99.000000, 0.000000, 4909.743652, 4413.333008, 4546.666504, 4576.410156, 4565.641113, 4547.692383, 4520.000000, 4561.025391, 4214.871582, 4523.589844, 4589.743652, 4599.487305, 4618.461426, 5466.666504, 3509.000000, 8176.000000, 8323.000000, 0.000000, 0.000000, 0.000000, 24874.000000, 232.820511, 4.000000, 4.000000, 4.000000, 4.000000, 4.000000, 4.000000, 4.000000, 4.000000, 4.000000, 4.000000, 4.000000, 4.000000, 4.000000, 4.000000, 4.000000, 4.000000
100.000000, 0.000000, 4943.076660, 4421.538574, 4544.102539, 4577.948730, 4570.256348, 4547.692383, 4520.000000, 4557.948730, 4213.333008, 4528.205078, 4592.307617, 4598.974121, 4625.127930, 5518.974121, 3483.000000, 8176.000000, 8323.000000, 0.000000, 0.000000, 0.000000, 24874.000000, 240.512817, 4.000000, 4.000000, 4.000000, 4.000000, 4.000000, 4.000000, 4.000000, 4.000000, 4.000000, 4.000000, 4.000000, 4.000000, 4.000000, 4.000000, 4.000000, 4.000000
101.000000, 0.000000, 4977.948730, 4425.641113, 4537.948730, 4575.384277, 4575.897461, 4552.820313, 4513.846191, 4553.846191, 4212.820313, 4526.153809, 4593.333008, 4601.025391, 4622.051270, 5538.974121, 3418.000000, 8184.000000, 8335.000000, 0.000000, 0.000000, 0.000000, 24874.000000, 248.205124, 4.000000, 4.000000, 4.000000, 4.000000, 4.000000, 4.000000, 4.000000, 4.000000, 4.000000, 4.000000, 4.000000, 4.000000, 4.000000, 4.000000, 4.000000, 4.000000
102.000000, 0.000000, 4968.717773, 4425.641113, 4534.871582, 4575.384277, 4568.717773, 4543.076660, 4509.230469, 4552.307617, 4212.307617, 4523.076660, 4596.410156, 4596.410156, 4630.256348, 5559.486816, 3524.000000, 8184.000000, 8335.000000, 0.000000, 0.000000, 0.000000, 24874.000000, 255.897430, 4.000000, 4.000000, 4.000000, 4.000000, 4.000000, 4.000000, 4.000000, 4.000000, 4.000000, 4.000000, 4.000000, 4.000000, 4.000000, 4.000000, 4.000000, 4.000000
103.000000, 0.000000, 4978.974121, 4426.666504, 4543.076660, 4581.025391, 4567.692383, 4542.051270, 4515.897461, 4554.871582, 4210.769043, 4522.051270, 4605.127930, 4593.333008, 4638.461426, 5585.641113, 3509.000000, 8189.000000, 8333.000000, 0.000000, 0.000000, 0.000000, 24874.000000, 264.102570, 4.000000, 4.000000, 4.000000, 4.000000, 4.000000, 4.000000, 4.000000, 4.000000, 4.000000, 4.000000, 4.000000, 4.000000, 4.000000, 4.000000, 4.000000, 4.000000
104.000000, 0.000000, 5016.922852, 4422.563965, 4545.127930, 4583.589844, 4579.487305, 4563.076660, 4526.666504, 4556.922852, 4213.333008, 4525.127930, 4605.641113, 4593.846191, 4625.127930, 5611.794922, 3483.000000, 8189.000000, 8333.000000, 0.000000, 0.000000, 0.000000, 24874.000000, 271.794861, 4.000000, 4.000000, 4.000000, 4.000000, 4.000000, 4.000000, 4.000000, 4.000000, 4.000000, 4.000000, 4.000000, 4.000000, 4.000000, 4.000000, 4.000000, 4.000000
105.000000, 0.000000, 5026.666504, 4425.127930, 4541.025391, 4582.051270, 4588.717773, 4568.717773, 4527.179199, 4552.820313, 4216.410156, 4531.794922, 4598.461426, 4590.769043, 4620.000000, 5646.153809, 3418.000000, 8194.000000, 8334.000000, 0.000000, 0.000000, 0.000000, 24874.000000, 279.487183, 4.000000, 4.000000, 4.000000, 4.000000, 4.000000, 4.000000, 4.000000, 4.000000, 4.000000, 4.000000, 4.000000, 4.000000, 4.000000, 4.000000, 4.000000, 4.000000
106.000000, 0.000000, 5031.794922, 4430.769043, 4544.102539, 4580.512695, 4584.102539, 4554.358887, 4523.076660, 4562.563965, 4217.948730, 4536.410156, 4601.025391, 4585.641113, 4637.948730, 5671.281738, 3524.000000, 8194.000000, 8334.000000, 0.000000, 0.000000, 0.000000, 24874.000000, 287.692291, 4.000000, 4.000000, 4.000000, 4.000000, 4.000000, 4.000000, 4.000000, 4.000000, 4.000000, 4.000000, 4.000000, 4.000000, 4.000000, 4.000000, 4.000000, 4.000000
107.000000, 0.000000, 5059.486816, 4426.666504, 4541.025391, 4580.512695, 4569.743652, 4551.281738, 4521.538574, 4577.948730, 4218.461426, 4535.897461, 4611.281738, 4582.563965, 4650.769043, 5697.435547, 3509.000000, 8210.000000, 8320.000000, 0.000000, 0.000000, 0.000000, 24874.000000, 295.384613, 4.000000, 4.000000, 4.000000, 4.000000, 4.000000, 4.000000, 4.000000, 4.000000, 4.000000, 4.000000, 4.000000, 4.000000, 4.000000, 4.000000, 4.000000, 4.000000
108.000000, 0.000000, 5090.769043, 4428.717773, 4536.410156, 4584.102539, 4570.769043, 4553.333008, 4513.333008, 4562.563965, 4216.410156, 4528.717773, 4618.461426, 4585.127930, 4653.333008, 5723.076660, 3483.000000, 8210.000000, 8320.000000, 0.000000, 0.000000, 0.000000, 24874.000000, 303.076904, 4.000000, 4.000000, 4.000000, 4.000000, 4.000000, 4.000000, 4.000000, 4.000000, 4.000000, 4.000000, 4.000000, 4.000000, 4.000000, 4.000000, 4.000000, 4.000000
109.000000, 0.000000, 5121.025391, 4442.051270, 4543.589844, 4591.794922, 4590.256348, 4549.230469, 4505.127930, 4546.666504, 4213.846191, 4526.666504, 4618.461426, 4593.333008, 4661.538574, 5738.461426, 3418.000000, 8214.000000, 8306.000000, 0.000000, 0.000000, 0.000000, 24874.000000, 310.769226, 4.000000, 4.000000, 4.000000, 4.000000, 4.000000, 4.000000, 4.000000, 4.000000, 4.000000, 4.000000, 4.000000, 4.000000, 4.000000, 4.000000, 4.000000, 4.000000
110.000000, 0.000000, 5132.820313, 4444.102539, 4546.153809, 4588.717773, 4594.358887, 4550.256348, 4515.384277, 4558.461426, 4214.358887, 4533.333008, 4610.769043, 4594.358887, 4663.076660, 5775.897461, 3524.000000, 8214.000000, 8306.000000, 0.000000, 0.000000, 0.000000, 24874.000000, 318.974365, 4.000000, 4.000000, 4.000000, 4.000000, 4.000000, 4.000000, 4.000000, 4.000000, 4.000000, 4.000000, 4.000000, 4.000000, 4.000000, 4.000000, 4.000000, 4.000000
111.000000, 0.000000, 5124.615234, 4436.410156, 4542.051270, 4586.153809, 4589.230469, 4554.358887, 4523.589844, 4557.435547, 4215.897461, 4537.435547, 4615.897461, 4591.794922, 4665.127930, 5821.025391, 3509.000000, 8205.000000, 8274.000000, 0.000000, 0.000000, 0.000000, 24874.000000, 327.179474, 4.000000, 4.000000, 4.000000, 4.000000, 4.000000, 4.000000, 4.000000, 4.000000, 4.000000, 4.000000, 4.000000, 4.000000, 4.000000, 4.000000, 4.000000, 4.000000
112.000000, 0.000000, 5136.922852, 4440.000000, 4546.153809, 4591.794922, 4590.256348, 4553.333008, 4510.256348, 4536.410156, 4214.871582, 4533.333008, 4627.692383, 4595.897461, 4672.820313, 5813.333008, 3483.000000, 8205.000000, 8274.000000, 0.000000, 0.000000, 0.000000, 24874.000000, 334.871796, 4.000000, 4.000000, 4.000000, 4.000000, 4.000000, 4.000000, 4.000000, 4.000000, 4.000000, 4.000000, 4.000000, 4.000000, 4.000000, 4.000000, 4.000000, 4.000000
113.000000, 0.000000, 5156.922852, 4448.205078, 4545.127930, 4591.794922, 4587.692383, 4551.281738, 4508.205078, 4537.948730, 4213.333008, 4527.179199, 4617.948730, 4592.820313, 4669.743652, 5796.410156, 3418.000000, 8194.000000, 8258.000000, 0.000000, 0.000000, 0.000000, 24874.000000, 342.564087, 4.000000, 4.000000, 4.000000, 4.000000, 4.000000, 4.000000, 4.000000, 4.000000, 4.000000, 4.000000, 4.000000, 4.000000, 4.000000, 4.000000, 4.000000, 4.000000
114.000000, 0.000000, 5164.102539, 4451.794922, 4539.487305, 4594.358887, 4589.743652, 4553.846191, 4522.563965, 4556.922852, 4215.384277, 4520.512695, 4609.230469, 4586.153809, 4669.743652, 5838.461426, 3524.000000, 8194.000000, 8258.000000, 0.000000, 0.000000, 0.000000, 24874.000000, 350.256409, 4.000000, 4.000000, 4.000000, 4.000000, 4.000000, 4.000000, 4.000000, 4.000000, 4.000000, 4.000000, 4.000000, 4.000000, 4.000000, 4.000000, 4.000000, 4.000000
115.000000, 0.000000, 5192.820313, 4461.538574, 4563.076660, 4602.563965, 4605.641113, 4557.948730, 4525.641113, 4558.461426, 4218.461426, 4523.076660, 4623.589844, 4600.512695, 4683.076660, 5870.769043, 3509.000000, 8175.000000, 8244.000000, 0.000000, 0.000000, 0.000000, 24874.000000, 358.461517, 4.000000, 4.000000, 4.000000, 4.000000, 4.000000, 4.000000, 4.000000, 4.000000, 4.000000, 4.000000, 4.000000, 4.000000, 4.000000, 4.000000, 4.000000, 4.000000
116.000000, 0.000000, 5230.256348, 4464.615234, 4598.461426, 4603.076660, 4610.256348, 4556.410156, 4520.512695, 4550.769043, 4214.871582, 4536.410156, 4629.230469, 4602.563965, 4691.281738, 5867.692383, 3483.000000, 8175.000000, 8244.000000, 0.000000, 0.000000, 0.000000, 24874.000000, 366.153839, 4.000000, 4.000000, 4.000000, 4.000000, 4.000000, 4.000000, 4.000000, 4.000000, 4.000000, 4.000000, 4.000000, 4.000000, 4.000000, 4.000000, 4.000000, 4.000000
117.000000, 0.000000, 5241.538574, 4453.333008, 4607.692383, 4598.974121, 4594.871582, 4553.333008, 4521.538574, 4553.333008, 4213.333008, 4534.358887, 4615.897461, 4585.127930, 4681.538574, 5877.435547, 3418.000000, 8152.000000, 8201.000000, 0.000000, 0.000000, 0.000000, 24874.000000, 373.846130, 4.000000, 4.000000, 4.000000, 4.000000, 4.000000, 4.000000, 4.000000, 4.000000, 4.000000, 4.000000, 4.000000, 4.000000, 4.000000, 4.000000, 4.000000, 4.000000
118.000000, 0.000000, 5238.974121, 4452.307617, 4604.102539, 4595.384277, 4591.794922, 4554.358887, 4523.076660, 4559.487305, 4216.922852, 4521.538574, 4611.281738, 4589.743652, 4672.820313, 5874.358887, 3524.000000, 8152.000000, 8201.000000, 0.000000, 0.000000, 0.000000, 24874.000000, 382.051270, 4.000000, 4.000000, 4.000000, 4.000000, 4.000000, 4.000000, 4.000000, 4.000000, 4.000000, 4.000000, 4.000000, 4.000000, 4.000000, 4.000000, 4.000000, 4.000000
119.000000, 0.000000, 5241.538574, 4460.512695, 4600.512695, 4589.230469, 4595.897461, 4553.333008, 4521.538574, 4555.384277, 4216.922852, 4518.461426, 4613.846191, 4600.512695, 4674.358887, 5866.153809, 3509.000000, 8142.000000, 8190.000000, 0.000000, 0.000000, 0.000000, 24874.000000, 389.743591, 4.000000, 4.000000, 4.000000, 4.000000, 4.000000, 4.000000, 4.000000, 4.000000, 4.000000, 4.000000, 4.000000, 4.000000, 4.000000, 4.000000, 4.000000, 4.000000
120.000000, 0.000000, 5249.743652, 4461.025391, 4586.666504, 4585.641113, 4593.846191, 4550.256348, 4521.025391, 4554.871582, 4215.384277, 4520.000000, 4614.871582, 4588.717773, 4681.538574, 5884.102539, 3483.000000, 8142.000000, 8190.000000, 0.000000, 0.000000, 0.000000, 24874.000000, 397.948700, 4.000000, 4.000000, 4.000000, 4.000000, 4.000000, 4.000000, 4.000000, 4.000000, 4.000000, 4.000000, 4.000000, 4.000000, 4.000000, 4.000000, 4.000000, 4.000000
121.000000, 0.000000, 5254.358887, 4457.948730, 4581.025391, 4585.127930, 4590.256348, 4552.307617, 4523.076660, 4563.589844, 4216.410156, 4521.538574, 4612.307617, 4582.051270, 4682.051270, 5901.538086, 3418.000000, 8132.000000, 8185.000000, 0.000000, 0.000000, 0.000000, 24874.000000, 406.153839, 4.000000, 4.000000, 4.000000, 4.000000, 4.000000, 4.000000, 4.000000, 4.000000, 4.000000, 4.000000, 4.000000, 4.000000, 4.000000, 4.000000, 4.000000, 4.000000
122.000000, 0.000000, 5247.179199, 4453.333008, 4584.615234, 4582.051270, 4582.563965, 4556.410156, 4526.666504, 4559.487305, 4215.897461, 4522.563965, 4602.563965, 4587.692383, 4668.717773, 5889.230469, 3524.000000, 8132.000000, 8185.000000, 0.000000, 0.000000, 0.000000, 24874.000000, 413.846130, 4.000000, 4.000000, 4.000000, 4.000000, 4.000000, 4.000000, 4.000000, 4.000000, 4.000000, 4.000000, 4.000000, 4.000000, 4.000000, 4.000000, 4.000000, 4.000000
123.000000, 0.000000, 5256.410156, 4455.384277, 4582.563965, 4583.589844, 4588.205078, 4556.410156, 4526.153809, 4551.281738, 4215.384277, 4520.000000, 4598.461426, 4577.435547, 4662.563965, 5869.230469, 3509.000000, 8136.000000, 8192.000000, 0.000000, 0.000000, 0.000000, 24874.000000, 421.538452, 4.000000, 4.000000, 4.000000, 4.000000, 4.000000, 4.000000, 4.000000, 4.000000, 4.000000, 4.000000, 4.000000, 4.000000, 4.000000, 4.000000, 4.000000, 4.000000
124.000000, 0.000000, 5274.358887, 4460.512695, 4576.922852, 4587.179199, 4601.025391, 4553.846191, 4522.563965, 4562.051270, 4217.948730, 4519.487305, 4604.615234, 4562.563965, 4665.127930, 5863.076660, 3483.000000, 8136.000000, 8192.000000, 0.000000, 0.000000, 0.000000, 24874.000000, 429.743591, 4.000000, 4.000000, 4.000000, 4.000000, 4.000000, 4.000000, 4.000000, 4.000000, 4.000000, 4.000000, 4.000000, 4.000000, 4.000000, 4.000000, 4.000000, 4.000000
125.000000, 0.000000, 5271.281738, 4458.461426, 4578.461426, 4584.102539, 4596.922852, 4553.846191, 4525.127930, 4567.692383, 4216.410156, 4520.512695, 4600.000000, 4564.102539, 4653.846191, 5863.076660, 3418.000000, 8142.000000, 8194.000000, 0.000000, 0.000000, 0.000000, 24874.000000, 437.435883, 4.000000, 4.000000, 4.000000, 4.000000, 4.000000, 4.000000, 4.000000, 4.000000, 4.000000, 4.000000, 4.000000, 4.000000, 4.000000, 4.000000, 4.000000, 4.000000
126.000000, 0.000000, 5265.641113, 4456.410156, 4584.102539, 4584.102539, 4584.102539, 4551.281738, 4523.589844, 4549.230469, 4213.846191, 4514.358887, 4593.333008, 4564.615234, 4641.538574, 5859.486816, 3524.000000, 8142.000000, 8194.000000, 0.000000, 0.000000, 0.000000, 24874.000000, 445.641022, 4.000000, 4.000000, 4.000000, 4.000000, 4.000000, 4.000000, 4.000000, 4.000000, 4.000000, 4.000000, 4.000000, 4.000000, 4.000000, 4.000000, 4.000000, 4.000000
127.000000, 0.000000, 5267.692383, 4461.025391, 4581.538574, 4589.230469, 4585.641113, 4545.641113, 4509.743652, 4536.922852, 4215.897461, 4506.666504, 4596.922852, 4560.512695, 4649.743652, 5854.871582, 57.000000, 8145.000000, 8184.000000, 0.000000, 0.000000, 0.000000, 24874.000000, 453.333313, 4.000000, 4.000000, 4.000000, 4.000000, 4.000000, 4.000000, 4.000000, 4.000000, 4.000000, 4.000000, 4.000000, 4.000000, 4.000000, 4.000000, 4.000000, 4.000000
0.000000, 0.000000, 5265.127930, 4460.512695, 4576.410156, 4581.538574, 4589.230469, 4542.051270, 4504.615234, 4536.922852, 4217.436035, 4506.153809, 4596.410156, 4566.153809, 4652.820313, 5861.025391, 2990.000000, 8145.000000, 8184.000000, 0.000000, 0.000000, 0.000000, 24874.000000, 461.025635, 4.000000, 4.000000, 4.000000, 4.000000, 4.000000, 4.000000, 4.000000, 4.000000, 4.000000, 4.000000, 4.000000, 4.000000, 4.000000, 4.000000, 4.000000, 4.000000
1.000000, 0.000000, 5259.486816, 4454.871582, 4569.230469, 4568.717773, 4581.025391, 4541.025391, 4510.256348, 4535.384277, 4215.897461, 4508.205078, 4587.179199, 4569.230469, 4630.256348, 5851.281738, 3475.000000, 8141.000000, 8176.000000, 0.000000, 0.000000, 0.000000, 24874.000000, 468.717926, 4.000000, 4.000000, 4.000000, 4.000000, 4.000000, 4.000000, 4.000000, 4.000000, 4.000000, 4.000000, 4.000000, 4.000000, 4.000000, 4.000000, 4.000000, 4.000000
2.000000, 0.000000, 5254.871582, 4449.743652, 4560.512695, 4568.205078, 4584.615234, 4539.487305, 4507.692383, 4537.948730, 4215.384277, 4504.102539, 4576.922852, 4554.358887, 4617.948730, 5813.846191, 3438.000000, 8141.000000, 8176.000000, 0.000000, 0.000000, 0.000000, 24874.000000, 476.923065, 4.000000, 4.000000, 4.000000, 4.000000, 4.000000, 4.000000, 4.000000, 4.000000, 4.000000, 4.000000, 4.000000, 4.000000, 4.000000, 4.000000, 4.000000, 4.000000
3.000000, 0.000000, 5250.769043, 4447.692383, 4559.487305, 4566.153809, 4586.666504, 4541.538574, 4506.666504, 4536.922852, 4217.436035, 4492.820313, 4570.769043, 4536.922852, 4624.615234, 5803.589844, 2210.000000, 8138.000000, 8176.000000, 0.000000, 0.000000, 0.000000, 24874.000000, 484.615387, 4.000000, 4.000000, 4.000000, 4.000000, 4.000000, 4.000000, 4.000000, 4.000000, 4.000000, 4.000000, 4.000000, 4.000000, 4.000000, 4.000000, 4.000000, 4.000000
4.000000, 0.000000, 5236.922852, 4450.256348, 4557.435547, 4553.846191, 4570.256348, 4540.512695, 4507.692383, 4526.666504, 4215.897461, 4487.692383, 4570.769043, 4538.461426, 4623.076660, 5819.486816, 3497.000000, 8138.000000, 8176.000000, 0.000000, 0.000000, 0.000000, 24874.000000, 492.307678, 4.000000, 4.000000, 4.000000, 4.000000, 4.000000, 4.000000, 4.000000, 4.000000, 4.000000, 4.000000, 4.000000, 4.000000, 4.000000, 4.000000, 4.000000, 4.000000
5.000000, 0.000000, 5229.230469, 4452.307617, 4553.333008, 4550.256348, 4559.487305, 4530.256348, 4496.410156, 4518.974121, 4214.358887, 4491.794922, 4572.307617, 4548.205078, 4617.948730, 5810.769043, 3527.000000, 8129.000000, 8170.000000, 0.000000, 0.000000, 0.000000, 24874.000000, 500.512817, 4.000000, 4.000000, 4.000000, 4.000000, 4.000000, 4.000000, 4.000000, 4.000000, 4.000000, 4.000000, 4.000000, 4.000000, 4.000000, 4.000000, 4.000000, 4.000000
6.000000, 0.000000, 5236.410156, 4445.641113, 4556.922852, 4552.307617, 4559.487305, 4520.512695, 4491.281738, 4513.333008, 4214.358887, 4491.794922, 4566.153809, 4552.307617, 4620.000000, 5787.179199, 3376.000000, 8129.000000, 8170.000000, 0.000000, 0.000000, 0.000000, 24874.000000, 508.205109, 4.000000, 4.000000, 4.000000, 4.000000, 4.000000, 4.000000, 4.000000, 4.000000, 4.000000, 4.000000, 4.000000, 4.000000, 4.000000, 4.000000, 4.000000, 4.000000
7.000000, 0.000000, 5234.871582, 4438.461426, 4564.102539, 4551.281738, 4560.512695, 4521.538574, 4495.384277, 4504.615234, 4213.333008, 4488.717773, 4568.717773, 4553.333008, 4617.435547, 5774.871582, 3449.000000, 8130.000000, 8144.000000, 0.000000, 0.000000, 0.000000, 24874.000000, 516.410217, 4.000000, 4.000000, 4.000000, 4.000000, 4.000000, 4.000000, 4.000000, 4.000000, 4.000000, 4.000000, 4.000000, 4.000000, 4.000000, 4.000000, 4.000000, 4.000000
8.000000, 0.000000, 5216.410156, 4446.666504, 4558.461426, 4551.794922, 4568.205078, 4527.692383, 4493.846191, 4506.153809, 4215.384277, 4493.333008, 4579.487305, 4553.333008, 4623.076660, 5767.692383, 954.000000, 8130.000000, 8144.000000, 0.000000, 0.000000, 0.000000, 24874.000000, 524.102539, 4.000000, 4.000000, 4.000000, 4.000000, 4.000000, 4.000000, 4.000000, 4.000000, 4.000000, 4.000000, 4.000000, 4.000000, 4.000000, 4.000000, 4.000000, 4.000000
9.000000, 0.000000, 5209.743652, 4452.820313, 4548.717773, 4550.769043, 4575.384277, 4535.384277, 4497.435547, 4515.897461, 4218.461426, 4493.333008, 4577.435547, 4552.820313, 4639.487305, 5762.563965, 2970.000000, 8134.000000, 8137.000000, 0.000000, 0.000000, 0.000000, 24874.000000, 532.307678, 4.000000, 4.000000, 4.000000, 4.000000, 4.000000, 4.000000, 4.000000, 4.000000, 4.000000, 4.000000, 4.000000, 4.000000, 4.000000, 4.000000, 4.000000, 4.000000
10.000000, 0.000000, 5215.384277, 4451.281738, 4555.384277, 4552.307617, 4566.153809, 4540.512695, 4511.281738, 4522.563965, 4217.436035, 4492.820313, 4575.897461, 4556.410156, 4643.076660, 5770.256348, 3531.000000, 8134.000000, 8137.000000, 0.000000, 0.000000, 0.000000, 24874.000000, 540.000000, 4.000000, 4.000000, 4.000000, 4.000000, 4.000000, 4.000000, 4.000000, 4.000000, 4.000000, 4.000000, 4.000000, 4.000000, 4.000000, 4.000000, 4.000000, 4.000000
11.000000, 0.000000, 5212.307617, 4457.435547, 4566.153809, 4562.051270, 4563.589844, 4534.358887, 4513.333008, 4524.102539, 4215.897461, 4498.461426, 4581.025391, 4555.384277, 4645.641113, 5785.127930, 3452.000000, 8142.000000, 8133.000000, 0.000000, 0.000000, 0.000000, 24874.000000, 548.205139, 4.000000, 4.000000, 4.000000, 4.000000, 4.000000, 4.000000, 4.000000, 4.000000, 4.000000, 4.000000, 4.000000, 4.000000, 4.000000, 4.000000, 4.000000, 4.000000
12.000000, 0.000000, 5211.794922, 4458.974121, 4564.102539, 4564.102539, 4571.281738, 4521.538574, 4501.538574, 4519.487305, 4215.897461, 4498.461426, 4577.435547, 4553.846191, 4650.256348, 5771.281738, 3479.000000, 8142.000000, 8133.000000, 0.000000, 0.000000, 0.000000, 24874.000000, 555.897400, 4.000000, 4.000000, 4.000000, 4.000000, 4.000000, 4.000000, 4.000000, 4.000000, 4.000000, 4.000000, 4.000000, 4.000000, 4.000000, 4.000000, 4.000000, 4.000000
13.000000, 0.000000, 5202.563965, 4453.846191, 4558.974121, 4555.897461, 4560.512695, 4518.461426, 4497.435547, 4508.205078, 4213.846191, 4492.307617, 4571.281738, 4551.281738, 4638.461426, 5744.102539, 3431.000000, 8160.000000, 8128.000000, 0.000000, 0.000000, 0.000000, 24874.000000, 563.589722, 4.000000, 4.000000, 4.000000, 4.000000, 4.000000, 4.000000, 4.000000, 4.000000, 4.000000, 4.000000, 4.000000, 4.000000, 4.000000, 4.000000, 4.000000, 4.000000
14.000000, 0.000000, 5176.410156, 4454.871582, 4547.692383, 4552.820313, 4549.743652, 4521.025391, 4502.051270, 4503.076660, 4214.871582, 4485.127930, 4568.205078, 4533.846191, 4634.358887, 5746.666504, 3531.000000, 8160.000000, 8128.000000, 0.000000, 0.000000, 0.000000, 24874.000000, 571.282043, 4.000000, 4.000000, 4.000000, 4.000000, 4.000000, 4.000000, 4.000000, 4.000000, 4.000000, 4.000000, 4.000000, 4.000000, 4.000000, 4.000000, 4.000000, 4.000000
15.000000, 0.000000, 5167.692383, 4447.692383, 4534.358887, 4548.205078, 4549.230469, 4521.538574, 4508.205078, 4516.410156, 4218.461426, 4481.025391, 4562.051270, 4522.563965, 4639.487305, 5740.512695, 3452.000000, 8165.000000, 8129.000000, 0.000000, 0.000000, 0.000000, 24874.000000, 579.487183, 4.000000, 4.000000, 4.000000, 4.000000, 4.000000, 4.000000, 4.000000, 4.000000, 4.000000, 4.000000, 4.000000, 4.000000, 4.000000, 4.000000, 4.000000, 4.000000
16.000000, 0.000000, 5163.076660, 4428.717773, 4532.307617, 4533.846191, 4544.102539, 4528.717773, 4514.358887, 4523.589844, 4217.436035, 4487.179199, 4557.435547, 4532.820313, 4626.666504, 5695.384277, 0.000000, 8165.000000, 8129.000000, 0.000000, 0.000000, 0.000000, 24874.000000, 587.179443, 4.000000, 4.000000, 4.000000, 4.000000, 4.000000, 4.000000, 4.000000, 4.000000, 4.000000, 4.000000, 4.000000, 4.000000, 4.000000, 4.000000, 4.000000, 4.000000
17.000000, 0.000000, 5145.641113, 4432.820313, 4530.769043, 4530.256348, 4544.102539, 4535.384277, 4513.846191, 4512.307617, 4215.384277, 4495.897461, 4558.461426, 4538.461426, 4623.589844, 5675.384277, 0.000000, 8185.000000, 8124.000000, 0.000000, 0.000000, 0.000000, 24874.000000, 594.871765, 4.000000, 4.000000, 4.000000, 4.000000, 4.000000, 4.000000, 4.000000, 4.000000, 4.000000, 4.000000, 4.000000, 4.000000, 4.000000, 4.000000, 4.000000, 4.000000
18.000000, 0.000000, 5156.410156, 4455.897461, 4531.281738, 4544.615234, 4555.384277, 4525.127930, 4505.127930, 4508.205078, 4216.410156, 4494.358887, 4563.589844, 4531.281738, 4637.435547, 5706.666504, 0.000000, 8185.000000, 8124.000000, 0.000000, 0.000000, 0.000000, 24874.000000, 602.564087, 4.000000, 4.000000, 4.000000, 4.000000, 4.000000, 4.000000, 4.000000, 4.000000, 4.000000, 4.000000, 4.000000, 4.000000, 4.000000, 4.000000, 4.000000, 4.000000
19.000000, 0.000000, 5182.051270, 4465.641113, 4541.025391, 4556.922852, 4567.179199, 4519.487305, 4504.615234, 4517.948730, 4216.410156, 4493.846191, 4569.230469, 4535.897461, 4638.461426, 5709.743652, 0.000000, 8194.000000, 8121.000000, 0.000000, 0.000000, 0.000000, 24874.000000, 610.769226, 4.000000, 4.000000, 4.000000, 4.000000, 4.000000, 4.000000, 4.000000, 4.000000, 4.000000, 4.000000, 4.000000, 4.000000, 4.000000, 4.000000, 4.000000, 4.000000
20.000000, 0.000000, 5163.589844, 4470.256348, 4549.230469, 4562.051270, 4569.743652, 4525.641113, 4505.127930, 4509.743652, 4213.846191, 4494.358887, 4563.076660, 4542.563965, 4630.769043, 5666.666504, 0.000000, 8194.000000, 8121.000000, 0.000000, 0.000000, 0.000000, 24874.000000, 618.461548, 4.000000, 4.000000, 4.000000, 4.000000, 4.000000, 4.000000, 4.000000, 4.000000, 4.000000, 4.000000, 4.000000, 4.000000, 4.000000, 4.000000, 4.000000, 4.000000
21.000000, 0.000000, 5140.000000, 4478.461426, 4550.256348, 4566.153809, 4560.000000, 4524.102539, 4492.307617, 4487.692383, 4213.333008, 4486.666504, 4551.794922, 4536.922852, 4627.692383, 5665.641113, 0.000000, 8211.000000, 8109.000000, 0.000000, 0.000000, 0.000000, 24874.000000, 626.153809, 4.000000, 4.000000, 4.000000, 4.000000, 4.000000, 4.000000, 4.000000, 4.000000, 4.000000, 4.000000, 4.000000, 4.000000, 4.000000, 4.000000, 4.000000, 4.000000
22.000000, 0.000000, 5157.948730, 4485.641113, 4551.281738, 4570.769043, 4551.794922, 4520.000000, 4493.333008, 4493.333008, 4214.871582, 4484.102539, 4557.948730, 4535.897461, 4629.230469, 5701.538086, 0.000000, 8211.000000, 8109.000000, 0.000000, 0.000000, 0.000000, 24874.000000, 633.846130, 4.000000, 4.000000, 4.000000, 4.000000, 4.000000, 4.000000, 4.000000, 4.000000, 4.000000, 4.000000, 4.000000, 4.000000, 4.000000, 4.000000, 4.000000, 4.000000
23.000000, 0.000000, 5179.486816, 4493.846191, 4552.820313, 4572.820313, 4563.076660, 4524.615234, 4506.153809, 4507.692383, 4215.384277, 4481.025391, 4561.025391, 4544.102539, 4630.256348, 5693.333008, 0.000000, 8219.000000, 8113.000000, 0.000000, 0.000000, 0.000000, 24874.000000, 642.051270, 4.000000, 4.000000, 4.000000, 4.000000, 4.000000, 4.000000, 4.000000, 4.000000, 4.000000, 4.000000, 4.000000, 4.000000, 4.000000, 4.000000, 4.000000, 4.000000
24.000000, 0.000000, 5166.153809, 4502.563965, 4550.256348, 4572.820313, 4575.897461, 4521.025391, 4502.051270, 4501.025391, 4213.333008, 4474.871582, 4549.230469, 4545.641113, 4623.589844, 5654.358887, 0.000000, 8219.000000, 8113.000000, 0.000000, 0.000000, 0.000000, 24874.000000, 649.743591, 4.000000, 4.000000, 4.000000, 4.000000, 4.000000, 4.000000, 4.000000, 4.000000, 4.000000, 4.000000, 4.000000, 4.000000, 4.000000, 4.000000, 4.000000, 4.000000
25.000000, 0.000000, 5154.358887, 4508.717773, 4544.615234, 4571.794922, 4564.102539, 4509.743652, 4491.794922, 4481.538574, 4212.820313, 4471.794922, 4537.948730, 4530.769043, 4612.820313, 5649.230469, 0.000000, 8224.000000, 8115.000000, 0.000000, 0.000000, 0.000000, 24874.000000, 657.948730, 4.000000, 4.000000, 4.000000, 4.000000, 4.000000, 4.000000, 4.000000, 4.000000, 4.000000, 4.000000, 4.000000, 4.000000, 4.000000, 4.000000, 4.000000, 4.000000
26.000000, 0.000000, 5154.871582, 4501.025391, 4545.641113, 4573.333008, 4542.563965, 4506.666504, 4491.794922, 4477.948730, 4214.871582, 4467.692383, 4527.179199, 4521.538574, 4605.641113, 5643.589844, 0.000000, 8224.000000, 8115.000000, 0.000000, 0.000000, 0.000000, 24874.000000, 665.640991, 4.000000, 4.000000, 4.000000, 4.000000, 4.000000, 4.000000, 4.000000, 4.000000, 4.000000, 4.000000, 4.000000, 4.000000, 4.000000, 4.000000, 4.000000, 4.000000
27.000000, 0.000000, 5144.615234, 4487.692383, 4549.230469, 4571.794922, 4540.512695, 4509.230469, 4495.384277, 4498.461426, 4216.410156, 4461.025391, 4520.000000, 4527.179199, 4595.384277, 5606.153809, 0.000000, 8219.000000, 8111.000000, 0.000000, 0.000000, 0.000000, 24874.000000, 673.846130, 4.000000, 4.000000, 4.000000, 4.000000, 4.000000, 4.000000, 4.000000, 4.000000, 4.000000, 4.000000, 4.000000, 4.000000, 4.000000, 4.000000, 4.000000, 4.000000
28.000000, 0.000000, 5117.948730, 4494.358887, 4540.512695, 4558.974121, 4553.846191, 4509.743652, 4494.358887, 4508.205078, 4215.897461, 4464.102539, 4523.589844, 4528.717773, 4587.179199, 5583.076660, 0.000000, 8219.000000, 8111.000000, 0.000000, 0.000000, 0.000000, 24874.000000, 681.538452, 4.000000, 4.000000, 4.000000, 4.000000, 4.000000, 4.000000, 4.000000, 4.000000, 4.000000, 4.000000, 4.000000, 4.000000, 4.000000, 4.000000, 4.000000, 4.000000
29.000000, 0.000000, 5103.076660, 4506.666504, 4527.692383, 4554.358887, 4559.487305, 4507.692383, 4486.153809, 4494.871582, 4215.384277, 4474.871582, 4525.641113, 4518.974121, 4594.871582, 5590.256348, 0.000000, 8214.000000, 8101.000000, 0.000000, 0.000000, 0.000000, 24874.000000, 689.230774, 4.000000, 4.000000, 4.000000, 4.000000, 4.000000, 4.000000, 4.000000, 4.000000, 4.000000, 4.000000, 4.000000, 4.000000, 4.000000, 4.000000, 4.000000, 4.000000
30.000000, 0.000000, 5109.743652, 4497.948730, 4525.641113, 4556.410156, 4551.281738, 4510.256348, 4477.435547, 4480.512695, 4213.846191, 4471.281738, 4513.846191, 4507.692383, 4596.410156, 5588.717773, 0.000000, 8214.000000, 8101.000000, 0.000000, 0.000000, 0.000000, 24874.000000, 696.923035, 4.000000, 4.000000, 4.000000, 4.000000, 4.000000, 4.000000, 4.000000, 4.000000, 4.000000, 4.000000, 4.000000, 4.000000, 4.000000, 4.000000, 4.000000, 4.000000
31.000000, 0.000000, 5099.486816, 4480.512695, 4524.102539, 4544.102539, 4534.871582, 4503.076660, 4474.871582, 4478.461426, 4212.820313, 4452.820313, 4498.974121, 4504.102539, 4574.871582, 5549.230469, 0.000000, 8214.000000, 8095.000000, 0.000000, 0.000000, 0.000000, 24874.000000, 705.128174, 4.000000, 4.000000, 4.000000, 4.000000, 4.000000, 4.000000, 4.000000, 4.000000, 4.000000, 4.000000, 4.000000, 4.000000, 4.000000, 4.000000, 4.000000, 4.000000
32.000000, 0.000000, 5075.897461, 4478.974121, 4516.410156, 4534.358887, 4528.717773, 4491.281738, 4475.897461, 4474.871582, 4214.358887, 4447.179199, 4501.538574, 4509.743652, 4565.127930, 5516.410156, 0.000000, 8214.000000, 8095.000000, 0.000000, 0.000000, 0.000000, 24874.000000, 712.820496, 4.000000, 4.000000, 4.000000, 4.000000, 4.000000, 4.000000, 4.000000, 4.000000, 4.000000, 4.000000, 4.000000, 4.000000, 4.000000, 4.000000, 4.000000, 4.000000
33.000000, 0.000000, 5072.820313, 4492.820313, 4520.000000, 4547.179199, 4538.461426, 4496.410156, 4479.487305, 4473.333008, 4215.384277, 4458.974121, 4509.230469, 4519.487305, 4586.666504, 5541.025391, 0.000000, 8217.000000, 8090.000000, 0.000000, 0.000000, 0.000000, 24874.000000, 720.512817, 4.000000, 4.000000, 4.000000, 4.000000, 4.000000, 4.000000, 4.000000, 4.000000, 4.000000, 4.000000, 4.000000, 4.000000, 4.000000, 4.000000, 4.000000, 4.000000
34.000000, 0.000000, 5089.230469, 4495.897461, 4534.871582, 4557.435547, 4544.102539, 4502.051270, 4481.538574, 4474.358887, 4214.358887, 4461.538574, 4513.333008, 4531.794922, 4600.000000, 5555.897461, 0.000000, 8217.000000, 8090.000000, 0.000000, 0.000000, 0.000000, 24874.000000, 728.717957, 4.000000, 4.000000, 4.000000, 4.000000, 4.000000, 4.000000, 4.000000, 4.000000, 4.000000, 4.000000, 4.000000, 4.000000, 4.000000, 4.000000, 4.000000, 4.000000
35.000000, 0.000000, 5093.846191, 4483.589844, 4540.512695, 4552.820313, 4537.948730, 4487.692383, 4474.358887, 4470.256348, 4214.871582, 4456.410156, 4511.794922, 4536.922852, 4586.666504, 5516.410156, 0.000000, 8212.000000, 8083.000000, 0.000000, 0.000000, 0.000000, 24874.000000, 736.923035, 4.000000, 4.000000, 4.000000, 4.000000, 4.000000, 4.000000, 4.000000, 4.000000, 4.000000, 4.000000, 4.000000, 4.000000, 4.000000, 4.000000, 4.000000, 4.000000
36.000000, 0.000000, 5080.000000, 4485.127930, 4537.948730, 4551.794922, 4536.922852, 4478.974121, 4474.358887, 4472.820313, 4216.410156, 4457.948730, 4509.230469, 4529.743652, 4586.153809, 5507.692383, 0.000000, 8212.000000, 8083.000000, 0.000000, 0.000000, 0.000000, 24874.000000, 744.615356, 4.000000, 4.000000, 4.000000, 4.000000, 4.000000, 4.000000, 4.000000, 4.000000, 4.000000, 4.000000, 4.000000, 4.000000, 4.000000, 4.000000, 4.000000, 4.000000
37.000000, 0.000000, 5074.358887, 4491.794922, 4538.974121, 4553.333008, 4535.897461, 4490.769043, 4487.692383, 4481.025391, 4216.922852, 4458.461426, 4512.307617, 4523.076660, 4601.025391, 5526.153809, 0.000000, 8225.000000, 8076.000000, 0.000000, 0.000000, 0.000000, 24874.000000, 752.820496, 4.000000, 4.000000, 4.000000, 4.000000, 4.000000, 4.000000, 4.000000, 4.000000, 4.000000, 4.000000, 4.000000, 4.000000, 4.000000, 4.000000, 4.000000, 4.000000
38.000000, 0.000000, 5068.205078, 4485.641113, 4541.025391, 4549.230469, 4532.820313, 4502.563965, 4494.871582, 4480.512695, 4217.436035, 4456.410156, 4516.922852, 4527.179199, 4603.589844, 5501.538086, 0.000000, 8225.000000, 8076.000000, 0.000000, 0.000000, 0.000000, 24874.000000, 760.512817, 4.000000, 4.000000, 4.000000, 4.000000, 4.000000, 4.000000, 4.000000, 4.000000, 4.000000, 4.000000, 4.000000, 4.000000, 4.000000, 4.000000, 4.000000, 4.000000
39.000000, 0.000000, 5056.410156, 4480.512695, 4533.846191, 4542.563965, 4541.538574, 4506.666504, 4492.820313, 4475.384277, 4216.922852, 4460.512695, 4513.846191, 4529.230469, 4598.974121, 5477.435547, 0.000000, 8249.000000, 8080.000000, 0.000000, 0.000000, 0.000000, 24874.000000, 768.205139, 4.000000, 4.000000, 4.000000, 4.000000, 4.000000, 4.000000, 4.000000, 4.000000, 4.000000, 4.000000, 4.000000, 4.000000, 4.000000, 4.000000, 4.000000, 4.000000
40.000000, 0.000000, 5047.692383, 4478.974121, 4521.538574, 4537.435547, 4537.435547, 4507.692383, 4492.307617, 4474.871582, 4216.410156, 4462.051270, 4506.153809, 4518.974121, 4600.000000, 5480.000000, 0.000000, 8249.000000, 8080.000000, 0.000000, 0.000000, 0.000000, 24874.000000, 776.410217, 4.000000, 4.000000, 4.000000, 4.000000, 4.000000, 4.000000, 4.000000, 4.000000, 4.000000, 4.000000, 4.000000, 4.000000, 4.000000, 4.000000, 4.000000, 4.000000
41.000000, 0.000000, 5042.051270, 4477.948730, 4520.512695, 4534.871582, 4524.615234, 4505.641113, 4487.179199, 4476.922852, 4217.436035, 4460.512695, 4504.615234, 4513.333008, 4598.974121, 5456.922852, 0.000000, 8256.000000, 8087.000000, 0.000000, 0.000000, 0.000000, 24874.000000, 784.102539, 4.000000, 4.000000, 4.000000, 4.000000, 4.000000, 4.000000, 4.000000, 4.000000, 4.000000, 4.000000, 4.000000, 4.000000, 4.000000, 4.000000, 4.000000, 4.000000
42.000000, 0.000000, 5030.256348, 4471.794922, 4528.717773, 4535.897461, 4526.153809, 4506.153809, 4477.435547, 4471.794922, 4216.922852, 4462.563965, 4510.256348, 4521.538574, 4602.051270, 5434.358887, 0.000000, 8256.000000, 8087.000000, 0.000000, 0.000000, 0.000000, 24874.000000, 791.794861, 4.000000, 4.000000, 4.000000, 4.000000, 4.000000, 4.000000, 4.000000, 4.000000, 4.000000, 4.000000, 4.000000, 4.000000, 4.000000, 4.000000, 4.000000, 4.000000
43.000000, 0.000000, 5011.794922, 4463.076660, 4533.333008, 4537.948730, 4511.794922, 4500.512695, 4473.333008, 4466.153809, 4216.410156, 4460.512695, 4508.717773, 4526.666504, 4603.076660, 5446.666504, 0.000000, 8268.000000, 8089.000000, 0.000000, 0.000000, 0.000000, 24874.000000, 799.487183, 4.000000, 4.000000, 4.000000, 4.000000, 4.000000, 4.000000, 4.000000, 4.000000, 4.000000, 4.000000, 4.000000, 4.000000, 4.000000, 4.000000, 4.000000, 4.000000
44.000000, 0.000000, 5016.410156, 4464.102539, 4530.769043, 4537.948730, 4496.922852, 4491.281738, 4473.846191, 4465.641113, 4217.436035, 4458.461426, 4503.076660, 4520.000000, 4596.922852, 5434.871582, 0.000000, 8268.000000, 8089.000000, 0.000000, 0.000000, 0.000000, 24874.000000, 807.692261, 4.000000, 4.000000, 4.000000, 4.000000, 4.000000, 4.000000, 4.000000, 4.000000, 4.000000, 4.000000, 4.000000, 4.000000, 4.000000, 4.000000, 4.000000, 4.000000
45.000000, 0.000000, 5028.205078, 4468.205078, 4530.256348, 4537.948730, 4522.051270, 4491.794922, 4474.358887, 4463.076660, 4216.410156, 4461.538574, 4506.666504, 4516.922852, 4608.205078, 5406.666504, 0.000000, 8277.000000, 8109.000000, 0.000000, 0.000000, 0.000000, 24874.000000, 815.384583, 4.000000, 4.000000, 4.000000, 4.000000, 4.000000, 4.000000, 4.000000, 4.000000, 4.000000, 4.000000, 4.000000, 4.000000, 4.000000, 4.000000, 4.000000, 4.000000
46.000000, 0.000000, 5009.230469, 4469.230469, 4531.281738, 4536.922852, 4545.641113, 4496.922852, 4478.974121, 4459.487305, 4215.384277, 4461.538574, 4512.820313, 4521.025391, 4626.666504, 5404.615234, 0.000000, 8277.000000, 8109.000000, 0.000000, 0.000000, 0.000000, 24874.000000, 823.076904, 4.000000, 4.000000, 4.000000, 4.000000, 4.000000, 4.000000, 4.000000, 4.000000, 4.000000, 4.000000, 4.000000, 4.000000, 4.000000, 4.000000, 4.000000, 4.000000
47.000000, 0.000000, 4994.871582, 4467.179199, 4527.692383, 4537.948730, 4526.666504, 4495.897461, 4481.025391, 4462.051270, 4217.436035, 4463.076660, 4506.153809, 4521.538574, 4620.512695, 5423.589844, 0.000000, 8279.000000, 8138.000000, 0.000000, 0.000000, 0.000000, 24874.000000, 831.282043, 4.000000, 4.000000, 4.000000, 4.000000, 4.000000, 4.000000, 4.000000, 4.000000, 4.000000, 4.000000, 4.000000, 4.000000, 4.000000, 4.000000, 4.000000, 4.000000
48.000000, 0.000000, 5003.589844, 4462.563965, 4527.179199, 4536.410156, 4510.256348, 4492.820313, 4478.974121, 4461.025391, 4216.922852, 4464.615234, 4505.641113, 4523.589844, 4612.307617, 5409.743652, 0.000000, 8279.000000, 8138.000000, 0.000000, 0.000000, 0.000000, 24874.000000, 838.974365, 4.000000, 4.000000, 4.000000, 4.000000, 4.000000, 4.000000, 4.000000, 4.000000, 4.000000, 4.000000, 4.000000, 4.000000, 4.000000, 4.000000, 4.000000, 4.000000
49.000000, 0.000000, 4986.666504, 4450.256348, 4527.692383, 4532.820313, 4510.256348, 4489.230469, 4477.435547, 4448.205078, 4213.846191, 4453.333008, 4506.153809, 4524.615234, 4615.384277, 5339.486816, 0.000000, 8284.000000, 8140.000000, 0.000000, 0.000000, 0.000000, 24874.000000, 846.666626, 4.000000, 4.000000, 4.000000, 4.000000, 4.000000, 4.000000, 4.000000, 4.000000, 4.000000, 4.000000, 4.000000, 4.000000, 4.000000, 4.000000, 4.000000, 4.000000
50.000000, 0.000000, 4953.846191, 4444.615234, 4518.461426, 4522.563965, 4505.127930, 4475.897461, 4464.102539, 4430.769043, 4212.820313, 4442.563965, 4494.871582, 4509.743652, 4610.256348, 5324.615234, 0.000000, 8284.000000, 8140.000000, 0.000000, 0.000000, 0.000000, 24874.000000, 854.358948, 4.000000, 4.000000, 4.000000, 4.000000, 4.000000, 4.000000, 4.000000, 4.000000, 4.000000, 4.000000, 4.000000, 4.000000, 4.000000, 4.000000, 4.000000, 4.000000
51.000000, 0.000000, 4957.435547, 4449.743652, 4513.333008, 4509.230469, 4506.153809, 4459.487305, 4449.230469, 4423.589844, 4213.333008, 4440.512695, 4482.051270, 4491.281738, 4601.025391, 5365.127930, 0.000000, 8281.000000, 8149.000000, 0.000000, 0.000000, 0.000000, 24874.000000, 862.564087, 4.000000, 4.000000, 4.000000, 4.000000, 4.000000, 4.000000, 4.000000, 4.000000, 4.000000, 4.000000, 4.000000, 4.000000, 4.000000, 4.000000, 4.000000, 4.000000
52.000000, 0.000000, 4969.230469, 4440.512695, 4517.948730, 4508.717773, 4500.000000, 4460.000000, 4457.435547, 4439.487305, 4214.358887, 4437.948730, 4481.025391, 4498.461426, 4597.948730, 5338.461426, 0.000000, 8281.000000, 8149.000000, 0.000000, 0.000000, 0.000000, 24874.000000, 870.256409, 4.000000, 4.000000, 4.000000, 4.000000, 4.000000, 4.000000, 4.000000, 4.000000, 4.000000, 4.000000, 4.000000, 4.000000, 4.000000, 4.000000, 4.000000, 4.000000
53.000000, 0.000000, 4953.846191, 4440.512695, 4517.948730, 4522.051270, 4495.384277, 4478.461426, 4474.871582, 4455.384277, 4217.436035, 4438.461426, 4488.717773, 4510.769043, 4603.076660, 5295.897461, 0.000000, 8269.000000, 8166.000000, 0.000000, 0.000000, 0.000000, 24874.000000, 877.948669, 4.000000, 4.000000, 4.000000, 4.000000, 4.000000, 4.000000, 4.000000, 4.000000, 4.000000, 4.000000, 4.000000, 4.000000, 4.000000, 4.000000, 4.000000, 4.000000
54.000000, 0.000000, 4946.153809, 4462.563965, 4515.384277, 4525.641113, 4505.641113, 4489.743652, 4476.410156, 4448.205078, 4218.461426, 4444.102539, 4490.769043, 4504.102539, 4614.358887, 5330.769043, 0.000000, 8269.000000, 8166.000000, 0.000000, 0.000000, 0.000000, 24874.000000, 885.640991, 4.000000, 4.000000, 4.000000, 4.000000, 4.000000, 4.000000, 4.000000, 4.000000, 4.000000, 4.000000, 4.000000, 4.000000, 4.000000, 4.000000, 4.000000, 4.000000
55.000000, 0.000000, 4952.307617, 4475.897461, 4514.871582, 4522.563965, 4512.820313, 4488.717773, 4472.820313, 4442.051270, 4215.897461, 4450.769043, 4489.230469, 4502.051270, 4618.974121, 5355.384277, 0.000000, 8245.000000, 8181.000000, 0.000000, 0.000000, 0.000000, 24874.000000, 893.846130, 4.000000, 4.000000, 4.000000, 4.000000, 4.000000, 4.000000, 4.000000, 4.000000, 4.000000, 4.000000, 4.000000, 4.000000, 4.000000, 4.000000, 4.000000, 4.000000
56.000000, 0.000000, 4949.230469, 4478.461426, 4516.410156, 4528.205078, 4512.307617, 4491.794922, 4475.897461, 4449.230469, 4215.384277, 4455.897461, 4495.384277, 4510.769043, 4622.051270, 5318.974121, 0.000000, 8245.000000, 8181.000000, 0.000000, 0.000000, 0.000000, 24874.000000, 901.538452, 4.000000, 4.000000, 4.000000, 4.000000, 4.000000, 4.000000, 4.000000, 4.000000, 4.000000, 4.000000, 4.000000, 4.000000, 4.000000, 4.000000, 4.000000, 4.000000
57.000000, 0.000000, 4942.051270, 4484.102539, 4513.846191, 4531.794922, 4511.281738, 4489.743652, 4473.333008, 4446.666504, 4216.922852, 4457.948730, 4496.922852, 4504.615234, 4625.641113, 5307.179199, 0.000000, 8242.000000, 8182.000000, 0.000000, 0.000000, 0.000000, 24874.000000, 909.743591, 4.000000, 4.000000, 4.000000, 4.000000, 4.000000, 4.000000, 4.000000, 4.000000, 4.000000, 4.000000, 4.000000, 4.000000, 4.000000, 4.000000, 4.000000, 4.000000
58.000000, 0.000000, 4940.000000, 4487.692383, 4511.281738, 4525.127930, 4509.230469, 4477.435547, 4464.102539, 4445.641113, 4216.922852, 4455.897461, 4491.281738, 4496.922852, 4621.538574, 5306.153809, 0.000000, 8242.000000, 8182.000000, 0.000000, 0.000000, 0.000000, 24874.000000, 917.435852, 4.000000, 4.000000, 4.000000, 4.000000, 4.000000, 4.000000, 4.000000, 4.000000, 4.000000, 4.000000, 4.000000, 4.000000, 4.000000, 4.000000, 4.000000, 4.000000
59.000000, 0.000000, 4947.179199, 4487.692383, 4516.922852, 4522.563965, 4506.153809, 4472.307617, 4456.410156, 4454.358887, 4215.384277, 4459.487305, 4497.948730, 4505.641113, 4623.589844, 5286.666504, 0.000000, 8233.000000, 8191.000000, 0.000000, 0.000000, 0.000000, 24874.000000, 925.640991, 4.000000, 4.000000, 4.000000, 4.000000, 4.000000, 4.000000, 4.000000, 4.000000, 4.000000, 4.000000, 4.000000, 4.000000, 4.000000, 4.000000, 4.000000, 4.000000
60.000000, 0.000000, 4942.563965, 4494.358887, 4517.435547, 4526.153809, 4505.641113, 4480.000000, 4460.000000, 4461.538574, 4215.384277, 4460.512695, 4504.615234, 4508.205078, 4634.871582, 5277.435547, 0.000000, 8233.000000, 8191.000000, 0.000000, 0.000000, 0.000000, 24874.000000, 933.333313, 4.000000, 4.000000, 4.000000, 4.000000, 4.000000, 4.000000, 4.000000, 4.000000, 4.000000, 4.000000, 4.000000, 4.000000, 4.000000, 4.000000, 4.000000, 4.000000
61.000000, 0.000000, 4919.486816, 4499.487305, 4513.846191, 4526.153809, 4506.153809, 4489.743652, 4481.025391, 4470.769043, 4217.948730, 4456.922852, 4498.974121, 4504.615234, 4634.358887, 5275.384277, 0.000000, 8227.000000, 8205.000000, 0.000000, 0.000000, 0.000000, 24874.000000, 941.538452, 4.000000, 4.000000, 4.000000, 4.000000, 4.000000, 4.000000, 4.000000, 4.000000, 4.000000, 4.000000, 4.000000, 4.000000, 4.000000, 4.000000, 4.000000, 4.000000
62.000000, 0.000000, 4910.256348, 4500.000000, 4515.897461, 4523.076660, 4513.846191, 4495.897461, 4492.820313, 4479.487305, 4217.948730, 4465.127930, 4502.051270, 4507.179199, 4631.794922, 5267.692383, 0.000000, 8227.000000, 8205.000000, 0.000000, 0.000000, 0.000000, 24874.000000, 949.230774, 4.000000, 4.000000, 4.000000, 4.000000, 4.000000, 4.000000, 4.000000, 4.000000, 4.000000, 4.000000, 4.000000, 4.000000, 4.000000, 4.000000, 4.000000, 4.000000
63.000000, 0.000000, 4914.871582, 4507.692383, 4517.948730, 4525.127930, 4522.563965, 4495.897461, 4479.487305, 4477.948730, 4217.436035, 4477.435547, 4511.794922, 4506.153809, 4641.025391, 5256.922852, 0.000000, 8226.000000, 8211.000000, 0.000000, 0.000000, 0.000000, 24874.000000, 957.435852, 4.000000, 4.000000, 4.000000, 4.000000, 4.000000, 4.000000, 4.000000, 4.000000, 4.000000, 4.000000, 4.000000, 4.000000, 4.000000, 4.000000, 4.000000, 4.000000
64.000000, 0.000000, 4903.589844, 4518.461426, 4512.307617, 4528.717773, 4526.666504, 4493.846191, 4474.358887, 4473.333008, 4217.948730, 4481.538574, 4511.281738, 4501.025391, 4645.641113, 5247.179199, 2994.000000, 8226.000000, 8211.000000, 0.000000, 0.000000, 0.000000, 24874.000000, 965.128174, 4.000000, 4.000000, 4.000000, 4.000000, 4.000000, 4.000000, 4.000000, 4.000000, 4.000000, 4.000000, 4.000000, 4.000000, 4.000000, 4.000000, 4.000000, 4.000000
65.000000, 0.000000, 4893.333008, 4519.487305, 4506.153809, 4527.179199, 4524.615234, 4492.820313, 4475.897461, 4464.102539, 4217.948730, 4470.769043, 4504.615234, 4494.358887, 4637.435547, 5219.486816, 3474.000000, 8229.000000, 8193.000000, 0.000000, 0.000000, 0.000000, 24874.000000, 972.820496, 4.000000, 4.000000, 4.000000, 4.000000, 4.000000, 4.000000, 4.000000, 4.000000, 4.000000, 4.000000, 4.000000, 4.000000, 4.000000, 4.000000, 4.000000, 4.000000
66.000000, 0.000000, 4889.230469, 4510.769043, 4507.692383, 4520.512695, 4507.179199, 4489.230469, 4462.051270, 4448.205078, 4217.436035, 4456.922852, 4489.230469, 4483.076660, 4622.563965, 5197.435547, 3509.000000, 8229.000000, 8193.000000, 0.000000, 0.000000, 0.000000, 24874.000000, 980.512817, 4.000000, 4.000000, 4.000000, 4.000000, 4.000000, 4.000000, 4.000000, 4.000000, 4.000000, 4.000000, 4.000000, 4.000000, 4.000000, 4.000000, 4.000000, 4.000000
67.000000, 0.000000, 4867.179199, 4513.333008, 4504.615234, 4515.384277, 4504.102539, 4489.230469, 4460.512695, 4446.666504, 4216.922852, 4455.897461, 4475.384277, 4472.820313, 4615.897461, 5200.512695, 2212.000000, 8239.000000, 8175.000000, 0.000000, 0.000000, 0.000000, 24874.000000, 988.717896, 4.000000, 4.000000, 4.000000, 4.000000, 4.000000, 4.000000, 4.000000, 4.000000, 4.000000, 4.000000, 4.000000, 4.000000, 4.000000, 4.000000, 4.000000, 4.000000
68.000000, 0.000000, 4853.846191, 4527.179199, 4498.974121, 4512.307617, 4525.127930, 4493.846191, 4479.487305, 4456.410156, 4215.897461, 4458.974121, 4474.871582, 4472.307617, 4617.948730, 5173.333008, 3492.000000, 8239.000000, 8175.000000, 0.000000, 0.000000, 0.000000, 24874.000000, 996.410217, 4.000000, 4.000000, 4.000000, 4.000000, 4.000000, 4.000000, 4.000000, 4.000000, 4.000000, 4.000000, 4.000000, 4.000000, 4.000000, 4.000000, 4.000000, 4.000000
69.000000, 0.000000, 4862.563965, 4532.307617, 4497.948730, 4508.717773, 4526.153809, 4494.358887, 4481.025391, 4457.948730, 4215.897461, 4452.820313, 4473.846191, 4475.897461, 4616.922852, 5127.692383, 3538.000000, 8249.000000, 8168.000000, 0.000000, 0.000000, 0.000000, 24875.000000, 4.615385, 4.000000, 4.000000, 4.000000, 4.000000, 4.000000, 4.000000, 4.000000, 4.000000, 4.000000, 4.000000, 4.000000, 4.000000, 4.000000, 4.000000, 4.000000, 4.000000
70.000000, 0.000000, 4848.717773, 4532.307617, 4491.281738, 4505.641113, 4508.717773, 4491.794922, 4471.794922, 4458.974121, 4217.948730, 4448.717773, 4470.256348, 4473.846191, 4615.384277, 5127.692383, 3381.000000, 8249.000000, 8168.000000, 0.000000, 0.000000, 0.000000, 24875.000000, 12.307692, 4.000000, 4.000000, 4.000000, 4.000000, 4.000000, 4.000000, 4.000000, 4.000000, 4.000000, 4.000000, 4.000000, 4.000000, 4.000000, 4.000000, 4.000000, 4.000000
71.000000, 0.000000, 4828.205078, 4540.512695, 4485.127930, 4502.051270, 4508.205078, 4488.717773, 4474.358887, 4456.410156, 4217.436035, 4457.948730, 4474.358887, 4475.384277, 4618.461426, 5137.435547, 3461.000000, 8252.000000, 8163.000000, 0.000000, 0.000000, 0.000000, 24875.000000, 20.512819, 4.000000, 4.000000, 4.000000, 4.000000, 4.000000, 4.000000, 4.000000, 4.000000, 4.000000, 4.000000, 4.000000, 4.000000, 4.000000, 4.000000, 4.000000, 4.000000
72.000000, 0.000000, 4825.641113, 4540.512695, 4487.179199, 4495.897461, 4505.641113, 4480.000000, 4473.846191, 4447.179199, 4215.384277, 4458.974121, 4476.410156, 4477.948730, 4620.000000, 5108.205078, 955.000000, 8252.000000, 8163.000000, 0.000000, 0.000000, 0.000000, 24875.000000, 28.205128, 4.000000, 4.000000, 4.000000, 4.000000, 4.000000, 4.000000, 4.000000, 4.000000, 4.000000, 4.000000, 4.000000, 4.000000, 4.000000, 4.000000, 4.000000, 4.000000
73.000000, 0.000000, 4812.307617, 4532.820313, 4483.076660, 4488.717773, 4491.794922, 4473.333008, 4466.666504, 4442.563965, 4215.897461, 4446.666504, 4466.666504, 4468.717773, 4613.846191, 5086.153809, 2976.000000, 8243.000000, 8146.000000, 0.000000, 0.000000, 0.000000, 24875.000000, 35.897434, 4.000000, 4.000000, 4.000000, 4.000000, 4.000000, 4.000000, 4.000000, 4.000000, 4.000000, 4.000000, 4.000000, 4.000000, 4.000000, 4.000000, 4.000000, 4.000000
74.000000, 0.000000, 4789.743652, 4539.487305, 4473.846191, 4487.179199, 4489.230469, 4474.358887, 4464.615234, 4444.102539, 4217.436035, 4441.538574, 4459.487305, 4458.974121, 4604.102539, 5071.281738, 3533.000000, 8243.000000, 8146.000000, 0.000000, 0.000000, 0.000000, 24875.000000, 43.589741, 4.000000, 4.000000, 4.000000, 4.000000, 4.000000, 4.000000, 4.000000, 4.000000, 4.000000, 4.000000, 4.000000, 4.000000, 4.000000, 4.000000, 4.000000, 4.000000
75.000000, 0.000000, 4774.871582, 4545.641113, 4474.358887, 4488.717773, 4491.794922, 4475.384277, 4464.102539, 4445.127930, 4217.948730, 4448.717773, 4464.615234, 4465.127930, 4603.076660, 5042.563965, 3481.000000, 8241.000000, 8123.000000, 0.000000, 0.000000, 0.000000, 24875.000000, 51.794872, 4.000000, 4.000000, 4.000000, 4.000000, 4.000000, 4.000000, 4.000000, 4.000000, 4.000000, 4.000000, 4.000000, 4.000000, 4.000000, 4.000000, 4.000000, 4.000000
76.000000, 0.000000, 4767.692383, 4548.717773, 4483.076660, 4488.205078, 4495.384277, 4475.897461, 4465.641113, 4451.794922, 4217.948730, 4459.487305, 4476.410156, 4475.384277, 4615.897461, 5047.692383, 3492.000000, 8241.000000, 8123.000000, 0.000000, 0.000000, 0.000000, 24875.000000, 59.487179, 4.000000, 4.000000, 4.000000, 4.000000, 4.000000, 4.000000, 4.000000, 4.000000, 4.000000, 4.000000, 4.000000, 4.000000, 4.000000, 4.000000, 4.000000, 4.000000
77.000000, 0.000000, 4763.076660, 4555.897461, 4477.948730, 4490.769043, 4491.281738, 4470.256348, 4459.487305, 4453.333008, 4217.436035, 4460.000000, 4477.948730, 4476.410156, 4624.615234, 5062.051270, 3443.000000, 8257.000000, 8112.000000, 0.000000, 0.000000, 0.000000, 24875.000000, 67.179489, 4.000000, 4.000000, 4.000000, 4.000000, 4.000000, 4.000000, 4.000000, 4.000000, 4.000000, 4.000000, 4.000000, 4.000000, 4.000000, 4.000000, 4.000000, 4.000000
78.000000, 0.000000, 4760.000000, 4557.948730, 4470.769043, 4491.794922, 4479.487305, 4461.025391, 4445.127930, 4441.025391, 4215.897461, 4450.256348, 4468.717773, 4473.846191, 4618.461426, 5022.563965, 3533.000000, 8257.000000, 8112.000000, 0.000000, 0.000000, 0.000000, 24875.000000, 74.871796, 4.000000, 4.000000, 4.000000, 4.000000, 4.000000, 4.000000, 4.000000, 4.000000, 4.000000, 4.000000, 4.000000, 4.000000, 4.000000, 4.000000, 4.000000, 4.000000
79.000000, 0.000000, 4749.743652, 4557.948730, 4477.948730, 4484.102539, 4478.461426, 4455.897461, 4434.871582, 4428.205078, 4215.897461, 4438.974121, 4458.974121, 4466.666504, 4605.127930, 4976.922852, 3481.000000, 8270.000000, 8043.000000, 0.000000, 0.000000, 0.000000, 24875.000000, 83.076920, 4.000000, 4.000000, 4.000000, 4.000000, 4.000000, 4.000000, 4.000000, 4.000000, 4.000000, 4.000000, 4.000000, 4.000000, 4.000000, 4.000000, 4.000000, 4.000000
80.000000, 0.000000, 4727.692383, 4558.461426, 4474.871582, 4475.897461, 4479.487305, 4448.717773, 4430.769043, 4413.846191, 4213.333008, 4429.743652, 4449.743652, 4455.897461, 4596.922852, 4968.717773, 3492.000000, 8270.000000, 8043.000000, 0.000000, 0.000000, 0.000000, 24875.000000, 90.769226, 4.000000, 4.000000, 4.000000, 4.000000, 4.000000, 4.000000, 4.000000, 4.000000, 4.000000, 4.000000, 4.000000, 4.000000, 4.000000, 4.000000, 4.000000, 4.000000
81.000000, 0.000000, 4710.256348, 4560.000000, 4463.076660, 4477.435547, 4474.358887, 4441.025391, 4425.127930, 4405.641113, 4213.333008, 4427.179199, 4446.153809, 4455.897461, 4598.974121, 4951.281738, 3443.000000, 8273.000000, 8011.000000, 0.000000, 0.000000, 0.000000, 24875.000000, 98.974358, 4.000000, 4.000000, 4.000000, 4.000000, 4.000000, 4.000000, 4.000000, 4.000000, 4.000000, 4.000000, 4.000000, 4.000000, 4.000000, 4.000000, 4.000000, 4.000000
82.000000, 0.000000, 4698.974121, 4564.615234, 4462.563965, 4478.974121, 4474.871582, 4441.538574, 4423.589844, 4407.179199, 4212.307617, 4423.589844, 4445.641113, 4456.922852, 4596.410156, 4916.922852, 3533.000000, 8273.000000, 8011.000000, 0.000000, 0.000000, 0.000000, 24875.000000, 106.666664, 4.000000, 4.000000, 4.000000, 4.000000, 4.000000, 4.000000, 4.000000, 4.000000, 4.000000, 4.000000, 4.000000, 4.000000, 4.000000, 4.000000, 4.000000, 4.000000
83.000000, 0.000000, 4677.435547, 4561.025391, 4459.487305, 4469.230469, 4469.230469, 4443.589844, 4429.743652, 4403.076660, 4207.179199, 4405.641113, 4427.692383, 4440.000000, 4569.743652, 4889.230469, 3481.000000, 8281.000000, 7989.000000, 0.000000, 0.000000, 0.000000, 24875.000000, 114.871796, 4.000000, 4.000000, 4.000000, 4.000000, 4.000000, 4.000000, 4.000000, 4.000000, 4.000000, 4.000000, 4.000000, 4.000000, 4.000000, 4.000000, 4.000000, 4.000000
84.000000, 0.000000, 4651.794922, 4551.281738, 4449.230469, 4454.871582, 4453.333008, 4442.563965, 4431.281738, 4392.820313, 4207.692383, 4394.358887, 4404.615234, 4427.179199, 4542.051270, 4854.871582, 3492.000000, 8281.000000, 7989.000000, 0.000000, 0.000000, 0.000000, 24875.000000, 122.564102, 4.000000, 4.000000, 4.000000, 4.000000, 4.000000, 4.000000, 4.000000, 4.000000, 4.000000, 4.000000, 4.000000, 4.000000, 4.000000, 4.000000, 4.000000, 4.000000
85.000000, 0.000000, 4634.871582, 4546.153809, 4446.666504, 4443.076660, 4454.871582, 4446.153809, 4431.794922, 4402.051270, 4216.410156, 4405.641113, 4406.666504, 4437.435547, 4540.512695, 4823.076660, 3443.000000, 8309.000000, 7959.000000, 0.000000, 0.000000, 0.000000, 24875.000000, 130.769226, 4.000000, 4.000000, 4.000000, 4.000000, 4.000000, 4.000000, 4.000000, 4.000000, 4.000000, 4.000000, 4.000000, 4.000000, 4.000000, 4.000000, 4.000000, 4.000000
86.000000, 0.000000, 4624.102539, 4551.281738, 4446.666504, 4441.025391, 4463.589844, 4446.666504, 4431.281738, 4419.487305, 4218.974121, 4414.871582, 4422.051270, 4445.127930, 4552.820313, 4810.769043, 3533.000000, 8309.000000, 7959.000000, 0.000000, 0.000000, 0.000000, 24875.000000, 138.461533, 4.000000, 4.000000, 4.000000, 4.000000, 4.000000, 4.000000, 4.000000, 4.000000, 4.000000, 4.000000, 4.000000, 4.000000, 4.000000, 4.000000, 4.000000, 4.000000
87.000000, 0.000000, 4618.461426, 4563.076660, 4450.256348, 4454.358887, 4456.922852, 4439.487305, 4420.000000, 4419.487305, 4214.871582, 4414.871582, 4429.743652, 4442.051270, 4566.666504, 4805.127930, 3481.000000, 8326.000000, 7938.000000, 0.000000, 0.000000, 0.000000, 24875.000000, 146.666656, 4.000000, 4.000000, 4.000000, 4.000000, 4.000000, 4.000000, 4.000000, 4.000000, 4.000000, 4.000000, 4.000000, 4.000000, 4.000000, 4.000000, 4.000000, 4.000000
88.000000, 0.000000, 4620.000000, 4568.717773, 4457.948730, 4466.153809, 4449.743652, 4432.820313, 4407.692383, 4412.307617, 4216.922852, 4418.461426, 4428.717773, 4445.127930, 4571.281738, 4787.179199, 3492.000000, 8326.000000, 7938.000000, 0.000000, 0.000000, 0.000000, 24875.000000, 154.358963, 4.000000, 4.000000, 4.000000, 4.000000, 4.000000, 4.000000, 4.000000, 4.000000, 4.000000, 4.000000, 4.000000, 4.000000, 4.000000, 4.000000, 4.000000, 4.000000
89.000000, 1.000000, 4600.512695, 4564.102539, 4453.846191, 4460.000000, 4445.127930, 4430.256348, 4406.153809, 4406.666504, 4216.410156, 4415.897461, 4422.051270, 4441.025391, 4564.102539, 4744.615234, 3491.000000, 8344.000000, 7935.000000, 0.000000, 0.000000, 0.000000, 24875.000000, 162.564102, 4.000000, 4.000000, 4.000000, 4.000000, 4.000000, 4.000000, 4.000000, 4.000000, 4.000000, 4.000000, 4.000000, 4.000000, 4.000000, 4.000000, 4.000000, 4.000000
90.000000, 1.000000, 4580.512695, 4560.000000, 4450.256348, 4453.333008, 4440.512695, 4427.692383, 4404.102539, 4401.025391, 4215.897461, 4413.333008, 4414.871582, 4436.922852, 4556.922852, 4702.051270, 3490.000000, 8362.000000, 7932.000000, 0.000000, 0.000000, 0.000000, 24875.000000, 170.256409, 4.000000, 4.000000, 4.000000, 4.000000, 4.000000, 4.000000, 4.000000, 4.000000, 4.000000, 4.000000, 4.000000, 4.000000, 4.000000, 4.000000, 4.000000, 4.000000
91.000000, 1.000000, 4561.025391, 4555.384277, 4446.666504, 4447.179199, 4435.897461, 4425.127930, 4402.563965, 4395.384277, 4215.384277, 4410.769043, 4408.205078, 4432.820313, 4549.743652, 4659.487305, 3489.000000, 8380.000000, 7929.000000, 0.000000, 0.000000, 0.000000, 24875.000000, 177.948715, 4.000000, 4.000000, 4.000000, 4.000000, 4.000000, 4.000000, 4.000000, 4.000000, 4.000000, 4.000000, 4.000000, 4.000000, 4.000000, 4.000000, 4.000000, 4.000000
92.000000, 1.000000, 4541.025391, 4550.769043, 4443.076660, 4440.512695, 4430.769043, 4422.563965, 4401.025391, 4389.743652, 4214.871582, 4408.717773, 4401.025391, 4429.230469, 4542.563965, 4616.410156, 3488.000000, 8398.000000, 7926.000000, 0.000000, 0.000000, 0.000000, 24875.000000, 186.153839, 4.000000, 4.000000, 4.000000, 4.000000, 4.000000, 4.000000, 4.000000, 4.000000, 4.000000, 4.000000, 4.000000, 4.000000, 4.000000, 4.000000, 4.000000, 4.000000
93.000000, 1.000000, 4521.538574, 4546.153809, 4438.974121, 4434.358887, 4426.153809, 4420.000000, 4399.487305, 4384.102539, 4214.358887, 4406.153809, 4394.358887, 4425.127930, 4535.384277, 4573.846191, 3487.000000, 8416.000000, 7923.000000, 0.000000, 0.000000, 0.000000, 24875.000000, 193.846146, 4.000000, 4.000000, 4.000000, 4.000000, 4.000000, 4.000000, 4.000000, 4.000000, 4.000000, 4.000000, 4.000000, 4.000000, 4.000000, 4.000000, 4.000000, 4.000000
94.000000, 1.000000, 4501.538574, 4542.051270, 4435.384277, 4427.692383, 4421.538574, 4417.435547, 4397.435547, 4378.461426, 4213.846191, 4403.589844, 4387.179199, 4421.025391, 4528.205078, 4531.281738, 3486.000000, 8434.000000, 7920.000000, 0.000000, 0.000000, 0.000000, 24875.000000, 202.051270, 4.000000, 4.000000, 4.000000, 4.000000, 4.000000, 4.000000, 4.000000, 4.000000, 4.000000, 4.000000, 4.000000, 4.000000, 4.000000, 4.000000, 4.000000, 4.000000
95.000000, 0.000000, 4481.538574, 4537.435547, 4431.794922, 4420.512695, 4416.410156, 4414.358887, 4395.384277, 4372.307617, 4212.820313, 4401.025391, 4380.512695, 4416.922852, 4521.025391, 4488.205078, 3481.000000, 8457.000000, 7913.000000, 0.000000, 0.000000, 0.000000, 24875.000000, 209.743591, 4.000000, 4.000000, 4.000000, 4.000000, 4.000000, 4.000000, 4.000000, 4.000000, 4.000000, 4.000000, 4.000000, 4.000000, 4.000000, 4.000000, 4.000000, 4.000000
96.000000, 0.000000, 4456.922852, 4520.512695, 4427.179199, 4409.743652, 4408.205078, 4404.615234, 4395.897461, 4369.230469, 4212.307617, 4390.769043, 4371.794922, 4410.769043, 4508.717773, 4437.948730, 3492.000000, 8457.000000, 7913.000000, 0.000000, 0.000000, 0.000000, 24875.000000, 217.435898, 4.000000, 4.000000, 4.000000, 4.000000, 4.000000, 4.000000, 4.000000, 4.000000, 4.000000, 4.000000, 4.000000, 4.000000, 4.000000, 4.000000, 4.000000, 4.000000
97.000000, 0.000000, 4432.307617, 4516.410156, 4429.230469, 4401.538574, 4409.230469, 4406.666504, 4407.692383, 4372.307617, 4213.846191, 4393.846191, 4370.769043, 4405.127930, 4504.102539, 4397.948730, 3443.000000, 8468.000000, 7901.000000, 0.000000, 0.000000, 0.000000, 24875.000000, 225.641022, 4.000000, 4.000000, 4.000000, 4.000000, 4.000000, 4.000000, 4.000000, 4.000000, 4.000000, 4.000000, 4.000000, 4.000000, 4.000000, 4.000000, 4.000000, 4.000000
98.000000, 0.000000, 4412.820313, 4516.922852, 4421.025391, 4397.948730, 4406.153809, 4412.820313, 4414.871582, 4374.871582, 4215.384277, 4398.461426, 4363.589844, 4398.461426, 4496.922852, 4359.487305, 3533.000000, 8468.000000, 7901.000000, 0.000000, 0.000000, 0.000000, 24875.000000, 233.333328, 4.000000, 4.000000, 4.000000, 4.000000, 4.000000, 4.000000, 4.000000, 4.000000, 4.000000, 4.000000, 4.000000, 4.000000, 4.000000, 4.000000, 4.000000, 4.000000
99.000000, 0.000000, 4398.974121, 4511.794922, 4414.871582, 4394.358887, 4395.384277, 4413.846191, 4419.487305, 4381.538574, 4214.358887, 4394.358887, 4354.358887, 4393.846191, 4488.205078, 4323.589844, 3481.000000, 8477.000000, 7882.000000, 0.000000, 0.000000, 0.000000, 24875.000000, 241.538452, 4.000000, 4.000000, 4.000000, 4.000000, 4.000000, 4.000000, 4.000000, 4.000000, 4.000000, 4.000000, 4.000000, 4.000000, 4.000000, 4.000000, 4.000000, 4.000000
100.000000, 0.000000, 4388.717773, 4503.076660, 4420.000000, 4393.846191, 4394.358887, 4410.769043, 4416.922852, 4391.281738, 4216.410156, 4393.846191, 4360.000000, 4401.025391, 4490.256348, 4307.179199, 3492.000000, 8477.000000, 7882.000000, 0.000000, 0.000000, 0.000000, 24875.000000, 249.230759, 4.000000, 4.000000, 4.000000, 4.000000, 4.000000, 4.000000, 4.000000, 4.000000, 4.000000, 4.000000, 4.000000, 4.000000, 4.000000, 4.000000, 4.000000, 4.000000
101.000000, 0.000000, 4380.512695, 4505.641113, 4429.230469, 4401.025391, 4404.102539, 4410.256348, 4403.589844, 4400.000000, 4219.487305, 4401.538574, 4372.820313, 4411.794922, 4504.102539, 4301.025391, 3443.000000, 8468.000000, 7887.000000, 0.000000, 0.000000, 0.000000, 24875.000000, 256.923065, 4.000000, 4.000000, 4.000000, 4.000000, 4.000000, 4.000000, 4.000000, 4.000000, 4.000000, 4.000000, 4.000000, 4.000000, 4.000000, 4.000000, 4.000000, 4.000000
102.000000, 0.000000, 4372.820313, 4512.820313, 4431.794922, 4406.153809, 4410.256348, 4412.820313, 4398.974121, 4409.743652, 4219.487305, 4408.205078, 4380.512695, 4414.358887, 4509.230469, 4277.436035, 3533.000000, 8468.000000, 7887.000000, 0.000000, 0.000000, 0.000000, 24875.000000, 264.615387, 4.000000, 4.000000, 4.000000, 4.000000, 4.000000, 4.000000, 4.000000, 4.000000, 4.000000, 4.000000, 4.000000, 4.000000, 4.000000, 4.000000, 4.000000, 4.000000
103.000000, 0.000000, 4362.051270, 4501.025391, 4427.179199, 4402.051270, 4410.256348, 4416.922852, 4409.230469, 4421.025391, 4218.461426, 4410.769043, 4381.538574, 4412.820313, 4496.922852, 4238.974121, 3481.000000, 8469.000000, 7897.000000, 0.000000, 0.000000, 0.000000, 24875.000000, 272.307678, 4.000000, 4.000000, 4.000000, 4.000000, 4.000000, 4.000000, 4.000000, 4.000000, 4.000000, 4.000000, 4.000000, 4.000000, 4.000000, 4.000000, 4.000000, 4.000000
104.000000, 0.000000, 4341.538574, 4484.615234, 4426.666504, 4395.897461, 4409.743652, 4419.487305, 4413.333008, 4415.897461, 4218.974121, 4406.666504, 4374.358887, 4413.846191, 4481.025391, 4211.794922, 3492.000000, 8469.000000, 7897.000000, 0.000000, 0.000000, 0.000000, 24875.000000, 280.512817, 4.000000, 4.000000, 4.000000, 4.000000, 4.000000, 4.000000, 4.000000, 4.000000, 4.000000, 4.000000, 4.000000, 4.000000, 4.000000, 4.000000, 4.000000, 4.000000
105.000000, 0.000000, 4314.871582, 4475.384277, 4425.641113, 4391.794922, 4405.641113, 4418.461426, 4415.384277, 4395.384277, 4216.922852, 4398.974121, 4367.179199, 4413.333008, 4469.230469, 4194.871582, 3443.000000, 8452.000000, 7937.000000, 0.000000, 0.000000, 0.000000, 24875.000000, 288.205109, 4.000000, 4.000000, 4.000000, 4.000000, 4.000000, 4.000000, 4.000000, 4.000000, 4.000000, 4.000000, 4.000000, 4.000000, 4.000000, 4.000000, 4.000000, 4.000000
106.000000, 0.000000, 4293.333008, 4466.153809, 4419.487305, 4388.205078, 4393.846191, 4421.538574, 4425.127930, 4386.153809, 4214.871582, 4394.358887, 4365.127930, 4408.717773, 4455.897461, 4162.051270, 3533.000000, 8452.000000, 7937.000000, 0.000000, 0.000000, 0.000000, 24875.000000, 295.897430, 4.000000, 4.000000, 4.000000, 4.000000, 4.000000, 4.000000, 4.000000, 4.000000, 4.000000, 4.000000, 4.000000, 4.000000, 4.000000, 4.000000, 4.000000, 4.000000
107.000000, 0.000000, 4279.487305, 4457.435547, 4423.076660, 4386.153809, 4387.692383, 4428.205078, 4431.281738, 4390.769043, 4217.436035, 4394.871582, 4364.102539, 4411.794922, 4444.615234, 4127.179199, 3481.000000, 8444.000000, 7960.000000, 0.000000, 0.000000, 0.000000, 24875.000000, 303.589722, 4.000000, 4.000000, 4.000000, 4.000000, 4.000000, 4.000000, 4.000000, 4.000000, 4.000000, 4.000000, 4.000000, 4.000000, 4.000000, 4.000000, 4.000000, 4.000000
108.000000, 0.000000, 4266.153809, 4450.769043, 4432.307617, 4382.051270, 4389.743652, 4427.179199, 4427.692383, 4385.127930, 4217.436035, 4400.000000, 4365.641113, 4415.384277, 4441.538574, 4110.769043, 3492.000000, 8444.000000, 7960.000000, 0.000000, 0.000000, 0.000000, 24875.000000, 311.282043, 4.000000, 4.000000, 4.000000, 4.000000, 4.000000, 4.000000, 4.000000, 4.000000, 4.000000, 4.000000, 4.000000, 4.000000, 4.000000, 4.000000, 4.000000, 4.000000
109.000000, 0.000000, 4252.820313, 4441.025391, 4433.333008, 4380.512695, 4399.487305, 4427.692383, 4427.179199, 4376.410156, 4215.384277, 4406.153809, 4368.205078, 4415.897461, 4443.076660, 4095.897217, 3443.000000, 8426.000000, 7985.000000, 0.000000, 0.000000, 0.000000, 24875.000000, 319.487183, 4.000000, 4.000000, 4.000000, 4.000000, 4.000000, 4.000000, 4.000000, 4.000000, 4.000000, 4.000000, 4.000000, 4.000000, 4.000000, 4.000000, 4.000000, 4.000000
110.000000, 0.000000, 4237.436035, 4430.769043, 4434.871582, 4385.127930, 4406.666504, 4432.307617, 4430.256348, 4387.179199, 4216.410156, 4411.794922, 4374.871582, 4426.153809, 4446.153809, 4071.281982, 3533.000000, 8426.000000, 7985.000000, 0.000000, 0.000000, 0.000000, 24875.000000, 327.179474, 4.000000, 4.000000, 4.000000, 4.000000, 4.000000, 4.000000, 4.000000, 4.000000, 4.000000, 4.000000, 4.000000, 4.000000, 4.000000, 4.000000, 4.000000, 4.000000
111.000000, 0.000000, 4216.410156, 4421.025391, 4435.384277, 4383.589844, 4394.358887, 4430.769043, 4430.769043, 4399.487305, 4217.436035, 4411.794922, 4375.384277, 4428.717773, 4440.512695, 4043.589600, 3481.000000, 8417.000000, 8001.000000, 0.000000, 0.000000, 0.000000, 24875.000000, 334.871796, 4.000000, 4.000000, 4.000000, 4.000000, 4.000000, 4.000000, 4.000000, 4.000000, 4.000000, 4.000000, 4.000000, 4.000000, 4.000000, 4.000000, 4.000000, 4.000000
112.000000, 0.000000, 4196.922852, 4411.794922, 4433.333008, 4377.948730, 4386.666504, 4428.717773, 4427.692383, 4396.410156, 4216.410156, 4410.769043, 4367.692383, 4414.871582, 4429.743652, 4020.000000, 3492.000000, 8417.000000, 8001.000000, 0.000000, 0.000000, 0.000000, 24875.000000, 342.564087, 4.000000, 4.000000, 4.000000, 4.000000, 4.000000, 4.000000, 4.000000, 4.000000, 4.000000, 4.000000, 4.000000, 4.000000, 4.000000, 4.000000, 4.000000, 4.000000
113.000000, 0.000000, 4187.179199, 4409.743652, 4433.846191, 4381.538574, 4400.512695, 4434.358887, 4422.051270, 4399.487305, 4216.922852, 4414.871582, 4367.692383, 4416.410156, 4428.717773, 4004.102539, 3443.000000, 8389.000000, 8025.000000, 0.000000, 0.000000, 0.000000, 24875.000000, 350.256409, 4.000000, 4.000000, 4.000000, 4.000000, 4.000000, 4.000000, 4.000000, 4.000000, 4.000000, 4.000000, 4.000000, 4.000000, 4.000000, 4.000000, 4.000000, 4.000000
114.000000, 0.000000, 4177.948730, 4408.205078, 4434.871582, 4386.666504, 4402.563965, 4433.333008, 4414.871582, 4406.666504, 4217.948730, 4412.820313, 4370.769043, 4426.666504, 4429.743652, 3983.589600, 3533.000000, 8389.000000, 8025.000000, 0.000000, 0.000000, 0.000000, 24875.000000, 357.948700, 4.000000, 4.000000, 4.000000, 4.000000, 4.000000, 4.000000, 4.000000, 4.000000, 4.000000, 4.000000, 4.000000, 4.000000, 4.000000, 4.000000, 4.000000, 4.000000
115.000000, 0.000000, 4164.102539, 4395.384277, 4431.794922, 4382.563965, 4385.641113, 4425.127930, 4408.717773, 4403.076660, 4217.436035, 4408.717773, 4367.179199, 4420.000000, 4429.230469, 3957.435791, 3481.000000, 8369.000000, 8045.000000, 0.000000, 0.000000, 0.000000, 24875.000000, 366.153839, 4.000000, 4.000000, 4.000000, 4.000000, 4.000000, 4.000000, 4.000000, 4.000000, 4.000000, 4.000000, 4.000000, 4.000000, 4.000000, 4.000000, 4.000000, 4.000000
116.000000, 0.000000, 4153.846191, 4385.127930, 4431.794922, 4378.974121, 4390.256348, 4429.743652, 4414.871582, 4401.538574, 4216.410156, 4409.743652, 4362.563965, 4411.794922, 4427.179199, 3938.974365, 3492.000000, 8369.000000, 8045.000000, 0.000000, 0.000000, 0.000000, 24875.000000, 373.846130, 4.000000, 4.000000, 4.000000, 4.000000, 4.000000, 4.000000, 4.000000, 4.000000, 4.000000, 4.000000, 4.000000, 4.000000, 4.000000, 4.000000, 4.000000, 4.000000
117.000000, 0.000000, 4147.692383, 4380.512695, 4438.461426, 4380.512695, 4407.692383, 4442.563965, 4428.717773, 4410.256348, 4216.922852, 4413.333008, 4362.051270, 4417.948730, 4412.307617, 3916.410156, 3443.000000, 8350.000000, 8061.000000, 0.000000, 0.000000, 0.000000, 24875.000000, 381.538452, 4.000000, 4.000000, 4.000000, 4.000000, 4.000000, 4.000000, 4.000000, 4.000000, 4.000000, 4.000000, 4.000000, 4.000000, 4.000000, 4.000000, 4.000000, 4.000000
118.000000, 0.000000, 4144.102539, 4376.410156, 4441.025391, 4383.076660, 4404.615234, 4444.615234, 4431.794922, 4416.410156, 4217.436035, 4413.333008, 4365.127930, 4423.589844, 4408.205078, 3893.333252, 3533.000000, 8350.000000, 8061.000000, 0.000000, 0.000000, 0.000000, 24875.000000, 389.230774, 4.000000, 4.000000, 4.000000, 4.000000, 4.000000, 4.000000, 4.000000, 4.000000, 4.000000, 4.000000, 4.000000, 4.000000, 4.000000, 4.000000, 4.000000, 4.000000
119.000000, 0.000000, 4147.692383, 4381.538574, 4445.641113, 4387.692383, 4400.000000, 4441.538574, 4431.794922, 4410.769043, 4216.922852, 4409.743652, 4374.871582, 4426.666504, 4432.820313, 3892.820313, 3481.000000, 8303.000000, 8087.000000, 0.000000, 0.000000, 0.000000, 24875.000000, 396.923065, 4.000000, 4.000000, 4.000000, 4.000000, 4.000000, 4.000000, 4.000000, 4.000000, 4.000000, 4.000000, 4.000000, 4.000000, 4.000000, 4.000000, 4.000000, 4.000000
120.000000, 0.000000, 4155.384277, 4386.153809, 4454.871582, 4390.256348, 4406.666504, 4444.102539, 4439.487305, 4397.948730, 4216.922852, 4416.922852, 4389.230469, 4428.205078, 4449.743652, 3894.358887, 3492.000000, 8303.000000, 8087.000000, 0.000000, 0.000000, 0.000000, 24875.000000, 404.615387, 4.000000, 4.000000, 4.000000, 4.000000, 4.000000, 4.000000, 4.000000, 4.000000, 4.000000, 4.000000, 4.000000, 4.000000, 4.000000, 4.000000, 4.000000, 4.000000
121.000000, 0.000000, 4150.769043, 4380.000000, 4454.358887, 4388.717773, 4407.692383, 4445.641113, 4444.615234, 4396.410156, 4217.948730, 4427.692383, 4396.922852, 4432.820313, 4452.820313, 3885.128174, 3443.000000, 8277.000000, 8090.000000, 0.000000, 0.000000, 0.000000, 24875.000000, 412.820496, 4.000000, 4.000000, 4.000000, 4.000000, 4.000000, 4.000000, 4.000000, 4.000000, 4.000000, 4.000000, 4.000000, 4.000000, 4.000000, 4.000000, 4.000000, 4.000000
122.000000, 0.000000, 4143.076660, 4375.384277, 4452.820313, 4387.692383, 4401.538574, 4443.589844, 4442.563965, 4408.205078, 4218.974121, 4431.281738, 4405.127930, 4443.589844, 4467.179199, 3877.948730, 3533.000000, 8277.000000, 8090.000000, 0.000000, 0.000000, 0.000000, 24875.000000, 420.512817, 4.000000, 4.000000, 4.000000, 4.000000, 4.000000, 4.000000, 4.000000, 4.000000, 4.000000, 4.000000, 4.000000, 4.000000, 4.000000, 4.000000, 4.000000, 4.000000
123.000000, 0.000000, 4140.000000, 4373.333008, 4455.384277, 4388.717773, 4401.025391, 4442.563965, 4443.076660, 4413.846191, 4218.461426, 4436.922852, 4412.820313, 4446.666504, 4477.948730, 3861.538330, 3481.000000, 8234.000000, 8086.000000, 0.000000, 0.000000, 0.000000, 24875.000000, 428.205109, 4.000000, 4.000000, 4.000000, 4.000000, 4.000000, 4.000000, 4.000000, 4.000000, 4.000000, 4.000000, 4.000000, 4.000000, 4.000000, 4.000000, 4.000000, 4.000000
124.000000, 0.000000, 4134.358887, 4369.743652, 4454.871582, 4387.179199, 4405.641113, 4444.102539, 4445.641113, 4412.307617, 4216.922852, 4442.563965, 4414.358887, 4442.563965, 4474.871582, 3835.384521, 3492.000000, 8234.000000, 8086.000000, 0.000000, 0.000000, 0.000000, 24875.000000, 435.897430, 4.000000, 4.000000, 4.000000, 4.000000, 4.000000, 4.000000, 4.000000, 4.000000, 4.000000, 4.000000, 4.000000, 4.000000, 4.000000, 4.000000, 4.000000, 4.000000
125.000000, 0.000000, 4126.153809, 4371.281738, 4450.256348, 4385.641113, 4404.102539, 4444.615234, 4445.127930, 4414.358887, 4218.461426, 4442.563965, 4412.307617, 4442.563965, 4474.358887, 3819.487061, 3443.000000, 8213.000000, 8094.000000, 0.000000, 0.000000, 0.000000, 24875.000000, 443.589722, 4.000000, 4.000000, 4.000000, 4.000000, 4.000000, 4.000000, 4.000000, 4.000000, 4.000000, 4.000000, 4.000000, 4.000000, 4.000000, 4.000000, 4.000000, 4.000000
126.000000, 0.000000, 4114.871582, 4373.846191, 4447.179199, 4384.615234, 4395.897461, 4437.948730, 4442.051270, 4415.384277, 4219.487305, 4440.512695, 4407.692383, 4443.076660, 4468.205078, 3797.435791, 3533.000000, 8213.000000, 8094.000000, 0.000000, 0.000000, 0.000000, 24875.000000, 451.282043, 4.000000, 4.000000, 4.000000, 4.000000, 4.000000, 4.000000, 4.000000, 4.000000, 4.000000, 4.000000, 4.000000, 4.000000, 4.000000, 4.000000, 4.000000, 4.000000
127.000000, 0.000000, 4108.205078, 4372.820313, 4450.769043, 4380.000000, 4394.358887, 4429.230469, 4444.102539, 4423.589844, 4217.436035, 4437.435547, 4404.102539, 4442.051270, 4458.461426, 3763.589600, 57.000000, 8202.000000, 8103.000000, 0.000000, 0.000000, 0.000000, 24875.000000, 459.487183, 4.000000, 4.000000, 4.000000, 4.000000, 4.000000, 4.000000, 4.000000, 4.000000, 4.000000, 4.000000, 4.000000, 4.000000, 4.000000, 4.000000, 4.000000, 4.000000
0.000000, 0.000000, 4106.666504, 4374.358887, 4454.358887, 4374.358887, 4395.897461, 4429.230469, 4444.615234, 4426.153809, 4216.410156, 4435.384277, 4402.563965, 4444.102539, 4458.461426, 3740.512695, 2997.000000, 8202.000000, 8103.000000, 0.000000, 0.000000, 0.000000, 24875.000000, 467.179474, 4.000000, 4.000000, 4.000000, 4.000000, 4.000000, 4.000000, 4.000000, 4.000000, 4.000000, 4.000000, 4.000000, 4.000000, 4.000000, 4.000000, 4.000000, 4.000000
1.000000, 0.000000, 4102.051270, 4381.538574, 4452.820313, 4374.871582, 4396.922852, 4440.000000, 4442.051270, 4421.025391, 4217.948730, 4440.512695, 4404.615234, 4442.051270, 4456.922852, 3727.179443, 3484.000000, 8187.000000, 8111.000000, 0.000000, 0.000000, 0.000000, 24875.000000, 474.871796, 4.000000, 4.000000, 4.000000, 4.000000, 4.000000, 4.000000, 4.000000, 4.000000, 4.000000, 4.000000, 4.000000, 4.000000, 4.000000, 4.000000, 4.000000, 4.000000
2.000000, 0.000000, 4091.794678, 4386.666504, 4451.794922, 4374.358887, 4398.974121, 4444.615234, 4448.717773, 4417.435547, 4217.436035, 4439.487305, 4399.487305, 4430.256348, 4446.153809, 3706.153809, 3526.000000, 8187.000000, 8111.000000, 0.000000, 0.000000, 0.000000, 24875.000000, 482.564087, 4.000000, 4.000000, 4.000000, 4.000000, 4.000000, 4.000000, 4.000000, 4.000000, 4.000000, 4.000000, 4.000000, 4.000000, 4.000000, 4.000000, 4.000000, 4.000000
3.000000, 0.000000, 4087.692139, 4385.127930, 4450.769043, 4368.717773, 4393.333008, 4432.820313, 4450.256348, 4402.051270, 4214.871582, 4428.205078, 4388.717773, 4423.076660, 4437.948730, 3685.640869, 2214.000000, 8191.000000, 8117.000000, 0.000000, 0.000000, 0.000000, 24875.000000, 490.256409, 4.000000, 4.000000, 4.000000, 4.000000, 4.000000, 4.000000, 4.000000, 4.000000, 4.000000, 4.000000, 4.000000, 4.000000, 4.000000, 4.000000, 4.000000, 4.000000
4.000000, 0.000000, 4091.794678, 4389.230469, 4451.281738, 4368.717773, 4389.743652, 4425.127930, 4441.538574, 4388.205078, 4214.871582, 4427.179199, 4390.256348, 4429.230469, 4440.512695, 3674.358887, 3489.000000, 8191.000000, 8117.000000, 0.000000, 0.000000, 0.000000, 24875.000000, 498.461517, 4.000000, 4.000000, 4.000000, 4.000000, 4.000000, 4.000000, 4.000000, 4.000000, 4.000000, 4.000000, 4.000000, 4.000000, 4.000000, 4.000000, 4.000000, 4.000000
5.000000, 0.000000, 4087.692139, 4394.358887, 4449.230469, 4374.358887, 4398.461426, 4430.769043, 4443.589844, 4393.846191, 4216.410156, 4431.281738, 4396.410156, 4435.384277, 4448.717773, 3661.538330, 3538.000000, 8224.000000, 8139.000000, 0.000000, 0.000000, 0.000000, 24875.000000, 506.153839, 4.000000, 4.000000, 4.000000, 4.000000, 4.000000, 4.000000, 4.000000, 4.000000, 4.000000, 4.000000, 4.000000, 4.000000, 4.000000, 4.000000, 4.000000, 4.000000
6.000000, 0.000000, 4075.897217, 4391.281738, 4447.692383, 4371.794922, 4396.410156, 4432.307617, 4451.794922, 4400.000000, 4215.384277, 4425.641113, 4392.820313, 4433.333008, 4453.846191, 3648.205078, 3384.000000, 8224.000000, 8139.000000, 0.000000, 0.000000, 0.000000, 24875.000000, 513.846130, 4.000000, 4.000000, 4.000000, 4.000000, 4.000000, 4.000000, 4.000000, 4.000000, 4.000000, 4.000000, 4.000000, 4.000000, 4.000000, 4.000000, 4.000000, 4.000000
7.000000, 0.000000, 4067.179443, 4394.358887, 4447.179199, 4364.615234, 4382.563965, 4427.179199, 4454.358887, 4401.538574, 4215.384277, 4421.025391, 4382.563965, 4430.769043, 4447.179199, 3634.358887, 3458.000000, 8270.000000, 8174.000000, 0.000000, 0.000000, 0.000000, 24875.000000, 521.538452, 4.000000, 4.000000, 4.000000, 4.000000, 4.000000, 4.000000, 4.000000, 4.000000, 4.000000, 4.000000, 4.000000, 4.000000, 4.000000, 4.000000, 4.000000, 4.000000
8.000000, 0.000000, 4060.000000, 4400.512695, 4440.000000, 4366.666504, 4387.692383, 4425.641113, 4458.461426, 4411.794922, 4217.436035, 4425.641113, 4380.000000, 4426.666504, 4437.435547, 3616.923096, 955.000000, 8270.000000, 8174.000000, 0.000000, 0.000000, 0.000000, 24875.000000, 529.230774, 4.000000, 4.000000, 4.000000, 4.000000, 4.000000, 4.000000, 4.000000, 4.000000, 4.000000, 4.000000, 4.000000, 4.000000, 4.000000, 4.000000, 4.000000, 4.000000
9.000000, 0.000000, 4056.923096, 4402.051270, 4434.871582, 4374.358887, 4401.025391, 4431.794922, 4462.051270, 4414.358887, 4217.948730, 4431.794922, 4380.000000, 4420.512695, 4436.922852, 3605.128174, 2973.000000, 8363.000000, 8244.000000, 0.000000, 0.000000, 0.000000, 24875.000000, 536.923035, 4.000000, 4.000000, 4.000000, 4.000000, 4.000000, 4.000000, 4.000000, 4.000000, 4.000000, 4.000000, 4.000000, 4.000000, 4.000000, 4.000000, 4.000000, 4.000000
10.000000, 0.000000, 4058.461426, 4404.102539, 4437.435547, 4376.922852, 4398.974121, 4444.102539, 4460.512695, 4409.230469, 4217.436035, 4431.281738, 4375.384277, 4414.871582, 4435.384277, 3595.384521, 3668.000000, 8363.000000, 8244.000000, 0.000000, 0.000000, 0.000000, 24875.000000, 545.128174, 4.000000, 4.000000, 4.000000, 4.000000, 4.000000, 4.000000, 4.000000, 4.000000, 4.000000, 4.000000, 4.000000, 4.000000, 4.000000, 4.000000, 4.000000, 4.000000
11.000000, 0.000000, 4052.307617, 4405.641113, 4438.461426, 4372.307617, 4390.256348, 4445.127930, 4461.538574, 4417.435547, 4217.948730, 4426.666504, 4373.846191, 4414.871582, 4422.051270, 3584.615234, 3738.000000, 8388.000000, 8202.000000, 0.000000, 0.000000, 0.000000, 24875.000000, 552.820496, 4.000000, 4.000000, 4.000000, 4.000000, 4.000000, 4.000000, 4.000000, 4.000000, 4.000000, 4.000000, 4.000000, 4.000000, 4.000000, 4.000000, 4.000000, 4.000000
12.000000, 0.000000, 4045.128174, 4410.769043, 4435.897461, 4372.307617, 4388.717773, 4431.281738, 4459.487305, 4419.487305, 4217.948730, 4427.692383, 4377.435547, 4423.076660, 4415.897461, 3582.563965, 3499.000000, 8388.000000, 8202.000000, 0.000000, 0.000000, 0.000000, 24875.000000, 560.512817, 4.000000, 4.000000, 4.000000, 4.000000, 4.000000, 4.000000, 4.000000, 4.000000, 4.000000, 4.000000, 4.000000, 4.000000, 4.000000, 4.000000, 4.000000, 4.000000
13.000000, 0.000000, 4056.923096, 4422.563965, 4438.461426, 4381.538574, 4396.922852, 4430.769043, 4450.256348, 4409.743652, 4216.410156, 4435.384277, 4387.179199, 4431.794922, 4427.179199, 3592.820313, 3443.000000, 8393.000000, 8129.000000, 0.000000, 0.000000, 0.000000, 24875.000000, 568.205139, 4.000000, 4.000000, 4.000000, 4.000000, 4.000000, 4.000000, 4.000000, 4.000000, 4.000000, 4.000000, 4.000000, 4.000000, 4.000000, 4.000000, 4.000000, 4.000000
14.000000, 0.000000, 4066.666504, 4434.871582, 4441.538574, 4386.666504, 4399.487305, 4436.922852, 4446.153809, 4403.589844, 4215.897461, 4433.333008, 4390.769043, 4434.871582, 4428.205078, 3593.845947, 3668.000000, 8393.000000, 8129.000000, 0.000000, 0.000000, 0.000000, 24875.000000, 575.897400, 4.000000, 4.000000, 4.000000, 4.000000, 4.000000, 4.000000, 4.000000, 4.000000, 4.000000, 4.000000, 4.000000, 4.000000, 4.000000, 4.000000, 4.000000, 4.000000
15.000000, 0.000000, 4053.845947, 4437.435547, 4430.769043, 4378.461426, 4381.538574, 4430.769043, 4444.615234, 4402.563965, 4215.897461, 4418.461426, 4381.538574, 4426.666504, 4412.820313, 3575.384521, 3738.000000, 8373.000000, 8006.000000, 0.000000, 0.000000, 0.000000, 24875.000000, 583.589722, 4.000000, 4.000000, 4.000000, 4.000000, 4.000000, 4.000000, 4.000000, 4.000000, 4.000000, 4.000000, 4.000000, 4.000000, 4.000000, 4.000000, 4.000000, 4.000000
16.000000, 0.000000, 4040.512695, 4441.538574, 4418.974121, 4369.743652, 4370.769043, 4423.589844, 4438.461426, 4400.000000, 4215.897461, 4415.897461, 4375.384277, 4416.410156, 4407.692383, 3559.487061, 0.000000, 8373.000000, 8006.000000, 0.000000, 0.000000, 0.000000, 24875.000000, 591.794861, 4.000000, 4.000000, 4.000000, 4.000000, 4.000000, 4.000000, 4.000000, 4.000000, 4.000000, 4.000000, 4.000000, 4.000000, 4.000000, 4.000000, 4.000000, 4.000000
17.000000, 0.000000, 4044.102539, 4454.358887, 4418.974121, 4374.358887, 4381.538574, 4427.692383, 4436.922852, 4397.948730, 4215.897461, 4427.692383, 4383.076660, 4419.487305, 4417.435547, 3558.974365, 0.000000, 8355.000000, 7969.000000, 0.000000, 0.000000, 0.000000, 24875.000000, 599.487183, 4.000000, 4.000000, 4.000000, 4.000000, 4.000000, 4.000000, 4.000000, 4.000000, 4.000000, 4.000000, 4.000000, 4.000000, 4.000000, 4.000000, 4.000000, 4.000000
18.000000, 0.000000, 4048.205078, 4460.512695, 4423.589844, 4381.538574, 4386.666504, 4433.846191, 4443.076660, 4395.897461, 4215.897461, 4430.769043, 4389.743652, 4429.230469, 4421.538574, 3560.512695, 0.000000, 8355.000000, 7969.000000, 0.000000, 0.000000, 0.000000, 24875.000000, 607.179443, 4.000000, 4.000000, 4.000000, 4.000000, 4.000000, 4.000000, 4.000000, 4.000000, 4.000000, 4.000000, 4.000000, 4.000000, 4.000000, 4.000000, 4.000000, 4.000000
19.000000, 0.000000, 4045.640869, 4463.589844, 4428.205078, 4381.025391, 4382.051270, 4432.820313, 4445.127930, 4390.256348, 4216.410156, 4424.615234, 4391.281738, 4430.256348, 4417.435547, 3556.923096, 0.000000, 8312.000000, 7915.000000, 0.000000, 0.000000, 0.000000, 24875.000000, 614.871765, 4.000000, 4.000000, 4.000000, 4.000000, 4.000000, 4.000000, 4.000000, 4.000000, 4.000000, 4.000000, 4.000000, 4.000000, 4.000000, 4.000000, 4.000000, 4.000000
20.000000, 0.000000, 4046.666504, 4470.256348, 4430.256348, 4380.000000, 4378.461426, 4428.717773, 4443.589844, 4386.153809, 4216.410156, 4425.641113, 4394.871582, 4429.230469, 4414.358887, 3557.948730, 0.000000, 8312.000000, 7915.000000, 0.000000, 0.000000, 0.000000, 24875.000000, 622.564087, 4.000000, 4.000000, 4.000000, 4.000000, 4.000000, 4.000000, 4.000000, 4.000000, 4.000000, 4.000000, 4.000000, 4.000000, 4.000000, 4.000000, 4.000000, 4.000000
21.000000, 0.000000, 4045.640869, 4473.333008, 4423.589844, 4381.538574, 4373.846191, 4427.692383, 4441.025391, 4384.102539, 4215.384277, 4427.692383, 4394.358887, 4428.717773, 4414.871582, 3558.461426, 0.000000, 8283.000000, 7903.000000, 0.000000, 0.000000, 0.000000, 24875.000000, 630.256409, 4.000000, 4.000000, 4.000000, 4.000000, 4.000000, 4.000000, 4.000000, 4.000000, 4.000000, 4.000000, 4.000000, 4.000000, 4.000000, 4.000000, 4.000000, 4.000000
22.000000, 0.000000, 4039.487061, 4466.153809, 4416.922852, 4380.512695, 4372.307617, 4426.666504, 4431.281738, 4388.717773, 4217.436035, 4425.641113, 4388.717773, 4424.102539, 4413.333008, 3556.923096, 0.000000, 8283.000000, 7903.000000, 0.000000, 0.000000, 0.000000, 24875.000000, 638.461548, 4.000000, 4.000000, 4.000000, 4.000000, 4.000000, 4.000000, 4.000000, 4.000000, 4.000000, 4.000000, 4.000000, 4.000000, 4.000000, 4.000000, 4.000000, 4.000000
23.000000, 0.000000, 4037.948730, 4459.487305, 4415.384277, 4377.948730, 4373.846191, 4425.127930, 4429.230469, 4398.461426, 4219.487305, 4425.641113, 4382.563965, 4420.512695, 4403.589844, 3557.435791, 0.000000, 8250.000000, 7904.000000, 0.000000, 0.000000, 0.000000, 24875.000000, 646.153809, 4.000000, 4.000000, 4.000000, 4.000000, 4.000000, 4.000000, 4.000000, 4.000000, 4.000000, 4.000000, 4.000000, 4.000000, 4.000000, 4.000000, 4.000000, 4.000000
24.000000, 0.000000, 4035.384521, 4462.563965, 4413.333008, 4378.974121, 4365.641113, 4425.641113, 4439.487305, 4395.897461, 4217.436035, 4426.153809, 4378.461426, 4417.948730, 4389.230469, 3552.307617, 0.000000, 8250.000000, 7904.000000, 0.000000, 0.000000, 0.000000, 24875.000000, 653.846130, 4.000000, 4.000000, 4.000000, 4.000000, 4.000000, 4.000000, 4.000000, 4.000000, 4.000000, 4.000000, 4.000000, 4.000000, 4.000000, 4.000000, 4.000000, 4.000000
25.000000, 0.000000, 4029.743408, 4460.000000, 4408.717773, 4380.000000, 4364.102539, 4426.666504, 4437.948730, 4392.820313, 4216.922852, 4426.666504, 4378.461426, 4416.410156, 4383.589844, 3548.205078, 0.000000, 8190.000000, 7919.000000, 0.000000, 0.000000, 0.000000, 24875.000000, 661.538452, 4.000000, 4.000000, 4.000000, 4.000000, 4.000000, 4.000000, 4.000000, 4.000000, 4.000000, 4.000000, 4.000000, 4.000000, 4.000000, 4.000000, 4.000000, 4.000000
26.000000, 0.000000, 4028.717773, 4450.256348, 4409.230469, 4380.512695, 4375.384277, 4427.179199, 4432.307617, 4404.102539, 4218.974121, 4428.205078, 4381.538574, 4418.461426, 4382.563965, 3555.384521, 0.000000, 8190.000000, 7919.000000, 0.000000, 0.000000, 0.000000, 24875.000000, 669.230774, 4.000000, 4.000000, 4.000000, 4.000000, 4.000000, 4.000000, 4.000000, 4.000000, 4.000000, 4.000000, 4.000000, 4.000000, 4.000000, 4.000000, 4.000000, 4.000000
27.000000, 0.000000, 4026.666504, 4446.153809, 4414.871582, 4379.487305, 4374.871582, 4428.717773, 4442.051270, 4406.153809, 4217.436035, 4426.153809, 4380.512695, 4416.410156, 4376.922852, 3557.435791, 0.000000, 8157.000000, 7936.000000, 0.000000, 0.000000, 0.000000, 24875.000000, 676.923035, 4.000000, 4.000000, 4.000000, 4.000000, 4.000000, 4.000000, 4.000000, 4.000000, 4.000000, 4.000000, 4.000000, 4.000000, 4.000000, 4.000000, 4.000000, 4.000000
28.000000, 0.000000, 4025.128174, 4444.102539, 4414.871582, 4381.538574, 4368.717773, 4431.794922, 4457.435547, 4403.076660, 4215.897461, 4428.717773, 4383.076660, 4415.897461, 4378.974121, 3555.384521, 0.000000, 8157.000000, 7936.000000, 0.000000, 0.000000, 0.000000, 24875.000000, 685.128174, 4.000000, 4.000000, 4.000000, 4.000000, 4.000000, 4.000000, 4.000000, 4.000000, 4.000000, 4.000000, 4.000000, 4.000000, 4.000000, 4.000000, 4.000000, 4.000000
29.000000, 0.000000, 4029.743408, 4437.948730, 4413.333008, 4385.641113, 4374.358887, 4435.897461, 4457.435547, 4412.307617, 4218.974121, 4441.025391, 4393.846191, 4426.153809, 4388.717773, 3568.717773, 0.000000, 8100.000000, 7958.000000, 0.000000, 0.000000, 0.000000, 24875.000000, 692.820496, 4.000000, 4.000000, 4.000000, 4.000000, 4.000000, 4.000000, 4.000000, 4.000000, 4.000000, 4.000000, 4.000000, 4.000000, 4.000000, 4.000000, 4.000000, 4.000000
30.000000, 0.000000, 4030.256348, 4430.256348, 4420.512695, 4384.615234, 4375.897461, 4434.358887, 4446.666504, 4408.717773, 4219.487305, 4443.589844, 4395.897461, 4431.794922, 4384.615234, 3574.871826, 0.000000, 8100.000000, 7958.000000, 0.000000, 0.000000, 0.000000, 24875.000000, 700.512817, 4.000000, 4.000000, 4.000000, 4.000000, 4.000000, 4.000000, 4.000000, 4.000000, 4.000000, 4.000000, 4.000000, 4.000000, 4.000000, 4.000000, 4.000000, 4.000000
31.000000, 0.000000, 4028.205078, 4422.051270, 4423.589844, 4381.538574, 4368.717773, 4431.281738, 4443.076660, 4400.000000, 4216.410156, 4436.410156, 4388.717773, 4427.179199, 4372.820313, 3562.051270, 0.000000, 8080.000000, 7966.000000, 0.000000, 0.000000, 0.000000, 24875.000000, 708.205139, 4.000000, 4.000000, 4.000000, 4.000000, 4.000000, 4.000000, 4.000000, 4.000000, 4.000000, 4.000000, 4.000000, 4.000000, 4.000000, 4.000000, 4.000000, 4.000000
32.000000, 0.000000, 4029.230713, 4411.794922, 4422.051270, 4383.076660, 4371.281738, 4434.871582, 4450.769043, 4410.769043, 4217.436035, 4434.358887, 4383.076660, 4426.666504, 4369.743652, 3556.410156, 0.000000, 8080.000000, 7966.000000, 0.000000, 0.000000, 0.000000, 24875.000000, 715.897400, 4.000000, 4.000000, 4.000000, 4.000000, 4.000000, 4.000000, 4.000000, 4.000000, 4.000000, 4.000000, 4.000000, 4.000000, 4.000000, 4.000000, 4.000000, 4.000000
33.000000, 0.000000, 4029.743408, 4403.589844, 4421.025391, 4385.127930, 4369.230469, 4432.820313, 4446.666504, 4412.820313, 4218.461426, 4432.820313, 4383.589844, 4429.743652, 4370.769043, 3561.538330, 0.000000, 8066.000000, 7970.000000, 0.000000, 0.000000, 0.000000, 24875.000000, 723.589722, 4.000000, 4.000000, 4.000000, 4.000000, 4.000000, 4.000000, 4.000000, 4.000000, 4.000000, 4.000000, 4.000000, 4.000000, 4.000000, 4.000000, 4.000000, 4.000000
34.000000, 0.000000, 4028.205078, 4397.435547, 4418.461426, 4382.051270, 4357.435547, 4420.512695, 4432.820313, 4396.410156, 4216.922852, 4431.281738, 4383.589844, 4431.281738, 4366.666504, 3562.563965, 0.000000, 8066.000000, 7970.000000, 0.000000, 0.000000, 0.000000, 24875.000000, 731.794861, 4.000000, 4.000000, 4.000000, 4.000000, 4.000000, 4.000000, 4.000000, 4.000000, 4.000000, 4.000000, 4.000000, 4.000000, 4.000000, 4.000000, 4.000000, 4.000000
35.000000, 0.000000, 4022.563965, 4385.127930, 4412.307617, 4374.358887, 4355.897461, 4415.897461, 4437.435547, 4395.384277, 4216.922852, 4430.256348, 4375.897461, 4425.641113, 4361.538574, 3552.820313, 0.000000, 8055.000000, 7988.000000, 0.000000, 0.000000, 0.000000, 24875.000000, 739.487183, 4.000000, 4.000000, 4.000000, 4.000000, 4.000000, 4.000000, 4.000000, 4.000000, 4.000000, 4.000000, 4.000000, 4.000000, 4.000000, 4.000000, 4.000000, 4.000000
36.000000, 0.000000, 4013.333252, 4368.717773, 4407.692383, 4368.717773, 4361.538574, 4419.487305, 4444.102539, 4402.563965, 4216.410156, 4423.589844, 4368.717773, 4413.846191, 4357.948730, 3543.589600, 0.000000, 8055.000000, 7988.000000, 0.000000, 0.000000, 0.000000, 24875.000000, 747.179443, 4.000000, 4.000000, 4.000000, 4.000000, 4.000000, 4.000000, 4.000000, 4.000000, 4.000000, 4.000000, 4.000000, 4.000000, 4.000000, 4.000000, 4.000000, 4.000000
37.000000, 0.000000, 4015.897217, 4364.102539, 4412.820313, 4371.794922, 4358.974121, 4418.461426, 4434.358887, 4390.256348, 4215.384277, 4416.922852, 4367.692383, 4412.307617, 4354.871582, 3547.179443, 0.000000, 8052.000000, 7994.000000, 0.000000, 0.000000, 0.000000, 24875.000000, 754.871765, 4.000000, 4.000000, 4.000000, 4.000000, 4.000000, 4.000000, 4.000000, 4.000000, 4.000000, 4.000000, 4.000000, 4.000000, 4.000000, 4.000000, 4.000000, 4.000000
38.000000, 0.000000, 4024.615234, 4360.512695, 4418.461426, 4380.512695, 4355.897461, 4413.333008, 4425.127930, 4378.461426, 4215.897461, 4416.410156, 4369.743652, 4422.563965, 4353.846191, 3556.923096, 0.000000, 8052.000000, 7994.000000, 0.000000, 0.000000, 0.000000, 24875.000000, 762.564087, 4.000000, 4.000000, 4.000000, 4.000000, 4.000000, 4.000000, 4.000000, 4.000000, 4.000000, 4.000000, 4.000000, 4.000000, 4.000000, 4.000000, 4.000000, 4.000000
39.000000, 0.000000, 4026.666504, 4348.717773, 4416.410156, 4383.589844, 4362.563965, 4414.358887, 4426.666504, 4379.487305, 4217.436035, 4419.487305, 4368.717773, 4425.641113, 4355.384277, 3557.948730, 0.000000, 8067.000000, 7994.000000, 0.000000, 0.000000, 0.000000, 24875.000000, 770.256409, 4.000000, 4.000000, 4.000000, 4.000000, 4.000000, 4.000000, 4.000000, 4.000000, 4.000000, 4.000000, 4.000000, 4.000000, 4.000000, 4.000000, 4.000000, 4.000000
40.000000, 0.000000, 4027.179443, 4345.127930, 4414.358887, 4382.051270, 4367.692383, 4420.512695, 4436.922852, 4381.538574, 4218.461426, 4421.538574, 4373.333008, 4424.615234, 4358.461426, 3559.487061, 0.000000, 8067.000000, 7994.000000, 0.000000, 0.000000, 0.000000, 24875.000000, 778.461548, 4.000000, 4.000000, 4.000000, 4.000000, 4.000000, 4.000000, 4.000000, 4.000000, 4.000000, 4.000000, 4.000000, 4.000000, 4.000000, 4.000000, 4.000000, 4.000000
41.000000, 0.000000, 4025.640869, 4344.102539, 4410.256348, 4375.897461, 4366.153809, 4421.538574, 4440.000000, 4374.871582, 4216.922852, 4421.538574, 4375.897461, 4422.563965, 4355.384277, 3561.538330, 0.000000, 8075.000000, 7991.000000, 0.000000, 0.000000, 0.000000, 24875.000000, 786.153809, 4.000000, 4.000000, 4.000000, 4.000000, 4.000000, 4.000000, 4.000000, 4.000000, 4.000000, 4.000000, 4.000000, 4.000000, 4.000000, 4.000000, 4.000000, 4.000000
42.000000, 0.000000, 4014.358887, 4333.333008, 4397.948730, 4366.153809, 4361.538574, 4410.256348, 4425.641113, 4362.051270, 4214.358887, 4417.948730, 4363.589844, 4412.820313, 4346.153809, 3550.256348, 0.000000, 8075.000000, 7991.000000, 0.000000, 0.000000, 0.000000, 24875.000000, 793.846130, 4.000000, 4.000000, 4.000000, 4.000000, 4.000000, 4.000000, 4.000000, 4.000000, 4.000000, 4.000000, 4.000000, 4.000000, 4.000000, 4.000000, 4.000000, 4.000000
43.000000, 0.000000, 4004.615234, 4323.589844, 4389.743652, 4362.051270, 4355.384277, 4402.563965, 4412.307617, 4360.000000, 4215.384277, 4414.358887, 4355.897461, 4402.563965, 4340.000000, 3539.487061, 0.000000, 8092.000000, 7988.000000, 0.000000, 0.000000, 0.000000, 24875.000000, 801.538452, 4.000000, 4.000000, 4.000000, 4.000000, 4.000000, 4.000000, 4.000000, 4.000000, 4.000000, 4.000000, 4.000000, 4.000000, 4.000000, 4.000000, 4.000000, 4.000000
44.000000, 0.000000, 4006.153809, 4320.000000, 4393.846191, 4365.641113, 4357.435547, 4408.717773, 4417.948730, 4367.692383, 4216.922852, 4414.358887, 4363.076660, 4400.512695, 4340.512695, 3540.512695, 0.000000, 8092.000000, 7988.000000, 0.000000, 0.000000, 0.000000, 24875.000000, 809.230774, 4.000000, 4.000000, 4.000000, 4.000000, 4.000000, 4.000000, 4.000000, 4.000000, 4.000000, 4.000000, 4.000000, 4.000000, 4.000000, 4.000000, 4.000000, 4.000000
45.000000, 0.000000, 4009.743408, 4316.922852, 4393.333008, 4367.692383, 4364.615234, 4412.820313, 4421.025391, 4372.820313, 4216.410156, 4413.846191, 4368.717773, 4401.025391, 4344.102539, 3543.589600, 0.000000, 8104.000000, 7984.000000, 0.000000, 0.000000, 0.000000, 24875.000000, 816.923035, 4.000000, 4.000000, 4.000000, 4.000000, 4.000000, 4.000000, 4.000000, 4.000000, 4.000000, 4.000000, 4.000000, 4.000000, 4.000000, 4.000000, 4.000000, 4.000000
46.000000, 0.000000, 4005.128174, 4308.717773, 4386.153809, 4364.102539, 4367.179199, 4409.743652, 4412.820313, 4373.846191, 4216.410156, 4412.307617, 4360.512695, 4401.025391, 4331.794922, 3540.000000, 0.000000, 8104.000000, 7984.000000, 0.000000, 0.000000, 0.000000, 24875.000000, 825.128174, 4.000000, 4.000000, 4.000000, 4.000000, 4.000000, 4.000000, 4.000000, 4.000000, 4.000000, 4.000000, 4.000000, 4.000000, 4.000000, 4.000000, 4.000000, 4.000000
47.000000, 0.000000, 4003.076904, 4302.051270, 4390.256348, 4357.948730, 4365.127930, 4413.846191, 4417.435547, 4371.794922, 4216.922852, 4410.256348, 4353.333008, 4407.179199, 4315.384277, 3541.538330, 0.000000, 8108.000000, 7984.000000, 0.000000, 0.000000, 0.000000, 24875.000000, 832.820496, 4.000000, 4.000000, 4.000000, 4.000000, 4.000000, 4.000000, 4.000000, 4.000000, 4.000000, 4.000000, 4.000000, 4.000000, 4.000000, 4.000000, 4.000000, 4.000000
48.000000, 0.000000, 4012.820313, 4300.000000, 4398.974121, 4358.974121, 4364.615234, 4421.025391, 4431.794922, 4372.820313, 4216.410156, 4415.897461, 4364.102539, 4416.922852, 4327.179199, 3559.487061, 0.000000, 8108.000000, 7984.000000, 0.000000, 0.000000, 0.000000, 24875.000000, 840.512817, 4.000000, 4.000000, 4.000000, 4.000000, 4.000000, 4.000000, 4.000000, 4.000000, 4.000000, 4.000000, 4.000000, 4.000000, 4.000000, 4.000000, 4.000000, 4.000000
49.000000, 0.000000, 4021.538330, 4302.563965, 4397.948730, 4366.666504, 4366.666504, 4417.435547, 4428.717773, 4378.461426, 4216.410156, 4425.127930, 4381.025391, 4423.589844, 4351.281738, 3576.410156, 0.000000, 8115.000000, 7980.000000, 0.000000, 0.000000, 0.000000, 24875.000000, 848.205078, 4.000000, 4.000000, 4.000000, 4.000000, 4.000000, 4.000000, 4.000000, 4.000000, 4.000000, 4.000000, 4.000000, 4.000000, 4.000000, 4.000000, 4.000000, 4.000000
50.000000, 0.000000, 4020.512695, 4301.538574, 4394.358887, 4365.127930, 4369.230469, 4410.769043, 4418.461426, 4369.230469, 4216.410156, 4421.025391, 4383.589844, 4420.512695, 4358.974121, 3582.051270, 0.000000, 8115.000000, 7980.000000, 0.000000, 0.000000, 0.000000, 24875.000000, 855.897400, 4.000000, 4.000000, 4.000000, 4.000000, 4.000000, 4.000000, 4.000000, 4.000000, 4.000000, 4.000000, 4.000000, 4.000000, 4.000000, 4.000000, 4.000000, 4.000000
51.000000, 0.000000, 4019.487061, 4291.794922, 4393.333008, 4358.974121, 4369.743652, 4411.794922, 4422.563965, 4356.410156, 4216.410156, 4416.922852, 4379.487305, 4414.871582, 4362.563965, 3586.153809, 0.000000, 8118.000000, 7981.000000, 0.000000, 0.000000, 0.000000, 24875.000000, 863.589722, 4.000000, 4.000000, 4.000000, 4.000000, 4.000000, 4.000000, 4.000000, 4.000000, 4.000000, 4.000000, 4.000000, 4.000000, 4.000000, 4.000000, 4.000000, 4.000000
