title:clap1, recorded:07.05.18 12.52.59, timestamp started:2018-05-07T10:27:21.103681+02:00            , sampling:128, subject:chris, labels:COUNTER INTERPOLATED AF3 F7 F3 FC5 T7 P7 O1 O2 P8 T8 FC6 F4 F8 AF4 RAW_CQ GYROX GYROY MARKER MARKER_HARDWARE SYNC TIME_STAMP_s TIME_STAMP_ms CQ_AF3 CQ_F7 CQ_F3 CQ_FC5 CQ_T7 CQ_P7 CQ_O1 CQ_O2 CQ_P8 CQ_T8 CQ_FC6 CQ_F4 CQ_F8 CQ_AF4 CQ_CMS CQ_DRL, chan:40, samples:5644, units:emotiv
32.000000, 0.000000, 4223.589844, 4230.769043, 4187.692383, 4233.846191, 4194.871582, 4194.358887, 4238.461426, 4206.666504, 4252.820313, 4198.461426, 4206.153809, 4244.615234, 4222.051270, 4268.717773, 0.000000, 8203.000000, 8176.000000, 0.000000, 0.000000, 0.000000, 8738.000000, 772.820496, 4.000000, 4.000000, 4.000000, 4.000000, 4.000000, 4.000000, 4.000000, 4.000000, 4.000000, 4.000000, 4.000000, 4.000000, 4.000000, 4.000000, 4.000000, 4.000000
33.000000, 0.000000, 4216.922852, 4225.641113, 4181.538574, 4227.692383, 4178.974121, 4188.717773, 4234.871582, 4208.717773, 4245.127930, 4192.820313, 4199.487305, 4238.461426, 4213.846191, 4257.948730, 0.000000, 8200.000000, 8178.000000, 0.000000, 0.000000, 0.000000, 8738.000000, 781.025635, 4.000000, 4.000000, 4.000000, 4.000000, 4.000000, 4.000000, 4.000000, 4.000000, 4.000000, 4.000000, 4.000000, 4.000000, 4.000000, 4.000000, 4.000000, 4.000000
34.000000, 0.000000, 4213.846191, 4226.666504, 4184.102539, 4223.589844, 4166.153809, 4187.692383, 4234.358887, 4208.717773, 4237.948730, 4201.025391, 4190.769043, 4231.281738, 4205.127930, 4247.179199, 0.000000, 8200.000000, 8178.000000, 0.000000, 0.000000, 0.000000, 8738.000000, 788.717957, 4.000000, 4.000000, 4.000000, 4.000000, 4.000000, 4.000000, 4.000000, 4.000000, 4.000000, 4.000000, 4.000000, 4.000000, 4.000000, 4.000000, 4.000000, 4.000000
35.000000, 0.000000, 4217.948730, 4236.922852, 4186.666504, 4227.179199, 4187.179199, 4191.281738, 4237.436035, 4209.230469, 4238.461426, 4206.666504, 4185.127930, 4231.281738, 4201.025391, 4243.589844, 0.000000, 8195.000000, 8171.000000, 0.000000, 0.000000, 0.000000, 8738.000000, 796.923035, 4.000000, 4.000000, 4.000000, 4.000000, 4.000000, 4.000000, 4.000000, 4.000000, 4.000000, 4.000000, 4.000000, 4.000000, 4.000000, 4.000000, 4.000000, 4.000000
36.000000, 0.000000, 4223.076660, 4240.000000, 4192.307617, 4230.769043, 4196.922852, 4192.820313, 4240.000000, 4208.205078, 4237.436035, 4197.436035, 4185.127930, 4237.436035, 4202.563965, 4242.563965, 0.000000, 8195.000000, 8171.000000, 0.000000, 0.000000, 0.000000, 8738.000000, 804.615356, 4.000000, 4.000000, 4.000000, 4.000000, 4.000000, 4.000000, 4.000000, 4.000000, 4.000000, 4.000000, 4.000000, 4.000000, 4.000000, 4.000000, 4.000000, 4.000000
37.000000, 0.000000, 4228.205078, 4237.436035, 4201.025391, 4232.307617, 4181.025391, 4191.281738, 4243.589844, 4206.153809, 4238.461426, 4190.256348, 4191.794922, 4243.076660, 4213.846191, 4247.692383, 0.000000, 8188.000000, 8177.000000, 0.000000, 0.000000, 0.000000, 8738.000000, 812.820496, 4.000000, 4.000000, 4.000000, 4.000000, 4.000000, 4.000000, 4.000000, 4.000000, 4.000000, 4.000000, 4.000000, 4.000000, 4.000000, 4.000000, 4.000000, 4.000000
38.000000, 0.000000, 4231.794922, 4241.025391, 4202.051270, 4237.948730, 4167.692383, 4188.205078, 4244.102539, 4207.179199, 4249.743652, 4194.358887, 4197.948730, 4248.205078, 4224.102539, 4256.410156, 0.000000, 8188.000000, 8177.000000, 0.000000, 0.000000, 0.000000, 8738.000000, 820.512817, 4.000000, 4.000000, 4.000000, 4.000000, 4.000000, 4.000000, 4.000000, 4.000000, 4.000000, 4.000000, 4.000000, 4.000000, 4.000000, 4.000000, 4.000000, 4.000000
39.000000, 0.000000, 4233.846191, 4243.076660, 4206.666504, 4242.051270, 4172.307617, 4190.256348, 4246.153809, 4211.794922, 4266.666504, 4211.281738, 4198.461426, 4256.410156, 4225.127930, 4257.436035, 0.000000, 8182.000000, 8179.000000, 0.000000, 0.000000, 0.000000, 8738.000000, 828.717957, 4.000000, 4.000000, 4.000000, 4.000000, 4.000000, 4.000000, 4.000000, 4.000000, 4.000000, 4.000000, 4.000000, 4.000000, 4.000000, 4.000000, 4.000000, 4.000000
40.000000, 0.000000, 4238.461426, 4241.538574, 4215.897461, 4236.922852, 4186.153809, 4203.589844, 4252.307617, 4220.000000, 4274.358887, 4223.589844, 4203.589844, 4265.641113, 4229.230469, 4261.025391, 0.000000, 8182.000000, 8179.000000, 0.000000, 0.000000, 0.000000, 8738.000000, 836.410217, 4.000000, 4.000000, 4.000000, 4.000000, 4.000000, 4.000000, 4.000000, 4.000000, 4.000000, 4.000000, 4.000000, 4.000000, 4.000000, 4.000000, 4.000000, 4.000000
41.000000, 0.000000, 4237.436035, 4238.461426, 4213.846191, 4228.717773, 4191.794922, 4208.717773, 4254.871582, 4216.922852, 4267.179199, 4216.410156, 4210.256348, 4264.615234, 4232.820313, 4263.589844, 0.000000, 8178.000000, 8182.000000, 0.000000, 0.000000, 0.000000, 8738.000000, 844.102539, 4.000000, 4.000000, 4.000000, 4.000000, 4.000000, 4.000000, 4.000000, 4.000000, 4.000000, 4.000000, 4.000000, 4.000000, 4.000000, 4.000000, 4.000000, 4.000000
42.000000, 0.000000, 4233.846191, 4237.948730, 4210.769043, 4230.256348, 4188.205078, 4204.615234, 4253.333008, 4212.820313, 4263.589844, 4207.692383, 4211.281738, 4262.051270, 4228.205078, 4261.538574, 0.000000, 8178.000000, 8182.000000, 0.000000, 0.000000, 0.000000, 8738.000000, 852.307678, 4.000000, 4.000000, 4.000000, 4.000000, 4.000000, 4.000000, 4.000000, 4.000000, 4.000000, 4.000000, 4.000000, 4.000000, 4.000000, 4.000000, 4.000000, 4.000000
43.000000, 0.000000, 4232.307617, 4233.846191, 4211.794922, 4233.846191, 4177.436035, 4202.563965, 4247.692383, 4220.512695, 4266.666504, 4212.820313, 4207.179199, 4261.025391, 4224.615234, 4255.897461, 0.000000, 8183.000000, 8177.000000, 0.000000, 0.000000, 0.000000, 8738.000000, 860.000000, 4.000000, 4.000000, 4.000000, 4.000000, 4.000000, 4.000000, 4.000000, 4.000000, 4.000000, 4.000000, 4.000000, 4.000000, 4.000000, 4.000000, 4.000000, 4.000000
44.000000, 0.000000, 4228.717773, 4234.871582, 4205.127930, 4229.230469, 4181.538574, 4197.948730, 4245.641113, 4219.487305, 4261.538574, 4213.333008, 4201.025391, 4255.384277, 4224.615234, 4248.717773, 0.000000, 8183.000000, 8177.000000, 0.000000, 0.000000, 0.000000, 8738.000000, 867.692261, 4.000000, 4.000000, 4.000000, 4.000000, 4.000000, 4.000000, 4.000000, 4.000000, 4.000000, 4.000000, 4.000000, 4.000000, 4.000000, 4.000000, 4.000000, 4.000000
45.000000, 0.000000, 4220.000000, 4241.025391, 4197.948730, 4226.666504, 4197.436035, 4196.410156, 4242.563965, 4206.153809, 4254.358887, 4195.897461, 4189.743652, 4242.051270, 4213.333008, 4238.974121, 0.000000, 8189.000000, 8176.000000, 0.000000, 0.000000, 0.000000, 8738.000000, 875.384583, 4.000000, 4.000000, 4.000000, 4.000000, 4.000000, 4.000000, 4.000000, 4.000000, 4.000000, 4.000000, 4.000000, 4.000000, 4.000000, 4.000000, 4.000000, 4.000000
46.000000, 0.000000, 4211.281738, 4231.794922, 4194.871582, 4229.230469, 4184.102539, 4194.871582, 4236.922852, 4201.025391, 4250.769043, 4186.153809, 4178.461426, 4234.358887, 4203.589844, 4228.717773, 0.000000, 8189.000000, 8176.000000, 0.000000, 0.000000, 0.000000, 8738.000000, 883.589722, 4.000000, 4.000000, 4.000000, 4.000000, 4.000000, 4.000000, 4.000000, 4.000000, 4.000000, 4.000000, 4.000000, 4.000000, 4.000000, 4.000000, 4.000000, 4.000000
47.000000, 0.000000, 4218.974121, 4226.153809, 4196.410156, 4230.769043, 4174.871582, 4193.333008, 4236.410156, 4210.256348, 4257.436035, 4203.589844, 4189.230469, 4241.025391, 4221.538574, 4240.512695, 0.000000, 8191.000000, 8182.000000, 0.000000, 0.000000, 0.000000, 8738.000000, 891.282043, 4.000000, 4.000000, 4.000000, 4.000000, 4.000000, 4.000000, 4.000000, 4.000000, 4.000000, 4.000000, 4.000000, 4.000000, 4.000000, 4.000000, 4.000000, 4.000000
48.000000, 0.000000, 4235.897461, 4244.102539, 4206.153809, 4234.358887, 4201.025391, 4197.948730, 4239.487305, 4214.871582, 4268.717773, 4215.897461, 4207.692383, 4251.794922, 4242.051270, 4263.589844, 0.000000, 8191.000000, 8182.000000, 0.000000, 0.000000, 0.000000, 8738.000000, 899.487183, 4.000000, 4.000000, 4.000000, 4.000000, 4.000000, 4.000000, 4.000000, 4.000000, 4.000000, 4.000000, 4.000000, 4.000000, 4.000000, 4.000000, 4.000000, 4.000000
49.000000, 0.000000, 4234.358887, 4252.307617, 4209.743652, 4237.436035, 4208.717773, 4198.974121, 4239.487305, 4213.846191, 4269.230469, 4204.615234, 4203.076660, 4256.922852, 4231.794922, 4263.076660, 0.000000, 8199.000000, 8180.000000, 0.000000, 0.000000, 0.000000, 8738.000000, 907.179443, 4.000000, 4.000000, 4.000000, 4.000000, 4.000000, 4.000000, 4.000000, 4.000000, 4.000000, 4.000000, 4.000000, 4.000000, 4.000000, 4.000000, 4.000000, 4.000000
50.000000, 0.000000, 4223.589844, 4238.461426, 4201.025391, 4236.410156, 4185.127930, 4195.384277, 4232.820313, 4215.384277, 4267.692383, 4201.025391, 4191.794922, 4255.897461, 4220.512695, 4251.794922, 0.000000, 8199.000000, 8180.000000, 0.000000, 0.000000, 0.000000, 8738.000000, 915.384583, 4.000000, 4.000000, 4.000000, 4.000000, 4.000000, 4.000000, 4.000000, 4.000000, 4.000000, 4.000000, 4.000000, 4.000000, 4.000000, 4.000000, 4.000000, 4.000000
51.000000, 0.000000, 4222.051270, 4227.692383, 4200.000000, 4231.281738, 4177.948730, 4196.922852, 4234.871582, 4218.461426, 4268.717773, 4207.692383, 4195.384277, 4253.846191, 4226.666504, 4250.769043, 0.000000, 8212.000000, 8184.000000, 0.000000, 0.000000, 0.000000, 8738.000000, 923.076904, 4.000000, 4.000000, 4.000000, 4.000000, 4.000000, 4.000000, 4.000000, 4.000000, 4.000000, 4.000000, 4.000000, 4.000000, 4.000000, 4.000000, 4.000000, 4.000000
52.000000, 0.000000, 4222.051270, 4228.205078, 4204.102539, 4229.230469, 4184.615234, 4203.589844, 4242.051270, 4216.410156, 4267.692383, 4205.641113, 4197.436035, 4251.281738, 4227.179199, 4249.743652, 0.000000, 8212.000000, 8184.000000, 0.000000, 0.000000, 0.000000, 8738.000000, 931.282043, 4.000000, 4.000000, 4.000000, 4.000000, 4.000000, 4.000000, 4.000000, 4.000000, 4.000000, 4.000000, 4.000000, 4.000000, 4.000000, 4.000000, 4.000000, 4.000000
53.000000, 0.000000, 4222.563965, 4233.846191, 4201.025391, 4233.846191, 4181.538574, 4206.153809, 4244.615234, 4216.922852, 4277.436035, 4203.076660, 4200.512695, 4255.897461, 4229.743652, 4250.769043, 0.000000, 8214.000000, 8184.000000, 0.000000, 0.000000, 0.000000, 8738.000000, 938.974365, 4.000000, 4.000000, 4.000000, 4.000000, 4.000000, 4.000000, 4.000000, 4.000000, 4.000000, 4.000000, 4.000000, 4.000000, 4.000000, 4.000000, 4.000000, 4.000000
54.000000, 0.000000, 4228.717773, 4241.025391, 4203.076660, 4235.897461, 4182.051270, 4204.102539, 4250.769043, 4223.589844, 4291.281738, 4210.769043, 4209.743652, 4259.487305, 4238.461426, 4255.897461, 0.000000, 8214.000000, 8184.000000, 0.000000, 0.000000, 0.000000, 8738.000000, 947.179443, 4.000000, 4.000000, 4.000000, 4.000000, 4.000000, 4.000000, 4.000000, 4.000000, 4.000000, 4.000000, 4.000000, 4.000000, 4.000000, 4.000000, 4.000000, 4.000000
55.000000, 0.000000, 4233.846191, 4245.127930, 4206.666504, 4234.871582, 4196.922852, 4208.717773, 4254.871582, 4228.717773, 4295.384277, 4219.487305, 4211.281738, 4253.333008, 4239.487305, 4256.922852, 0.000000, 8210.000000, 8182.000000, 0.000000, 0.000000, 0.000000, 8738.000000, 954.871765, 4.000000, 4.000000, 4.000000, 4.000000, 4.000000, 4.000000, 4.000000, 4.000000, 4.000000, 4.000000, 4.000000, 4.000000, 4.000000, 4.000000, 4.000000, 4.000000
56.000000, 0.000000, 4234.871582, 4238.974121, 4207.179199, 4235.384277, 4215.384277, 4216.922852, 4254.871582, 4231.281738, 4295.384277, 4215.897461, 4208.717773, 4251.794922, 4235.384277, 4260.000000, 0.000000, 8210.000000, 8182.000000, 0.000000, 0.000000, 0.000000, 8738.000000, 962.564087, 4.000000, 4.000000, 4.000000, 4.000000, 4.000000, 4.000000, 4.000000, 4.000000, 4.000000, 4.000000, 4.000000, 4.000000, 4.000000, 4.000000, 4.000000, 4.000000
57.000000, 0.000000, 4228.717773, 4232.820313, 4204.102539, 4234.358887, 4210.256348, 4210.769043, 4252.307617, 4228.205078, 4289.230469, 4210.256348, 4204.615234, 4250.256348, 4227.179199, 4256.410156, 0.000000, 8210.000000, 8186.000000, 0.000000, 0.000000, 0.000000, 8738.000000, 970.256409, 4.000000, 4.000000, 4.000000, 4.000000, 4.000000, 4.000000, 4.000000, 4.000000, 4.000000, 4.000000, 4.000000, 4.000000, 4.000000, 4.000000, 4.000000, 4.000000
58.000000, 0.000000, 4222.563965, 4245.127930, 4189.230469, 4233.846191, 4170.769043, 4193.846191, 4241.025391, 4217.948730, 4270.769043, 4207.692383, 4192.820313, 4236.922852, 4214.871582, 4240.000000, 0.000000, 8210.000000, 8186.000000, 0.000000, 0.000000, 0.000000, 8738.000000, 978.461487, 4.000000, 4.000000, 4.000000, 4.000000, 4.000000, 4.000000, 4.000000, 4.000000, 4.000000, 4.000000, 4.000000, 4.000000, 4.000000, 4.000000, 4.000000, 4.000000
59.000000, 0.000000, 4224.615234, 4260.000000, 4182.563965, 4237.436035, 4163.076660, 4192.307617, 4233.846191, 4209.743652, 4258.461426, 4204.102539, 4182.051270, 4227.692383, 4206.666504, 4229.230469, 0.000000, 8205.000000, 8181.000000, 0.000000, 0.000000, 0.000000, 8738.000000, 986.666626, 4.000000, 4.000000, 4.000000, 4.000000, 4.000000, 4.000000, 4.000000, 4.000000, 4.000000, 4.000000, 4.000000, 4.000000, 4.000000, 4.000000, 4.000000, 4.000000
60.000000, 0.000000, 4228.717773, 4258.974121, 4188.717773, 4237.948730, 4203.076660, 4205.127930, 4237.948730, 4207.179199, 4267.179199, 4203.589844, 4185.641113, 4232.820313, 4215.897461, 4236.410156, 0.000000, 8205.000000, 8181.000000, 0.000000, 0.000000, 0.000000, 8738.000000, 994.358948, 4.000000, 4.000000, 4.000000, 4.000000, 4.000000, 4.000000, 4.000000, 4.000000, 4.000000, 4.000000, 4.000000, 4.000000, 4.000000, 4.000000, 4.000000, 4.000000
61.000000, 0.000000, 4225.127930, 4252.820313, 4187.692383, 4231.794922, 4215.384277, 4203.076660, 4239.487305, 4203.589844, 4267.179199, 4199.487305, 4191.794922, 4232.820313, 4224.615234, 4241.538574, 0.000000, 8189.000000, 8178.000000, 0.000000, 0.000000, 0.000000, 8739.000000, 2.051282, 4.000000, 4.000000, 4.000000, 4.000000, 4.000000, 4.000000, 4.000000, 4.000000, 4.000000, 4.000000, 4.000000, 4.000000, 4.000000, 4.000000, 4.000000, 4.000000
62.000000, 0.000000, 4223.589844, 4257.948730, 4187.692383, 4231.281738, 4194.871582, 4194.871582, 4232.307617, 4195.897461, 4253.846191, 4197.436035, 4189.743652, 4232.820313, 4225.127930, 4238.974121, 0.000000, 8189.000000, 8178.000000, 0.000000, 0.000000, 0.000000, 8739.000000, 10.256410, 4.000000, 4.000000, 4.000000, 4.000000, 4.000000, 4.000000, 4.000000, 4.000000, 4.000000, 4.000000, 4.000000, 4.000000, 4.000000, 4.000000, 4.000000, 4.000000
63.000000, 0.000000, 4230.769043, 4266.153809, 4196.410156, 4242.563965, 4194.871582, 4201.025391, 4228.717773, 4191.281738, 4255.384277, 4209.743652, 4192.307617, 4244.102539, 4231.281738, 4247.179199, 0.000000, 8184.000000, 8180.000000, 0.000000, 0.000000, 0.000000, 8739.000000, 17.948717, 4.000000, 4.000000, 4.000000, 4.000000, 4.000000, 4.000000, 4.000000, 4.000000, 4.000000, 4.000000, 4.000000, 4.000000, 4.000000, 4.000000, 4.000000, 4.000000
64.000000, 0.000000, 4231.794922, 4260.512695, 4197.436035, 4242.563965, 4189.230469, 4205.641113, 4232.820313, 4190.769043, 4255.897461, 4214.871582, 4195.897461, 4247.179199, 4234.358887, 4251.281738, 3342.000000, 8184.000000, 8180.000000, 0.000000, 0.000000, 0.000000, 8739.000000, 26.153845, 4.000000, 4.000000, 4.000000, 4.000000, 4.000000, 4.000000, 4.000000, 4.000000, 4.000000, 4.000000, 4.000000, 4.000000, 4.000000, 4.000000, 4.000000, 4.000000
65.000000, 0.000000, 4232.820313, 4255.384277, 4193.846191, 4235.384277, 4183.076660, 4205.127930, 4235.384277, 4195.897461, 4249.743652, 4204.615234, 4198.974121, 4246.153809, 4235.897461, 4250.256348, 3454.000000, 8171.000000, 8189.000000, 0.000000, 0.000000, 0.000000, 8739.000000, 33.846153, 4.000000, 4.000000, 4.000000, 4.000000, 4.000000, 4.000000, 4.000000, 4.000000, 4.000000, 4.000000, 4.000000, 4.000000, 4.000000, 4.000000, 4.000000, 4.000000
66.000000, 0.000000, 4244.102539, 4264.615234, 4201.538574, 4241.538574, 4212.820313, 4210.769043, 4234.871582, 4203.076660, 4255.897461, 4206.153809, 4208.717773, 4257.436035, 4245.127930, 4262.051270, 3477.000000, 8171.000000, 8189.000000, 0.000000, 0.000000, 0.000000, 8739.000000, 41.538460, 4.000000, 4.000000, 4.000000, 4.000000, 4.000000, 4.000000, 4.000000, 4.000000, 4.000000, 4.000000, 4.000000, 4.000000, 4.000000, 4.000000, 4.000000, 4.000000
67.000000, 0.000000, 4247.179199, 4267.692383, 4205.127930, 4247.692383, 4212.820313, 4208.205078, 4234.871582, 4203.589844, 4265.127930, 4215.897461, 4212.307617, 4265.641113, 4248.717773, 4267.692383, 3542.000000, 8171.000000, 8188.000000, 0.000000, 0.000000, 0.000000, 8739.000000, 49.743587, 4.000000, 4.000000, 4.000000, 4.000000, 4.000000, 4.000000, 4.000000, 4.000000, 4.000000, 4.000000, 4.000000, 4.000000, 4.000000, 4.000000, 4.000000, 4.000000
68.000000, 0.000000, 4239.487305, 4258.461426, 4200.000000, 4241.538574, 4184.102539, 4202.563965, 4238.461426, 4203.589844, 4269.230469, 4220.000000, 4210.256348, 4262.051270, 4246.153809, 4260.000000, 3564.000000, 8171.000000, 8188.000000, 0.000000, 0.000000, 0.000000, 8739.000000, 57.435898, 4.000000, 4.000000, 4.000000, 4.000000, 4.000000, 4.000000, 4.000000, 4.000000, 4.000000, 4.000000, 4.000000, 4.000000, 4.000000, 4.000000, 4.000000, 4.000000
69.000000, 0.000000, 4235.897461, 4251.794922, 4200.000000, 4233.846191, 4192.820313, 4206.153809, 4241.025391, 4209.230469, 4268.205078, 4216.922852, 4210.256348, 4256.922852, 4244.102539, 4253.333008, 3495.000000, 8167.000000, 8189.000000, 0.000000, 0.000000, 0.000000, 8739.000000, 65.128204, 4.000000, 4.000000, 4.000000, 4.000000, 4.000000, 4.000000, 4.000000, 4.000000, 4.000000, 4.000000, 4.000000, 4.000000, 4.000000, 4.000000, 4.000000, 4.000000
70.000000, 0.000000, 4236.410156, 4250.769043, 4199.487305, 4234.871582, 4188.205078, 4202.563965, 4233.333008, 4212.307617, 4264.102539, 4206.153809, 4202.563965, 4250.256348, 4238.461426, 4252.307617, 2992.000000, 8167.000000, 8189.000000, 0.000000, 0.000000, 0.000000, 8739.000000, 72.820511, 4.000000, 4.000000, 4.000000, 4.000000, 4.000000, 4.000000, 4.000000, 4.000000, 4.000000, 4.000000, 4.000000, 4.000000, 4.000000, 4.000000, 4.000000, 4.000000
71.000000, 0.000000, 4234.358887, 4252.820313, 4198.461426, 4238.461426, 4156.410156, 4191.794922, 4229.743652, 4211.794922, 4264.102539, 4205.641113, 4194.871582, 4249.743652, 4232.820313, 4248.717773, 1761.000000, 8171.000000, 8186.000000, 0.000000, 0.000000, 0.000000, 8739.000000, 81.025642, 4.000000, 4.000000, 4.000000, 4.000000, 4.000000, 4.000000, 4.000000, 4.000000, 4.000000, 4.000000, 4.000000, 4.000000, 4.000000, 4.000000, 4.000000, 4.000000
72.000000, 0.000000, 4235.897461, 4255.384277, 4201.538574, 4237.948730, 4171.794922, 4191.281738, 4231.794922, 4210.256348, 4262.563965, 4213.333008, 4195.384277, 4254.871582, 4231.794922, 4242.563965, 3471.000000, 8171.000000, 8186.000000, 0.000000, 0.000000, 0.000000, 8739.000000, 88.717949, 4.000000, 4.000000, 4.000000, 4.000000, 4.000000, 4.000000, 4.000000, 4.000000, 4.000000, 4.000000, 4.000000, 4.000000, 4.000000, 4.000000, 4.000000, 4.000000
73.000000, 0.000000, 4236.922852, 4257.436035, 4201.025391, 4234.871582, 4210.769043, 4200.512695, 4232.307617, 4206.153809, 4261.538574, 4211.794922, 4190.256348, 4252.307617, 4224.615234, 4236.410156, 1589.000000, 8176.000000, 8185.000000, 0.000000, 0.000000, 0.000000, 8739.000000, 96.923073, 4.000000, 4.000000, 4.000000, 4.000000, 4.000000, 4.000000, 4.000000, 4.000000, 4.000000, 4.000000, 4.000000, 4.000000, 4.000000, 4.000000, 4.000000, 4.000000
74.000000, 0.000000, 4228.205078, 4250.769043, 4198.974121, 4230.256348, 4193.846191, 4200.000000, 4233.333008, 4202.051270, 4261.025391, 4206.666504, 4177.948730, 4246.666504, 4218.461426, 4230.769043, 3089.000000, 8176.000000, 8185.000000, 0.000000, 0.000000, 0.000000, 8739.000000, 104.615379, 4.000000, 4.000000, 4.000000, 4.000000, 4.000000, 4.000000, 4.000000, 4.000000, 4.000000, 4.000000, 4.000000, 4.000000, 4.000000, 4.000000, 4.000000, 4.000000
75.000000, 0.000000, 4228.205078, 4248.717773, 4200.512695, 4232.307617, 4173.333008, 4195.384277, 4234.358887, 4197.948730, 4256.922852, 4206.666504, 4181.025391, 4246.153809, 4229.743652, 4235.384277, 3534.000000, 8187.000000, 8185.000000, 0.000000, 0.000000, 0.000000, 8739.000000, 112.820511, 4.000000, 4.000000, 4.000000, 4.000000, 4.000000, 4.000000, 4.000000, 4.000000, 4.000000, 4.000000, 4.000000, 4.000000, 4.000000, 4.000000, 4.000000, 4.000000
76.000000, 0.000000, 4238.461426, 4260.512695, 4202.051270, 4234.358887, 4200.512695, 4199.487305, 4229.230469, 4201.538574, 4257.436035, 4203.076660, 4195.384277, 4251.281738, 4242.563965, 4248.205078, 2785.000000, 8187.000000, 8185.000000, 0.000000, 0.000000, 0.000000, 8739.000000, 120.512817, 4.000000, 4.000000, 4.000000, 4.000000, 4.000000, 4.000000, 4.000000, 4.000000, 4.000000, 4.000000, 4.000000, 4.000000, 4.000000, 4.000000, 4.000000, 4.000000
77.000000, 0.000000, 4236.922852, 4258.974121, 4204.615234, 4233.333008, 4206.153809, 4197.948730, 4227.692383, 4206.666504, 4267.179199, 4205.641113, 4198.461426, 4255.384277, 4240.000000, 4248.205078, 3343.000000, 8190.000000, 8183.000000, 0.000000, 0.000000, 0.000000, 8739.000000, 128.205124, 4.000000, 4.000000, 4.000000, 4.000000, 4.000000, 4.000000, 4.000000, 4.000000, 4.000000, 4.000000, 4.000000, 4.000000, 4.000000, 4.000000, 4.000000, 4.000000
78.000000, 0.000000, 4231.794922, 4248.205078, 4206.666504, 4234.358887, 4177.948730, 4190.256348, 4230.256348, 4207.692383, 4277.948730, 4219.487305, 4196.410156, 4253.846191, 4237.436035, 4240.000000, 3089.000000, 8190.000000, 8183.000000, 0.000000, 0.000000, 0.000000, 8739.000000, 136.410248, 4.000000, 4.000000, 4.000000, 4.000000, 4.000000, 4.000000, 4.000000, 4.000000, 4.000000, 4.000000, 4.000000, 4.000000, 4.000000, 4.000000, 4.000000, 4.000000
79.000000, 0.000000, 4234.358887, 4249.230469, 4204.615234, 4231.794922, 4170.256348, 4190.256348, 4229.230469, 4208.205078, 4278.461426, 4221.025391, 4197.436035, 4253.333008, 4242.563965, 4240.000000, 3534.000000, 8195.000000, 8181.000000, 0.000000, 0.000000, 0.000000, 8739.000000, 144.102554, 4.000000, 4.000000, 4.000000, 4.000000, 4.000000, 4.000000, 4.000000, 4.000000, 4.000000, 4.000000, 4.000000, 4.000000, 4.000000, 4.000000, 4.000000, 4.000000
80.000000, 0.000000, 4237.948730, 4254.871582, 4202.563965, 4229.230469, 4179.487305, 4193.846191, 4228.205078, 4213.846191, 4280.000000, 4216.922852, 4202.051270, 4257.948730, 4245.641113, 4245.641113, 2785.000000, 8195.000000, 8181.000000, 0.000000, 0.000000, 0.000000, 8739.000000, 151.794861, 4.000000, 4.000000, 4.000000, 4.000000, 4.000000, 4.000000, 4.000000, 4.000000, 4.000000, 4.000000, 4.000000, 4.000000, 4.000000, 4.000000, 4.000000, 4.000000
81.000000, 0.000000, 4243.076660, 4255.384277, 4202.563965, 4236.922852, 4185.641113, 4193.846191, 4229.743652, 4220.000000, 4290.769043, 4222.051270, 4207.692383, 4258.974121, 4246.666504, 4243.076660, 3343.000000, 8202.000000, 8180.000000, 0.000000, 0.000000, 0.000000, 8739.000000, 160.000000, 4.000000, 4.000000, 4.000000, 4.000000, 4.000000, 4.000000, 4.000000, 4.000000, 4.000000, 4.000000, 4.000000, 4.000000, 4.000000, 4.000000, 4.000000, 4.000000
82.000000, 0.000000, 4238.974121, 4249.230469, 4195.384277, 4237.948730, 4184.615234, 4196.410156, 4233.846191, 4218.974121, 4288.205078, 4219.487305, 4200.000000, 4249.743652, 4236.410156, 4228.205078, 3089.000000, 8202.000000, 8180.000000, 0.000000, 0.000000, 0.000000, 8739.000000, 167.692307, 4.000000, 4.000000, 4.000000, 4.000000, 4.000000, 4.000000, 4.000000, 4.000000, 4.000000, 4.000000, 4.000000, 4.000000, 4.000000, 4.000000, 4.000000, 4.000000
83.000000, 0.000000, 4223.076660, 4243.589844, 4184.102539, 4223.076660, 4183.076660, 4203.076660, 4237.948730, 4217.948730, 4277.436035, 4210.769043, 4187.179199, 4239.487305, 4223.076660, 4219.487305, 3534.000000, 8201.000000, 8179.000000, 0.000000, 0.000000, 0.000000, 8739.000000, 175.384613, 4.000000, 4.000000, 4.000000, 4.000000, 4.000000, 4.000000, 4.000000, 4.000000, 4.000000, 4.000000, 4.000000, 4.000000, 4.000000, 4.000000, 4.000000, 4.000000
84.000000, 0.000000, 4214.871582, 4242.051270, 4180.000000, 4217.948730, 4189.230469, 4203.589844, 4237.948730, 4218.974121, 4273.846191, 4200.000000, 4182.051270, 4232.307617, 4218.461426, 4218.461426, 2785.000000, 8201.000000, 8179.000000, 0.000000, 0.000000, 0.000000, 8739.000000, 183.589737, 4.000000, 4.000000, 4.000000, 4.000000, 4.000000, 4.000000, 4.000000, 4.000000, 4.000000, 4.000000, 4.000000, 4.000000, 4.000000, 4.000000, 4.000000, 4.000000
85.000000, 0.000000, 4218.974121, 4246.666504, 4180.512695, 4225.641113, 4204.615234, 4206.153809, 4239.487305, 4215.897461, 4270.769043, 4196.922852, 4179.487305, 4230.256348, 4221.025391, 4217.948730, 3343.000000, 8201.000000, 8179.000000, 0.000000, 0.000000, 0.000000, 8739.000000, 191.794861, 4.000000, 4.000000, 4.000000, 4.000000, 4.000000, 4.000000, 4.000000, 4.000000, 4.000000, 4.000000, 4.000000, 4.000000, 4.000000, 4.000000, 4.000000, 4.000000
86.000000, 0.000000, 4228.205078, 4254.871582, 4184.102539, 4233.333008, 4205.127930, 4207.179199, 4240.000000, 4217.948730, 4271.281738, 4210.256348, 4182.563965, 4238.461426, 4226.666504, 4226.153809, 3089.000000, 8201.000000, 8179.000000, 0.000000, 0.000000, 0.000000, 8739.000000, 199.487167, 4.000000, 4.000000, 4.000000, 4.000000, 4.000000, 4.000000, 4.000000, 4.000000, 4.000000, 4.000000, 4.000000, 4.000000, 4.000000, 4.000000, 4.000000, 4.000000
87.000000, 0.000000, 4235.384277, 4255.897461, 4193.846191, 4236.410156, 4185.127930, 4197.948730, 4238.974121, 4221.025391, 4278.461426, 4222.051270, 4191.281738, 4245.127930, 4231.794922, 4234.871582, 3534.000000, 8199.000000, 8176.000000, 0.000000, 0.000000, 0.000000, 8739.000000, 207.179489, 4.000000, 4.000000, 4.000000, 4.000000, 4.000000, 4.000000, 4.000000, 4.000000, 4.000000, 4.000000, 4.000000, 4.000000, 4.000000, 4.000000, 4.000000, 4.000000
88.000000, 0.000000, 4240.000000, 4258.461426, 4201.025391, 4241.025391, 4189.743652, 4199.487305, 4238.974121, 4220.000000, 4289.743652, 4218.461426, 4197.436035, 4248.717773, 4233.846191, 4238.461426, 2785.000000, 8199.000000, 8176.000000, 0.000000, 0.000000, 0.000000, 8739.000000, 214.871796, 4.000000, 4.000000, 4.000000, 4.000000, 4.000000, 4.000000, 4.000000, 4.000000, 4.000000, 4.000000, 4.000000, 4.000000, 4.000000, 4.000000, 4.000000, 4.000000
89.000000, 0.000000, 4240.000000, 4265.127930, 4200.000000, 4243.589844, 4205.127930, 4209.743652, 4239.487305, 4224.615234, 4293.846191, 4218.461426, 4201.025391, 4256.922852, 4230.769043, 4239.487305, 3343.000000, 8200.000000, 8169.000000, 0.000000, 0.000000, 0.000000, 8739.000000, 223.076920, 4.000000, 4.000000, 4.000000, 4.000000, 4.000000, 4.000000, 4.000000, 4.000000, 4.000000, 4.000000, 4.000000, 4.000000, 4.000000, 4.000000, 4.000000, 4.000000
90.000000, 0.000000, 4235.897461, 4263.589844, 4200.512695, 4241.025391, 4196.922852, 4210.769043, 4240.000000, 4226.666504, 4287.692383, 4224.102539, 4197.948730, 4256.410156, 4231.281738, 4236.922852, 3089.000000, 8200.000000, 8169.000000, 0.000000, 0.000000, 0.000000, 8739.000000, 230.769226, 4.000000, 4.000000, 4.000000, 4.000000, 4.000000, 4.000000, 4.000000, 4.000000, 4.000000, 4.000000, 4.000000, 4.000000, 4.000000, 4.000000, 4.000000, 4.000000
91.000000, 0.000000, 4234.871582, 4254.358887, 4200.512695, 4235.384277, 4198.974121, 4206.666504, 4240.512695, 4220.512695, 4279.487305, 4219.487305, 4193.846191, 4249.230469, 4235.384277, 4234.871582, 3534.000000, 8200.000000, 8171.000000, 0.000000, 0.000000, 0.000000, 8739.000000, 238.461533, 4.000000, 4.000000, 4.000000, 4.000000, 4.000000, 4.000000, 4.000000, 4.000000, 4.000000, 4.000000, 4.000000, 4.000000, 4.000000, 4.000000, 4.000000, 4.000000
92.000000, 0.000000, 4236.410156, 4250.769043, 4200.512695, 4230.769043, 4196.922852, 4199.487305, 4238.461426, 4215.897461, 4270.769043, 4211.794922, 4192.820313, 4254.358887, 4232.820313, 4235.897461, 2785.000000, 8200.000000, 8171.000000, 0.000000, 0.000000, 0.000000, 8739.000000, 246.153839, 4.000000, 4.000000, 4.000000, 4.000000, 4.000000, 4.000000, 4.000000, 4.000000, 4.000000, 4.000000, 4.000000, 4.000000, 4.000000, 4.000000, 4.000000, 4.000000
93.000000, 0.000000, 4237.436035, 4255.384277, 4205.127930, 4234.358887, 4172.820313, 4191.281738, 4230.256348, 4210.769043, 4265.641113, 4216.410156, 4193.333008, 4265.641113, 4230.769043, 4237.948730, 3343.000000, 8195.000000, 8176.000000, 0.000000, 0.000000, 0.000000, 8739.000000, 254.358963, 4.000000, 4.000000, 4.000000, 4.000000, 4.000000, 4.000000, 4.000000, 4.000000, 4.000000, 4.000000, 4.000000, 4.000000, 4.000000, 4.000000, 4.000000, 4.000000
94.000000, 0.000000, 4240.512695, 4257.948730, 4211.794922, 4237.436035, 4174.871582, 4194.871582, 4231.281738, 4206.666504, 4269.743652, 4221.538574, 4194.358887, 4266.153809, 4237.948730, 4240.000000, 3089.000000, 8195.000000, 8176.000000, 0.000000, 0.000000, 0.000000, 8739.000000, 262.051270, 4.000000, 4.000000, 4.000000, 4.000000, 4.000000, 4.000000, 4.000000, 4.000000, 4.000000, 4.000000, 4.000000, 4.000000, 4.000000, 4.000000, 4.000000, 4.000000
95.000000, 0.000000, 4245.641113, 4257.436035, 4215.384277, 4234.871582, 4196.922852, 4198.974121, 4239.487305, 4209.743652, 4271.281738, 4221.025391, 4196.410156, 4262.563965, 4240.000000, 4244.102539, 3534.000000, 8192.000000, 8180.000000, 0.000000, 0.000000, 0.000000, 8739.000000, 269.743591, 4.000000, 4.000000, 4.000000, 4.000000, 4.000000, 4.000000, 4.000000, 4.000000, 4.000000, 4.000000, 4.000000, 4.000000, 4.000000, 4.000000, 4.000000, 4.000000
96.000000, 0.000000, 4236.410156, 4256.922852, 4206.666504, 4233.846191, 4195.384277, 4192.820313, 4229.230469, 4210.769043, 4261.025391, 4218.974121, 4193.846191, 4256.922852, 4228.205078, 4239.487305, 2785.000000, 8192.000000, 8180.000000, 0.000000, 0.000000, 0.000000, 8739.000000, 277.435883, 4.000000, 4.000000, 4.000000, 4.000000, 4.000000, 4.000000, 4.000000, 4.000000, 4.000000, 4.000000, 4.000000, 4.000000, 4.000000, 4.000000, 4.000000, 4.000000
97.000000, 0.000000, 4219.487305, 4248.205078, 4190.256348, 4227.179199, 4194.358887, 4188.717773, 4218.461426, 4200.512695, 4249.230469, 4209.743652, 4182.563965, 4244.615234, 4217.436035, 4222.051270, 3343.000000, 8189.000000, 8182.000000, 0.000000, 0.000000, 0.000000, 8739.000000, 285.641022, 4.000000, 4.000000, 4.000000, 4.000000, 4.000000, 4.000000, 4.000000, 4.000000, 4.000000, 4.000000, 4.000000, 4.000000, 4.000000, 4.000000, 4.000000, 4.000000
98.000000, 0.000000, 4215.384277, 4240.000000, 4181.538574, 4218.974121, 4196.922852, 4191.794922, 4223.076660, 4197.948730, 4249.230469, 4206.153809, 4174.871582, 4233.333008, 4219.487305, 4213.846191, 3089.000000, 8189.000000, 8182.000000, 0.000000, 0.000000, 0.000000, 8739.000000, 293.333313, 4.000000, 4.000000, 4.000000, 4.000000, 4.000000, 4.000000, 4.000000, 4.000000, 4.000000, 4.000000, 4.000000, 4.000000, 4.000000, 4.000000, 4.000000, 4.000000
99.000000, 0.000000, 4219.487305, 4246.666504, 4183.076660, 4222.051270, 4180.512695, 4191.281738, 4226.153809, 4209.230469, 4255.384277, 4214.358887, 4180.512695, 4230.256348, 4225.127930, 4219.487305, 3534.000000, 8192.000000, 8176.000000, 0.000000, 0.000000, 0.000000, 8739.000000, 301.025635, 4.000000, 4.000000, 4.000000, 4.000000, 4.000000, 4.000000, 4.000000, 4.000000, 4.000000, 4.000000, 4.000000, 4.000000, 4.000000, 4.000000, 4.000000, 4.000000
100.000000, 0.000000, 4222.563965, 4257.948730, 4187.692383, 4234.358887, 4185.127930, 4193.333008, 4226.666504, 4216.410156, 4261.025391, 4218.974121, 4188.717773, 4238.974121, 4233.846191, 4223.076660, 2785.000000, 8192.000000, 8176.000000, 0.000000, 0.000000, 0.000000, 8739.000000, 308.717926, 4.000000, 4.000000, 4.000000, 4.000000, 4.000000, 4.000000, 4.000000, 4.000000, 4.000000, 4.000000, 4.000000, 4.000000, 4.000000, 4.000000, 4.000000, 4.000000
101.000000, 0.000000, 4226.153809, 4260.000000, 4186.666504, 4241.538574, 4209.230469, 4206.153809, 4230.769043, 4216.410156, 4267.179199, 4218.461426, 4193.333008, 4246.153809, 4239.487305, 4225.641113, 3343.000000, 8193.000000, 8174.000000, 0.000000, 0.000000, 0.000000, 8739.000000, 316.923065, 4.000000, 4.000000, 4.000000, 4.000000, 4.000000, 4.000000, 4.000000, 4.000000, 4.000000, 4.000000, 4.000000, 4.000000, 4.000000, 4.000000, 4.000000, 4.000000
102.000000, 0.000000, 4224.615234, 4257.948730, 4182.051270, 4235.384277, 4193.333008, 4205.127930, 4228.205078, 4213.846191, 4265.641113, 4220.512695, 4190.256348, 4242.051270, 4230.256348, 4222.563965, 3089.000000, 8193.000000, 8174.000000, 0.000000, 0.000000, 0.000000, 8739.000000, 324.615387, 4.000000, 4.000000, 4.000000, 4.000000, 4.000000, 4.000000, 4.000000, 4.000000, 4.000000, 4.000000, 4.000000, 4.000000, 4.000000, 4.000000, 4.000000, 4.000000
103.000000, 0.000000, 4222.563965, 4259.487305, 4186.666504, 4232.307617, 4173.333008, 4193.846191, 4225.641113, 4210.256348, 4263.076660, 4214.871582, 4187.692383, 4241.025391, 4227.692383, 4219.487305, 3534.000000, 8188.000000, 8169.000000, 0.000000, 0.000000, 0.000000, 8739.000000, 332.307678, 4.000000, 4.000000, 4.000000, 4.000000, 4.000000, 4.000000, 4.000000, 4.000000, 4.000000, 4.000000, 4.000000, 4.000000, 4.000000, 4.000000, 4.000000, 4.000000
104.000000, 0.000000, 4228.205078, 4259.487305, 4196.922852, 4243.076660, 4196.922852, 4196.922852, 4227.692383, 4210.769043, 4269.743652, 4213.846191, 4194.358887, 4246.666504, 4243.589844, 4226.666504, 2785.000000, 8188.000000, 8169.000000, 0.000000, 0.000000, 0.000000, 8739.000000, 340.000000, 4.000000, 4.000000, 4.000000, 4.000000, 4.000000, 4.000000, 4.000000, 4.000000, 4.000000, 4.000000, 4.000000, 4.000000, 4.000000, 4.000000, 4.000000, 4.000000
105.000000, 0.000000, 4231.794922, 4254.358887, 4197.436035, 4245.641113, 4206.666504, 4195.384277, 4221.538574, 4212.307617, 4269.743652, 4222.563965, 4192.820313, 4245.641113, 4241.538574, 4226.666504, 3343.000000, 8192.000000, 8173.000000, 0.000000, 0.000000, 0.000000, 8739.000000, 348.205109, 4.000000, 4.000000, 4.000000, 4.000000, 4.000000, 4.000000, 4.000000, 4.000000, 4.000000, 4.000000, 4.000000, 4.000000, 4.000000, 4.000000, 4.000000, 4.000000
106.000000, 0.000000, 4231.794922, 4257.948730, 4194.358887, 4237.436035, 4192.820313, 4189.230469, 4217.436035, 4215.897461, 4267.692383, 4224.102539, 4192.307617, 4246.153809, 4235.897461, 4226.666504, 3089.000000, 8192.000000, 8173.000000, 0.000000, 0.000000, 0.000000, 8739.000000, 355.897430, 4.000000, 4.000000, 4.000000, 4.000000, 4.000000, 4.000000, 4.000000, 4.000000, 4.000000, 4.000000, 4.000000, 4.000000, 4.000000, 4.000000, 4.000000, 4.000000
107.000000, 0.000000, 4242.563965, 4267.179199, 4204.615234, 4239.487305, 4199.487305, 4195.897461, 4230.256348, 4218.974121, 4277.948730, 4224.615234, 4208.717773, 4260.512695, 4256.410156, 4245.641113, 3534.000000, 8193.000000, 8180.000000, 0.000000, 0.000000, 0.000000, 8739.000000, 363.589722, 4.000000, 4.000000, 4.000000, 4.000000, 4.000000, 4.000000, 4.000000, 4.000000, 4.000000, 4.000000, 4.000000, 4.000000, 4.000000, 4.000000, 4.000000, 4.000000
108.000000, 0.000000, 4248.717773, 4261.025391, 4212.307617, 4243.076660, 4198.974121, 4203.076660, 4233.846191, 4217.436035, 4282.051270, 4227.179199, 4210.256348, 4264.615234, 4251.794922, 4246.666504, 2785.000000, 8193.000000, 8180.000000, 0.000000, 0.000000, 0.000000, 8739.000000, 371.794861, 4.000000, 4.000000, 4.000000, 4.000000, 4.000000, 4.000000, 4.000000, 4.000000, 4.000000, 4.000000, 4.000000, 4.000000, 4.000000, 4.000000, 4.000000, 4.000000
109.000000, 0.000000, 4236.922852, 4242.051270, 4207.179199, 4237.948730, 4175.897461, 4196.922852, 4227.692383, 4216.922852, 4276.410156, 4220.512695, 4192.820313, 4253.846191, 4217.948730, 4224.615234, 3343.000000, 8185.000000, 8198.000000, 0.000000, 0.000000, 0.000000, 8739.000000, 380.000000, 4.000000, 4.000000, 4.000000, 4.000000, 4.000000, 4.000000, 4.000000, 4.000000, 4.000000, 4.000000, 4.000000, 4.000000, 4.000000, 4.000000, 4.000000, 4.000000
110.000000, 0.000000, 4229.230469, 4235.897461, 4203.589844, 4235.897461, 4173.846191, 4194.871582, 4233.333008, 4224.615234, 4276.922852, 4213.333008, 4196.410156, 4252.820313, 4225.641113, 4229.743652, 3089.000000, 8185.000000, 8198.000000, 0.000000, 0.000000, 0.000000, 8739.000000, 387.692291, 4.000000, 4.000000, 4.000000, 4.000000, 4.000000, 4.000000, 4.000000, 4.000000, 4.000000, 4.000000, 4.000000, 4.000000, 4.000000, 4.000000, 4.000000, 4.000000
111.000000, 0.000000, 4233.333008, 4237.948730, 4198.461426, 4238.461426, 4202.051270, 4205.641113, 4238.461426, 4225.127930, 4279.487305, 4218.461426, 4213.846191, 4254.871582, 4257.436035, 4253.333008, 3534.000000, 8178.000000, 8203.000000, 0.000000, 0.000000, 0.000000, 8739.000000, 395.897430, 4.000000, 4.000000, 4.000000, 4.000000, 4.000000, 4.000000, 4.000000, 4.000000, 4.000000, 4.000000, 4.000000, 4.000000, 4.000000, 4.000000, 4.000000, 4.000000
112.000000, 0.000000, 4225.641113, 4223.076660, 4185.641113, 4230.769043, 4201.025391, 4207.692383, 4234.358887, 4216.410156, 4265.641113, 4216.410156, 4208.717773, 4245.127930, 4249.743652, 4246.666504, 2785.000000, 8178.000000, 8203.000000, 0.000000, 0.000000, 0.000000, 8739.000000, 403.589722, 4.000000, 4.000000, 4.000000, 4.000000, 4.000000, 4.000000, 4.000000, 4.000000, 4.000000, 4.000000, 4.000000, 4.000000, 4.000000, 4.000000, 4.000000, 4.000000
113.000000, 0.000000, 4214.871582, 4201.538574, 4182.051270, 4220.512695, 4181.538574, 4202.051270, 4232.307617, 4213.333008, 4257.948730, 4213.846191, 4203.589844, 4238.461426, 4236.410156, 4236.922852, 3343.000000, 8175.000000, 8206.000000, 0.000000, 0.000000, 0.000000, 8739.000000, 411.282043, 4.000000, 4.000000, 4.000000, 4.000000, 4.000000, 4.000000, 4.000000, 4.000000, 4.000000, 4.000000, 4.000000, 4.000000, 4.000000, 4.000000, 4.000000, 4.000000
114.000000, 0.000000, 4217.948730, 4196.410156, 4189.743652, 4219.487305, 4186.153809, 4201.538574, 4231.794922, 4217.948730, 4272.820313, 4223.076660, 4213.846191, 4244.615234, 4250.256348, 4255.384277, 3089.000000, 8175.000000, 8206.000000, 0.000000, 0.000000, 0.000000, 8739.000000, 419.487183, 4.000000, 4.000000, 4.000000, 4.000000, 4.000000, 4.000000, 4.000000, 4.000000, 4.000000, 4.000000, 4.000000, 4.000000, 4.000000, 4.000000, 4.000000, 4.000000
115.000000, 0.000000, 4219.487305, 4194.871582, 4192.820313, 4220.000000, 4188.717773, 4198.461426, 4232.820313, 4221.025391, 4278.461426, 4218.974121, 4213.333008, 4246.666504, 4245.127930, 4260.000000, 3534.000000, 8172.000000, 8204.000000, 0.000000, 0.000000, 0.000000, 8739.000000, 427.179474, 4.000000, 4.000000, 4.000000, 4.000000, 4.000000, 4.000000, 4.000000, 4.000000, 4.000000, 4.000000, 4.000000, 4.000000, 4.000000, 4.000000, 4.000000, 4.000000
116.000000, 0.000000, 4218.461426, 4193.333008, 4191.281738, 4221.025391, 4184.102539, 4194.358887, 4236.410156, 4227.692383, 4282.563965, 4217.436035, 4215.384277, 4249.230469, 4233.333008, 4251.281738, 2785.000000, 8172.000000, 8204.000000, 0.000000, 0.000000, 0.000000, 8739.000000, 434.871796, 4.000000, 4.000000, 4.000000, 4.000000, 4.000000, 4.000000, 4.000000, 4.000000, 4.000000, 4.000000, 4.000000, 4.000000, 4.000000, 4.000000, 4.000000, 4.000000
117.000000, 0.000000, 4225.127930, 4192.820313, 4196.410156, 4221.025391, 4173.333008, 4192.820313, 4238.461426, 4240.512695, 4302.051270, 4234.871582, 4227.692383, 4258.974121, 4247.692383, 4256.922852, 3343.000000, 8171.000000, 8202.000000, 0.000000, 0.000000, 0.000000, 8739.000000, 443.076904, 4.000000, 4.000000, 4.000000, 4.000000, 4.000000, 4.000000, 4.000000, 4.000000, 4.000000, 4.000000, 4.000000, 4.000000, 4.000000, 4.000000, 4.000000, 4.000000
118.000000, 0.000000, 4232.820313, 4187.179199, 4200.000000, 4220.000000, 4167.692383, 4195.897461, 4240.512695, 4243.589844, 4314.871582, 4243.076660, 4235.384277, 4266.666504, 4262.563965, 4271.794922, 3089.000000, 8171.000000, 8202.000000, 0.000000, 0.000000, 0.000000, 8739.000000, 451.282043, 4.000000, 4.000000, 4.000000, 4.000000, 4.000000, 4.000000, 4.000000, 4.000000, 4.000000, 4.000000, 4.000000, 4.000000, 4.000000, 4.000000, 4.000000, 4.000000
119.000000, 0.000000, 4235.897461, 4186.666504, 4200.000000, 4221.025391, 4184.615234, 4206.666504, 4243.076660, 4237.948730, 4308.717773, 4232.820313, 4242.051270, 4268.717773, 4263.076660, 4281.538574, 3534.000000, 8173.000000, 8175.000000, 0.000000, 0.000000, 0.000000, 8739.000000, 458.974335, 4.000000, 4.000000, 4.000000, 4.000000, 4.000000, 4.000000, 4.000000, 4.000000, 4.000000, 4.000000, 4.000000, 4.000000, 4.000000, 4.000000, 4.000000, 4.000000
120.000000, 0.000000, 4233.333008, 4188.205078, 4201.538574, 4220.512695, 4192.820313, 4210.256348, 4244.102539, 4232.307617, 4296.410156, 4231.794922, 4242.051270, 4268.205078, 4257.948730, 4277.948730, 2785.000000, 8173.000000, 8175.000000, 0.000000, 0.000000, 0.000000, 8739.000000, 466.666656, 4.000000, 4.000000, 4.000000, 4.000000, 4.000000, 4.000000, 4.000000, 4.000000, 4.000000, 4.000000, 4.000000, 4.000000, 4.000000, 4.000000, 4.000000, 4.000000
121.000000, 0.000000, 4231.281738, 4190.256348, 4198.974121, 4218.974121, 4187.692383, 4202.563965, 4240.000000, 4226.666504, 4288.717773, 4234.871582, 4234.871582, 4264.102539, 4256.410156, 4269.743652, 3343.000000, 8169.000000, 8168.000000, 0.000000, 0.000000, 0.000000, 8739.000000, 474.871796, 4.000000, 4.000000, 4.000000, 4.000000, 4.000000, 4.000000, 4.000000, 4.000000, 4.000000, 4.000000, 4.000000, 4.000000, 4.000000, 4.000000, 4.000000, 4.000000
122.000000, 0.000000, 4230.256348, 4191.794922, 4190.256348, 4220.000000, 4192.307617, 4195.384277, 4233.333008, 4219.487305, 4283.076660, 4223.076660, 4225.641113, 4252.307617, 4253.333008, 4263.589844, 3089.000000, 8169.000000, 8168.000000, 0.000000, 0.000000, 0.000000, 8739.000000, 482.564087, 4.000000, 4.000000, 4.000000, 4.000000, 4.000000, 4.000000, 4.000000, 4.000000, 4.000000, 4.000000, 4.000000, 4.000000, 4.000000, 4.000000, 4.000000, 4.000000
123.000000, 0.000000, 4226.153809, 4191.281738, 4187.692383, 4222.051270, 4194.871582, 4195.897461, 4236.410156, 4215.384277, 4278.461426, 4212.820313, 4217.948730, 4242.051270, 4250.769043, 4260.000000, 3534.000000, 8167.000000, 8167.000000, 0.000000, 0.000000, 0.000000, 8739.000000, 490.256409, 4.000000, 4.000000, 4.000000, 4.000000, 4.000000, 4.000000, 4.000000, 4.000000, 4.000000, 4.000000, 4.000000, 4.000000, 4.000000, 4.000000, 4.000000, 4.000000
124.000000, 0.000000, 4222.563965, 4194.358887, 4188.717773, 4221.025391, 4181.538574, 4199.487305, 4240.000000, 4220.512695, 4277.436035, 4215.897461, 4214.871582, 4242.051270, 4249.743652, 4255.384277, 2785.000000, 8167.000000, 8167.000000, 0.000000, 0.000000, 0.000000, 8739.000000, 497.948700, 4.000000, 4.000000, 4.000000, 4.000000, 4.000000, 4.000000, 4.000000, 4.000000, 4.000000, 4.000000, 4.000000, 4.000000, 4.000000, 4.000000, 4.000000, 4.000000
125.000000, 0.000000, 4219.487305, 4195.384277, 4189.230469, 4217.948730, 4172.307617, 4196.922852, 4237.436035, 4223.589844, 4271.281738, 4223.076660, 4210.769043, 4243.076660, 4245.127930, 4244.615234, 3343.000000, 8160.000000, 8172.000000, 0.000000, 0.000000, 0.000000, 8739.000000, 506.153839, 4.000000, 4.000000, 4.000000, 4.000000, 4.000000, 4.000000, 4.000000, 4.000000, 4.000000, 4.000000, 4.000000, 4.000000, 4.000000, 4.000000, 4.000000, 4.000000
126.000000, 0.000000, 4219.487305, 4192.820313, 4189.230469, 4218.974121, 4177.436035, 4195.897461, 4238.461426, 4220.000000, 4271.281738, 4224.615234, 4209.743652, 4238.974121, 4249.743652, 4243.589844, 3089.000000, 8160.000000, 8172.000000, 0.000000, 0.000000, 0.000000, 8739.000000, 513.846130, 4.000000, 4.000000, 4.000000, 4.000000, 4.000000, 4.000000, 4.000000, 4.000000, 4.000000, 4.000000, 4.000000, 4.000000, 4.000000, 4.000000, 4.000000, 4.000000
127.000000, 0.000000, 4222.051270, 4192.820313, 4189.743652, 4218.974121, 4182.563965, 4198.974121, 4241.025391, 4221.538574, 4282.051270, 4218.974121, 4212.307617, 4239.487305, 4254.358887, 4248.205078, 54.000000, 8158.000000, 8182.000000, 0.000000, 0.000000, 0.000000, 8739.000000, 522.051270, 4.000000, 4.000000, 4.000000, 4.000000, 4.000000, 4.000000, 4.000000, 4.000000, 4.000000, 4.000000, 4.000000, 4.000000, 4.000000, 4.000000, 4.000000, 4.000000
0.000000, 0.000000, 4215.384277, 4190.769043, 4188.717773, 4214.358887, 4184.615234, 4202.563965, 4241.538574, 4225.641113, 4281.538574, 4213.333008, 4206.153809, 4241.538574, 4237.948730, 4234.358887, 3342.000000, 8158.000000, 8182.000000, 0.000000, 0.000000, 0.000000, 8739.000000, 529.743591, 4.000000, 4.000000, 4.000000, 4.000000, 4.000000, 4.000000, 4.000000, 4.000000, 4.000000, 4.000000, 4.000000, 4.000000, 4.000000, 4.000000, 4.000000, 4.000000
1.000000, 0.000000, 4207.692383, 4183.076660, 4184.615234, 4207.692383, 4176.922852, 4206.153809, 4239.487305, 4224.102539, 4276.922852, 4218.461426, 4202.051270, 4239.487305, 4235.897461, 4225.127930, 3455.000000, 8136.000000, 8181.000000, 0.000000, 0.000000, 0.000000, 8739.000000, 537.948730, 4.000000, 4.000000, 4.000000, 4.000000, 4.000000, 4.000000, 4.000000, 4.000000, 4.000000, 4.000000, 4.000000, 4.000000, 4.000000, 4.000000, 4.000000, 4.000000
2.000000, 0.000000, 4209.743652, 4173.846191, 4185.641113, 4202.051270, 4158.974121, 4200.512695, 4240.000000, 4222.563965, 4276.922852, 4229.743652, 4214.871582, 4240.512695, 4266.666504, 4242.051270, 3477.000000, 8136.000000, 8181.000000, 0.000000, 0.000000, 0.000000, 8739.000000, 545.640991, 4.000000, 4.000000, 4.000000, 4.000000, 4.000000, 4.000000, 4.000000, 4.000000, 4.000000, 4.000000, 4.000000, 4.000000, 4.000000, 4.000000, 4.000000, 4.000000
3.000000, 0.000000, 4217.948730, 4174.871582, 4190.769043, 4203.076660, 4160.512695, 4192.820313, 4237.436035, 4223.076660, 4277.948730, 4230.256348, 4231.794922, 4247.179199, 4292.307617, 4262.563965, 3547.000000, 8126.000000, 8182.000000, 0.000000, 0.000000, 0.000000, 8739.000000, 553.333313, 4.000000, 4.000000, 4.000000, 4.000000, 4.000000, 4.000000, 4.000000, 4.000000, 4.000000, 4.000000, 4.000000, 4.000000, 4.000000, 4.000000, 4.000000, 4.000000
4.000000, 0.000000, 4221.025391, 4171.281738, 4190.769043, 4204.615234, 4177.436035, 4195.384277, 4237.436035, 4223.589844, 4277.948730, 4222.051270, 4235.897461, 4255.897461, 4294.358887, 4271.281738, 3566.000000, 8126.000000, 8182.000000, 0.000000, 0.000000, 0.000000, 8739.000000, 561.025635, 4.000000, 4.000000, 4.000000, 4.000000, 4.000000, 4.000000, 4.000000, 4.000000, 4.000000, 4.000000, 4.000000, 4.000000, 4.000000, 4.000000, 4.000000, 4.000000
5.000000, 0.000000, 4213.846191, 4150.256348, 4191.794922, 4193.846191, 4174.358887, 4197.948730, 4242.051270, 4228.205078, 4277.948730, 4217.948730, 4234.871582, 4260.512695, 4289.230469, 4264.615234, 3495.000000, 8118.000000, 8195.000000, 0.000000, 0.000000, 0.000000, 8739.000000, 569.230774, 4.000000, 4.000000, 4.000000, 4.000000, 4.000000, 4.000000, 4.000000, 4.000000, 4.000000, 4.000000, 4.000000, 4.000000, 4.000000, 4.000000, 4.000000, 4.000000
6.000000, 0.000000, 4213.846191, 4143.076660, 4196.410156, 4189.743652, 4161.538574, 4197.948730, 4244.102539, 4234.358887, 4280.000000, 4226.666504, 4238.974121, 4265.127930, 4288.717773, 4261.025391, 2992.000000, 8118.000000, 8195.000000, 0.000000, 0.000000, 0.000000, 8739.000000, 576.923035, 4.000000, 4.000000, 4.000000, 4.000000, 4.000000, 4.000000, 4.000000, 4.000000, 4.000000, 4.000000, 4.000000, 4.000000, 4.000000, 4.000000, 4.000000, 4.000000
7.000000, 0.000000, 4222.563965, 4156.410156, 4202.563965, 4202.563965, 4160.512695, 4200.000000, 4248.205078, 4231.281738, 4281.025391, 4233.846191, 4238.461426, 4270.256348, 4286.666504, 4265.127930, 1758.000000, 8109.000000, 8202.000000, 0.000000, 0.000000, 0.000000, 8739.000000, 585.128174, 4.000000, 4.000000, 4.000000, 4.000000, 4.000000, 4.000000, 4.000000, 4.000000, 4.000000, 4.000000, 4.000000, 4.000000, 4.000000, 4.000000, 4.000000, 4.000000
8.000000, 0.000000, 4220.000000, 4165.641113, 4202.051270, 4207.692383, 4176.922852, 4200.512695, 4248.205078, 4230.256348, 4283.589844, 4224.102539, 4232.307617, 4268.717773, 4281.025391, 4262.563965, 3468.000000, 8109.000000, 8202.000000, 0.000000, 0.000000, 0.000000, 8739.000000, 592.820496, 4.000000, 4.000000, 4.000000, 4.000000, 4.000000, 4.000000, 4.000000, 4.000000, 4.000000, 4.000000, 4.000000, 4.000000, 4.000000, 4.000000, 4.000000, 4.000000
9.000000, 0.000000, 4211.794922, 4163.076660, 4194.358887, 4201.538574, 4185.127930, 4198.974121, 4246.666504, 4234.871582, 4287.179199, 4219.487305, 4227.692383, 4261.538574, 4277.948730, 4253.846191, 1556.000000, 8100.000000, 8216.000000, 0.000000, 0.000000, 0.000000, 8739.000000, 600.512817, 4.000000, 4.000000, 4.000000, 4.000000, 4.000000, 4.000000, 4.000000, 4.000000, 4.000000, 4.000000, 4.000000, 4.000000, 4.000000, 4.000000, 4.000000, 4.000000
10.000000, 0.000000, 4212.307617, 4161.538574, 4194.358887, 4202.051270, 4169.743652, 4195.897461, 4247.179199, 4233.333008, 4289.230469, 4230.256348, 4229.743652, 4260.000000, 4279.487305, 4255.897461, 3088.000000, 8100.000000, 8216.000000, 0.000000, 0.000000, 0.000000, 8739.000000, 608.717957, 4.000000, 4.000000, 4.000000, 4.000000, 4.000000, 4.000000, 4.000000, 4.000000, 4.000000, 4.000000, 4.000000, 4.000000, 4.000000, 4.000000, 4.000000, 4.000000
11.000000, 0.000000, 4214.871582, 4170.769043, 4194.871582, 4205.641113, 4160.000000, 4193.846191, 4244.102539, 4232.307617, 4291.281738, 4238.974121, 4234.358887, 4261.538574, 4282.051270, 4260.000000, 3530.000000, 8096.000000, 8231.000000, 0.000000, 0.000000, 0.000000, 8739.000000, 616.410217, 4.000000, 4.000000, 4.000000, 4.000000, 4.000000, 4.000000, 4.000000, 4.000000, 4.000000, 4.000000, 4.000000, 4.000000, 4.000000, 4.000000, 4.000000, 4.000000
12.000000, 0.000000, 4214.358887, 4175.384277, 4190.256348, 4204.615234, 4164.615234, 4196.922852, 4246.666504, 4233.333008, 4285.127930, 4233.333008, 4232.820313, 4258.461426, 4277.436035, 4245.641113, 2905.000000, 8096.000000, 8231.000000, 0.000000, 0.000000, 0.000000, 8739.000000, 624.102539, 4.000000, 4.000000, 4.000000, 4.000000, 4.000000, 4.000000, 4.000000, 4.000000, 4.000000, 4.000000, 4.000000, 4.000000, 4.000000, 4.000000, 4.000000, 4.000000
13.000000, 0.000000, 4217.948730, 4175.897461, 4194.358887, 4206.153809, 4177.948730, 4201.538574, 4249.743652, 4231.794922, 4281.025391, 4224.615234, 4230.256348, 4259.487305, 4277.436035, 4244.615234, 3341.000000, 8092.000000, 8234.000000, 0.000000, 0.000000, 0.000000, 8739.000000, 631.794861, 4.000000, 4.000000, 4.000000, 4.000000, 4.000000, 4.000000, 4.000000, 4.000000, 4.000000, 4.000000, 4.000000, 4.000000, 4.000000, 4.000000, 4.000000, 4.000000
14.000000, 0.000000, 4226.666504, 4179.487305, 4206.666504, 4209.230469, 4185.127930, 4198.974121, 4247.179199, 4233.333008, 4289.743652, 4230.256348, 4236.922852, 4266.666504, 4277.436035, 4264.102539, 3088.000000, 8092.000000, 8234.000000, 0.000000, 0.000000, 0.000000, 8739.000000, 640.000000, 4.000000, 4.000000, 4.000000, 4.000000, 4.000000, 4.000000, 4.000000, 4.000000, 4.000000, 4.000000, 4.000000, 4.000000, 4.000000, 4.000000, 4.000000, 4.000000
15.000000, 0.000000, 4226.666504, 4179.487305, 4205.641113, 4206.153809, 4178.974121, 4192.307617, 4246.153809, 4241.025391, 4294.871582, 4240.512695, 4240.512695, 4268.717773, 4271.281738, 4262.051270, 3530.000000, 8082.000000, 8223.000000, 0.000000, 0.000000, 0.000000, 8739.000000, 647.692322, 4.000000, 4.000000, 4.000000, 4.000000, 4.000000, 4.000000, 4.000000, 4.000000, 4.000000, 4.000000, 4.000000, 4.000000, 4.000000, 4.000000, 4.000000, 4.000000
16.000000, 0.000000, 4215.897461, 4176.410156, 4190.769043, 4203.589844, 4172.820313, 4200.000000, 4250.256348, 4242.563965, 4293.846191, 4238.461426, 4230.256348, 4257.948730, 4268.205078, 4244.615234, 0.000000, 8082.000000, 8223.000000, 0.000000, 0.000000, 0.000000, 8739.000000, 655.897400, 4.000000, 4.000000, 4.000000, 4.000000, 4.000000, 4.000000, 4.000000, 4.000000, 4.000000, 4.000000, 4.000000, 4.000000, 4.000000, 4.000000, 4.000000, 4.000000
17.000000, 0.000000, 4204.615234, 4171.281738, 4183.076660, 4201.538574, 4164.102539, 4208.205078, 4249.743652, 4235.384277, 4295.384277, 4231.281738, 4220.512695, 4246.666504, 4262.051270, 4233.846191, 0.000000, 8087.000000, 8218.000000, 0.000000, 0.000000, 0.000000, 8739.000000, 664.102539, 4.000000, 4.000000, 4.000000, 4.000000, 4.000000, 4.000000, 4.000000, 4.000000, 4.000000, 4.000000, 4.000000, 4.000000, 4.000000, 4.000000, 4.000000, 4.000000
18.000000, 0.000000, 4201.025391, 4166.666504, 4183.076660, 4202.051270, 4162.051270, 4203.589844, 4249.230469, 4230.256348, 4300.000000, 4230.769043, 4220.512695, 4246.666504, 4253.846191, 4228.717773, 0.000000, 8087.000000, 8218.000000, 0.000000, 0.000000, 0.000000, 8739.000000, 671.794861, 4.000000, 4.000000, 4.000000, 4.000000, 4.000000, 4.000000, 4.000000, 4.000000, 4.000000, 4.000000, 4.000000, 4.000000, 4.000000, 4.000000, 4.000000, 4.000000
19.000000, 0.000000, 4204.102539, 4166.153809, 4184.102539, 4208.205078, 4174.358887, 4202.563965, 4246.666504, 4231.794922, 4302.563965, 4228.717773, 4221.025391, 4249.743652, 4253.846191, 4230.256348, 0.000000, 8090.000000, 8203.000000, 0.000000, 0.000000, 0.000000, 8739.000000, 680.000000, 4.000000, 4.000000, 4.000000, 4.000000, 4.000000, 4.000000, 4.000000, 4.000000, 4.000000, 4.000000, 4.000000, 4.000000, 4.000000, 4.000000, 4.000000, 4.000000
20.000000, 0.000000, 4210.769043, 4170.256348, 4192.307617, 4212.307617, 4181.538574, 4204.102539, 4241.025391, 4230.769043, 4298.974121, 4227.692383, 4216.922852, 4248.205078, 4259.487305, 4237.436035, 0.000000, 8090.000000, 8203.000000, 0.000000, 0.000000, 0.000000, 8739.000000, 687.692261, 4.000000, 4.000000, 4.000000, 4.000000, 4.000000, 4.000000, 4.000000, 4.000000, 4.000000, 4.000000, 4.000000, 4.000000, 4.000000, 4.000000, 4.000000, 4.000000
21.000000, 0.000000, 4222.051270, 4182.051270, 4200.512695, 4216.410156, 4174.358887, 4200.000000, 4240.000000, 4225.127930, 4295.897461, 4234.358887, 4217.436035, 4250.769043, 4264.102539, 4240.512695, 0.000000, 8096.000000, 8194.000000, 0.000000, 0.000000, 0.000000, 8739.000000, 695.384583, 4.000000, 4.000000, 4.000000, 4.000000, 4.000000, 4.000000, 4.000000, 4.000000, 4.000000, 4.000000, 4.000000, 4.000000, 4.000000, 4.000000, 4.000000, 4.000000
22.000000, 0.000000, 4228.205078, 4190.256348, 4203.076660, 4220.512695, 4164.615234, 4193.846191, 4240.000000, 4218.461426, 4289.230469, 4234.358887, 4224.102539, 4257.948730, 4267.692383, 4240.000000, 0.000000, 8096.000000, 8194.000000, 0.000000, 0.000000, 0.000000, 8739.000000, 703.589722, 4.000000, 4.000000, 4.000000, 4.000000, 4.000000, 4.000000, 4.000000, 4.000000, 4.000000, 4.000000, 4.000000, 4.000000, 4.000000, 4.000000, 4.000000, 4.000000
23.000000, 0.000000, 4231.281738, 4197.436035, 4209.230469, 4225.127930, 4169.743652, 4193.846191, 4237.948730, 4217.948730, 4282.051270, 4227.179199, 4229.230469, 4264.615234, 4272.820313, 4250.256348, 0.000000, 8099.000000, 8193.000000, 0.000000, 0.000000, 0.000000, 8739.000000, 711.794861, 4.000000, 4.000000, 4.000000, 4.000000, 4.000000, 4.000000, 4.000000, 4.000000, 4.000000, 4.000000, 4.000000, 4.000000, 4.000000, 4.000000, 4.000000, 4.000000
24.000000, 0.000000, 4231.794922, 4201.538574, 4212.820313, 4224.102539, 4175.897461, 4190.769043, 4233.846191, 4220.000000, 4277.948730, 4221.025391, 4229.743652, 4267.179199, 4270.769043, 4256.922852, 0.000000, 8099.000000, 8193.000000, 0.000000, 0.000000, 0.000000, 8739.000000, 719.487183, 4.000000, 4.000000, 4.000000, 4.000000, 4.000000, 4.000000, 4.000000, 4.000000, 4.000000, 4.000000, 4.000000, 4.000000, 4.000000, 4.000000, 4.000000, 4.000000
25.000000, 0.000000, 4221.538574, 4194.871582, 4205.641113, 4214.358887, 4170.769043, 4184.102539, 4233.333008, 4214.358887, 4269.230469, 4221.538574, 4222.051270, 4261.025391, 4262.563965, 4242.563965, 0.000000, 8113.000000, 8183.000000, 0.000000, 0.000000, 0.000000, 8739.000000, 727.692261, 4.000000, 4.000000, 4.000000, 4.000000, 4.000000, 4.000000, 4.000000, 4.000000, 4.000000, 4.000000, 4.000000, 4.000000, 4.000000, 4.000000, 4.000000, 4.000000
26.000000, 0.000000, 4214.871582, 4192.820313, 4202.051270, 4212.307617, 4170.256348, 4189.230469, 4236.410156, 4210.769043, 4270.256348, 4232.820313, 4217.436035, 4257.948730, 4264.615234, 4234.871582, 0.000000, 8113.000000, 8183.000000, 0.000000, 0.000000, 0.000000, 8739.000000, 735.384583, 4.000000, 4.000000, 4.000000, 4.000000, 4.000000, 4.000000, 4.000000, 4.000000, 4.000000, 4.000000, 4.000000, 4.000000, 4.000000, 4.000000, 4.000000, 4.000000
27.000000, 0.000000, 4213.846191, 4197.436035, 4206.153809, 4214.358887, 4177.436035, 4195.384277, 4237.948730, 4217.948730, 4282.051270, 4239.487305, 4217.948730, 4258.974121, 4267.179199, 4238.461426, 0.000000, 8126.000000, 8185.000000, 0.000000, 0.000000, 0.000000, 8739.000000, 743.589722, 4.000000, 4.000000, 4.000000, 4.000000, 4.000000, 4.000000, 4.000000, 4.000000, 4.000000, 4.000000, 4.000000, 4.000000, 4.000000, 4.000000, 4.000000, 4.000000
28.000000, 0.000000, 4213.846191, 4197.948730, 4203.589844, 4214.358887, 4171.794922, 4196.410156, 4243.589844, 4223.076660, 4287.179199, 4228.717773, 4212.307617, 4259.487305, 4259.487305, 4235.897461, 0.000000, 8126.000000, 8185.000000, 0.000000, 0.000000, 0.000000, 8739.000000, 751.282043, 4.000000, 4.000000, 4.000000, 4.000000, 4.000000, 4.000000, 4.000000, 4.000000, 4.000000, 4.000000, 4.000000, 4.000000, 4.000000, 4.000000, 4.000000, 4.000000
29.000000, 0.000000, 4215.897461, 4197.948730, 4200.000000, 4215.384277, 4165.641113, 4200.512695, 4245.127930, 4220.512695, 4287.692383, 4218.461426, 4207.179199, 4256.922852, 4257.436035, 4223.076660, 0.000000, 8146.000000, 8186.000000, 0.000000, 0.000000, 0.000000, 8739.000000, 759.487183, 4.000000, 4.000000, 4.000000, 4.000000, 4.000000, 4.000000, 4.000000, 4.000000, 4.000000, 4.000000, 4.000000, 4.000000, 4.000000, 4.000000, 4.000000, 4.000000
30.000000, 0.000000, 4211.281738, 4202.563965, 4200.512695, 4216.922852, 4171.794922, 4195.897461, 4240.000000, 4218.461426, 4281.538574, 4220.000000, 4203.076660, 4250.769043, 4258.461426, 4209.743652, 0.000000, 8146.000000, 8186.000000, 0.000000, 0.000000, 0.000000, 8739.000000, 767.179443, 4.000000, 4.000000, 4.000000, 4.000000, 4.000000, 4.000000, 4.000000, 4.000000, 4.000000, 4.000000, 4.000000, 4.000000, 4.000000, 4.000000, 4.000000, 4.000000
31.000000, 0.000000, 4206.666504, 4207.179199, 4200.000000, 4218.461426, 4162.563965, 4189.230469, 4237.948730, 4218.461426, 4273.846191, 4224.102539, 4201.025391, 4245.641113, 4254.871582, 4204.102539, 0.000000, 8160.000000, 8190.000000, 0.000000, 0.000000, 0.000000, 8739.000000, 775.384583, 4.000000, 4.000000, 4.000000, 4.000000, 4.000000, 4.000000, 4.000000, 4.000000, 4.000000, 4.000000, 4.000000, 4.000000, 4.000000, 4.000000, 4.000000, 4.000000
32.000000, 0.000000, 4208.717773, 4204.102539, 4195.897461, 4216.410156, 4150.769043, 4194.358887, 4243.589844, 4218.974121, 4272.307617, 4224.102539, 4204.615234, 4245.127930, 4254.358887, 4200.000000, 0.000000, 8160.000000, 8190.000000, 0.000000, 0.000000, 0.000000, 8739.000000, 783.076904, 4.000000, 4.000000, 4.000000, 4.000000, 4.000000, 4.000000, 4.000000, 4.000000, 4.000000, 4.000000, 4.000000, 4.000000, 4.000000, 4.000000, 4.000000, 4.000000
33.000000, 0.000000, 4215.384277, 4206.153809, 4197.436035, 4213.333008, 4172.307617, 4198.461426, 4244.102539, 4220.512695, 4275.897461, 4225.127930, 4208.205078, 4250.769043, 4261.538574, 4194.871582, 0.000000, 8176.000000, 8189.000000, 0.000000, 0.000000, 0.000000, 8739.000000, 791.282043, 4.000000, 4.000000, 4.000000, 4.000000, 4.000000, 4.000000, 4.000000, 4.000000, 4.000000, 4.000000, 4.000000, 4.000000, 4.000000, 4.000000, 4.000000, 4.000000
34.000000, 0.000000, 4228.205078, 4226.666504, 4207.179199, 4222.563965, 4188.717773, 4194.871582, 4234.358887, 4221.538574, 4283.589844, 4233.846191, 4214.358887, 4262.563965, 4269.743652, 4198.461426, 0.000000, 8176.000000, 8189.000000, 0.000000, 0.000000, 0.000000, 8739.000000, 798.974365, 4.000000, 4.000000, 4.000000, 4.000000, 4.000000, 4.000000, 4.000000, 4.000000, 4.000000, 4.000000, 4.000000, 4.000000, 4.000000, 4.000000, 4.000000, 4.000000
35.000000, 0.000000, 4231.281738, 4240.000000, 4214.871582, 4229.743652, 4164.615234, 4192.820313, 4233.846191, 4217.436035, 4284.615234, 4228.717773, 4214.871582, 4265.127930, 4270.256348, 4203.076660, 0.000000, 8203.000000, 8183.000000, 0.000000, 0.000000, 0.000000, 8739.000000, 807.179443, 4.000000, 4.000000, 4.000000, 4.000000, 4.000000, 4.000000, 4.000000, 4.000000, 4.000000, 4.000000, 4.000000, 4.000000, 4.000000, 4.000000, 4.000000, 4.000000
36.000000, 0.000000, 4221.538574, 4235.384277, 4213.333008, 4220.000000, 4154.871582, 4194.358887, 4239.487305, 4210.769043, 4277.948730, 4217.436035, 4206.666504, 4254.358887, 4265.127930, 4198.974121, 0.000000, 8203.000000, 8183.000000, 0.000000, 0.000000, 0.000000, 8739.000000, 814.871765, 4.000000, 4.000000, 4.000000, 4.000000, 4.000000, 4.000000, 4.000000, 4.000000, 4.000000, 4.000000, 4.000000, 4.000000, 4.000000, 4.000000, 4.000000, 4.000000
37.000000, 0.000000, 4223.589844, 4236.922852, 4212.820313, 4215.384277, 4168.717773, 4188.205078, 4235.897461, 4211.281738, 4276.410156, 4221.538574, 4200.512695, 4252.307617, 4261.538574, 4201.025391, 0.000000, 8211.000000, 8183.000000, 0.000000, 0.000000, 0.000000, 8739.000000, 823.076904, 4.000000, 4.000000, 4.000000, 4.000000, 4.000000, 4.000000, 4.000000, 4.000000, 4.000000, 4.000000, 4.000000, 4.000000, 4.000000, 4.000000, 4.000000, 4.000000
38.000000, 0.000000, 4228.717773, 4234.871582, 4214.358887, 4214.871582, 4152.307617, 4179.487305, 4231.281738, 4213.333008, 4278.974121, 4222.051270, 4200.000000, 4260.000000, 4257.948730, 4209.743652, 0.000000, 8211.000000, 8183.000000, 0.000000, 0.000000, 0.000000, 8739.000000, 830.769226, 4.000000, 4.000000, 4.000000, 4.000000, 4.000000, 4.000000, 4.000000, 4.000000, 4.000000, 4.000000, 4.000000, 4.000000, 4.000000, 4.000000, 4.000000, 4.000000
39.000000, 0.000000, 4228.717773, 4233.846191, 4214.871582, 4209.230469, 4146.153809, 4185.641113, 4237.436035, 4217.436035, 4284.102539, 4220.000000, 4205.641113, 4263.076660, 4261.025391, 4212.820313, 0.000000, 8223.000000, 8177.000000, 0.000000, 0.000000, 0.000000, 8739.000000, 838.974365, 4.000000, 4.000000, 4.000000, 4.000000, 4.000000, 4.000000, 4.000000, 4.000000, 4.000000, 4.000000, 4.000000, 4.000000, 4.000000, 4.000000, 4.000000, 4.000000
40.000000, 0.000000, 4236.410156, 4251.794922, 4219.487305, 4211.281738, 4174.358887, 4197.948730, 4244.615234, 4227.179199, 4289.230469, 4222.051270, 4210.256348, 4268.717773, 4269.230469, 4212.820313, 0.000000, 8223.000000, 8177.000000, 0.000000, 0.000000, 0.000000, 8739.000000, 846.666626, 4.000000, 4.000000, 4.000000, 4.000000, 4.000000, 4.000000, 4.000000, 4.000000, 4.000000, 4.000000, 4.000000, 4.000000, 4.000000, 4.000000, 4.000000, 4.000000
41.000000, 0.000000, 4233.333008, 4249.230469, 4220.512695, 4211.794922, 4172.820313, 4205.127930, 4246.153809, 4232.820313, 4291.281738, 4224.102539, 4209.230469, 4276.922852, 4267.692383, 4210.769043, 0.000000, 8227.000000, 8172.000000, 0.000000, 0.000000, 0.000000, 8739.000000, 854.871765, 4.000000, 4.000000, 4.000000, 4.000000, 4.000000, 4.000000, 4.000000, 4.000000, 4.000000, 4.000000, 4.000000, 4.000000, 4.000000, 4.000000, 4.000000, 4.000000
42.000000, 0.000000, 4216.922852, 4236.922852, 4212.307617, 4205.127930, 4153.846191, 4204.615234, 4246.153809, 4227.692383, 4286.666504, 4217.948730, 4203.589844, 4271.281738, 4253.333008, 4205.127930, 0.000000, 8227.000000, 8172.000000, 0.000000, 0.000000, 0.000000, 8739.000000, 863.076904, 4.000000, 4.000000, 4.000000, 4.000000, 4.000000, 4.000000, 4.000000, 4.000000, 4.000000, 4.000000, 4.000000, 4.000000, 4.000000, 4.000000, 4.000000, 4.000000
43.000000, 0.000000, 4218.974121, 4273.333008, 4206.666504, 4212.307617, 4167.692383, 4199.487305, 4241.025391, 4218.974121, 4275.897461, 4212.820313, 4193.333008, 4252.820313, 4242.563965, 4196.410156, 0.000000, 8238.000000, 8170.000000, 0.000000, 0.000000, 0.000000, 8739.000000, 870.769226, 4.000000, 4.000000, 4.000000, 4.000000, 4.000000, 4.000000, 4.000000, 4.000000, 4.000000, 4.000000, 4.000000, 4.000000, 4.000000, 4.000000, 4.000000, 4.000000
44.000000, 0.000000, 4223.076660, 4322.563965, 4196.922852, 4220.000000, 4182.051270, 4191.794922, 4224.615234, 4210.769043, 4263.076660, 4215.897461, 4178.974121, 4236.410156, 4236.922852, 4183.589844, 0.000000, 8238.000000, 8170.000000, 0.000000, 0.000000, 0.000000, 8739.000000, 878.974365, 4.000000, 4.000000, 4.000000, 4.000000, 4.000000, 4.000000, 4.000000, 4.000000, 4.000000, 4.000000, 4.000000, 4.000000, 4.000000, 4.000000, 4.000000, 4.000000
45.000000, 0.000000, 4209.230469, 4329.230469, 4185.127930, 4214.358887, 4158.974121, 4180.000000, 4217.436035, 4207.179199, 4253.333008, 4217.436035, 4164.102539, 4228.205078, 4223.589844, 4168.717773, 0.000000, 8243.000000, 8180.000000, 0.000000, 0.000000, 0.000000, 8739.000000, 886.666626, 4.000000, 4.000000, 4.000000, 4.000000, 4.000000, 4.000000, 4.000000, 4.000000, 4.000000, 4.000000, 4.000000, 4.000000, 4.000000, 4.000000, 4.000000, 4.000000
46.000000, 0.000000, 4211.794922, 4353.333008, 4190.769043, 4223.589844, 4150.769043, 4174.358887, 4218.974121, 4208.717773, 4253.333008, 4211.794922, 4158.461426, 4227.179199, 4219.487305, 4166.666504, 0.000000, 8243.000000, 8180.000000, 0.000000, 0.000000, 0.000000, 8739.000000, 894.871765, 4.000000, 4.000000, 4.000000, 4.000000, 4.000000, 4.000000, 4.000000, 4.000000, 4.000000, 4.000000, 4.000000, 4.000000, 4.000000, 4.000000, 4.000000, 4.000000
47.000000, 0.000000, 4225.127930, 4395.384277, 4202.051270, 4237.948730, 4169.743652, 4177.948730, 4217.948730, 4211.281738, 4255.384277, 4203.589844, 4158.974121, 4230.256348, 4221.025391, 4168.717773, 0.000000, 8244.000000, 8183.000000, 0.000000, 0.000000, 0.000000, 8739.000000, 902.564087, 4.000000, 4.000000, 4.000000, 4.000000, 4.000000, 4.000000, 4.000000, 4.000000, 4.000000, 4.000000, 4.000000, 4.000000, 4.000000, 4.000000, 4.000000, 4.000000
48.000000, 0.000000, 4212.307617, 4392.820313, 4201.538574, 4230.769043, 4166.666504, 4182.051270, 4222.563965, 4211.794922, 4250.769043, 4197.948730, 4142.563965, 4226.153809, 4204.102539, 4155.384277, 0.000000, 8244.000000, 8183.000000, 0.000000, 0.000000, 0.000000, 8739.000000, 910.769226, 4.000000, 4.000000, 4.000000, 4.000000, 4.000000, 4.000000, 4.000000, 4.000000, 4.000000, 4.000000, 4.000000, 4.000000, 4.000000, 4.000000, 4.000000, 4.000000
49.000000, 0.000000, 4210.256348, 4396.410156, 4206.153809, 4230.256348, 4155.897461, 4189.743652, 4229.230469, 4215.897461, 4251.281738, 4200.000000, 4135.897461, 4226.153809, 4203.076660, 4160.512695, 0.000000, 8260.000000, 8165.000000, 0.000000, 0.000000, 0.000000, 8739.000000, 918.461487, 4.000000, 4.000000, 4.000000, 4.000000, 4.000000, 4.000000, 4.000000, 4.000000, 4.000000, 4.000000, 4.000000, 4.000000, 4.000000, 4.000000, 4.000000, 4.000000
50.000000, 0.000000, 4233.333008, 4422.563965, 4221.025391, 4241.025391, 4168.717773, 4197.436035, 4234.358887, 4220.000000, 4253.846191, 4201.538574, 4156.410156, 4247.179199, 4226.666504, 4186.153809, 0.000000, 8260.000000, 8165.000000, 0.000000, 0.000000, 0.000000, 8739.000000, 926.666626, 4.000000, 4.000000, 4.000000, 4.000000, 4.000000, 4.000000, 4.000000, 4.000000, 4.000000, 4.000000, 4.000000, 4.000000, 4.000000, 4.000000, 4.000000, 4.000000
51.000000, 0.000000, 4231.281738, 4416.922852, 4219.487305, 4233.333008, 4171.794922, 4190.769043, 4232.820313, 4216.410156, 4250.256348, 4189.743652, 4151.281738, 4253.333008, 4222.051270, 4183.589844, 0.000000, 8267.000000, 8160.000000, 0.000000, 0.000000, 0.000000, 8739.000000, 934.358948, 4.000000, 4.000000, 4.000000, 4.000000, 4.000000, 4.000000, 4.000000, 4.000000, 4.000000, 4.000000, 4.000000, 4.000000, 4.000000, 4.000000, 4.000000, 4.000000
52.000000, 0.000000, 4214.871582, 4409.743652, 4209.230469, 4225.127930, 4145.127930, 4187.692383, 4229.743652, 4219.487305, 4255.384277, 4188.205078, 4129.230469, 4233.846191, 4212.820313, 4168.205078, 0.000000, 8267.000000, 8160.000000, 0.000000, 0.000000, 0.000000, 8739.000000, 942.564087, 4.000000, 4.000000, 4.000000, 4.000000, 4.000000, 4.000000, 4.000000, 4.000000, 4.000000, 4.000000, 4.000000, 4.000000, 4.000000, 4.000000, 4.000000, 4.000000
53.000000, 0.000000, 4224.615234, 4437.435547, 4220.512695, 4233.333008, 4147.179199, 4194.358887, 4235.897461, 4226.153809, 4267.692383, 4208.205078, 4137.436035, 4237.948730, 4231.281738, 4176.410156, 0.000000, 8273.000000, 8161.000000, 0.000000, 0.000000, 0.000000, 8739.000000, 950.256409, 4.000000, 4.000000, 4.000000, 4.000000, 4.000000, 4.000000, 4.000000, 4.000000, 4.000000, 4.000000, 4.000000, 4.000000, 4.000000, 4.000000, 4.000000, 4.000000
54.000000, 0.000000, 4227.179199, 4458.974121, 4222.563965, 4233.846191, 4178.974121, 4192.820313, 4238.974121, 4223.076660, 4267.179199, 4212.307617, 4146.153809, 4250.769043, 4245.641113, 4183.076660, 0.000000, 8273.000000, 8161.000000, 0.000000, 0.000000, 0.000000, 8739.000000, 958.461487, 4.000000, 4.000000, 4.000000, 4.000000, 4.000000, 4.000000, 4.000000, 4.000000, 4.000000, 4.000000, 4.000000, 4.000000, 4.000000, 4.000000, 4.000000, 4.000000
55.000000, 0.000000, 4202.563965, 4467.692383, 4202.051270, 4234.871582, 4174.358887, 4188.205078, 4234.871582, 4220.512695, 4258.461426, 4198.461426, 4131.281738, 4236.922852, 4252.307617, 4169.230469, 0.000000, 8279.000000, 8168.000000, 0.000000, 0.000000, 0.000000, 8739.000000, 966.153809, 4.000000, 4.000000, 4.000000, 4.000000, 4.000000, 4.000000, 4.000000, 4.000000, 4.000000, 4.000000, 4.000000, 4.000000, 4.000000, 4.000000, 4.000000, 4.000000
56.000000, 0.000000, 4195.897461, 4500.000000, 4195.897461, 4254.358887, 4159.487305, 4192.820313, 4231.281738, 4220.512695, 4260.000000, 4198.974121, 4129.230469, 4227.692383, 4271.794922, 4161.538574, 0.000000, 8279.000000, 8168.000000, 0.000000, 0.000000, 0.000000, 8739.000000, 974.358948, 4.000000, 4.000000, 4.000000, 4.000000, 4.000000, 4.000000, 4.000000, 4.000000, 4.000000, 4.000000, 4.000000, 4.000000, 4.000000, 4.000000, 4.000000, 4.000000
57.000000, 0.000000, 4207.179199, 4544.615234, 4204.615234, 4278.461426, 4180.000000, 4193.846191, 4231.794922, 4221.538574, 4266.153809, 4205.127930, 4138.461426, 4237.436035, 4286.666504, 4165.641113, 0.000000, 8276.000000, 8167.000000, 0.000000, 0.000000, 0.000000, 8739.000000, 982.051270, 4.000000, 4.000000, 4.000000, 4.000000, 4.000000, 4.000000, 4.000000, 4.000000, 4.000000, 4.000000, 4.000000, 4.000000, 4.000000, 4.000000, 4.000000, 4.000000
58.000000, 0.000000, 4206.153809, 4591.281738, 4207.692383, 4315.384277, 4190.256348, 4196.410156, 4236.410156, 4225.641113, 4269.230469, 4200.512695, 4134.871582, 4238.461426, 4292.820313, 4170.256348, 0.000000, 8276.000000, 8167.000000, 0.000000, 0.000000, 0.000000, 8739.000000, 990.256409, 4.000000, 4.000000, 4.000000, 4.000000, 4.000000, 4.000000, 4.000000, 4.000000, 4.000000, 4.000000, 4.000000, 4.000000, 4.000000, 4.000000, 4.000000, 4.000000
59.000000, 0.000000, 4204.102539, 4648.717773, 4207.692383, 4384.615234, 4173.846191, 4205.127930, 4240.000000, 4227.692383, 4275.384277, 4201.025391, 4134.871582, 4234.358887, 4303.076660, 4174.871582, 0.000000, 8277.000000, 8168.000000, 0.000000, 0.000000, 0.000000, 8739.000000, 997.948669, 4.000000, 4.000000, 4.000000, 4.000000, 4.000000, 4.000000, 4.000000, 4.000000, 4.000000, 4.000000, 4.000000, 4.000000, 4.000000, 4.000000, 4.000000, 4.000000
60.000000, 0.000000, 4202.563965, 4700.512695, 4206.666504, 4447.179199, 4163.076660, 4197.948730, 4233.333008, 4220.512695, 4269.230469, 4204.102539, 4134.358887, 4234.358887, 4299.487305, 4170.256348, 0.000000, 8277.000000, 8168.000000, 0.000000, 0.000000, 0.000000, 8740.000000, 6.153846, 4.000000, 4.000000, 4.000000, 4.000000, 4.000000, 4.000000, 4.000000, 4.000000, 4.000000, 4.000000, 4.000000, 4.000000, 4.000000, 4.000000, 4.000000, 4.000000
61.000000, 0.000000, 4200.000000, 4750.256348, 4208.205078, 4501.538574, 4163.076660, 4185.127930, 4224.102539, 4215.384277, 4254.358887, 4195.897461, 4126.666504, 4230.769043, 4292.307617, 4165.641113, 0.000000, 8278.000000, 8161.000000, 0.000000, 0.000000, 0.000000, 8740.000000, 14.358974, 4.000000, 4.000000, 4.000000, 4.000000, 4.000000, 4.000000, 4.000000, 4.000000, 4.000000, 4.000000, 4.000000, 4.000000, 4.000000, 4.000000, 4.000000, 4.000000
62.000000, 0.000000, 4203.076660, 4814.358887, 4211.281738, 4592.307617, 4166.153809, 4187.692383, 4218.974121, 4217.948730, 4252.307617, 4190.769043, 4125.641113, 4232.307617, 4289.230469, 4170.256348, 0.000000, 8278.000000, 8161.000000, 0.000000, 0.000000, 0.000000, 8740.000000, 22.051281, 4.000000, 4.000000, 4.000000, 4.000000, 4.000000, 4.000000, 4.000000, 4.000000, 4.000000, 4.000000, 4.000000, 4.000000, 4.000000, 4.000000, 4.000000, 4.000000
63.000000, 0.000000, 4201.538574, 4871.794922, 4217.436035, 4688.205078, 4162.051270, 4188.205078, 4219.487305, 4215.897461, 4252.307617, 4190.769043, 4129.230469, 4241.538574, 4274.871582, 4170.256348, 0.000000, 8275.000000, 8155.000000, 0.000000, 0.000000, 0.000000, 8740.000000, 30.256409, 4.000000, 4.000000, 4.000000, 4.000000, 4.000000, 4.000000, 4.000000, 4.000000, 4.000000, 4.000000, 4.000000, 4.000000, 4.000000, 4.000000, 4.000000, 4.000000
64.000000, 0.000000, 4197.436035, 4926.153809, 4220.512695, 4763.589844, 4160.000000, 4185.641113, 4221.538574, 4208.717773, 4248.717773, 4187.179199, 4127.179199, 4243.076660, 4267.692383, 4164.615234, 3340.000000, 8275.000000, 8155.000000, 0.000000, 0.000000, 0.000000, 8740.000000, 37.948715, 4.000000, 4.000000, 4.000000, 4.000000, 4.000000, 4.000000, 4.000000, 4.000000, 4.000000, 4.000000, 4.000000, 4.000000, 4.000000, 4.000000, 4.000000, 4.000000
65.000000, 0.000000, 4201.025391, 4993.333008, 4220.000000, 4853.846191, 4164.102539, 4191.281738, 4223.076660, 4209.743652, 4247.179199, 4182.563965, 4124.615234, 4235.384277, 4275.897461, 4165.127930, 3413.000000, 8278.000000, 8152.000000, 0.000000, 0.000000, 0.000000, 8740.000000, 46.153847, 4.000000, 4.000000, 4.000000, 4.000000, 4.000000, 4.000000, 4.000000, 4.000000, 4.000000, 4.000000, 4.000000, 4.000000, 4.000000, 4.000000, 4.000000, 4.000000
66.000000, 0.000000, 4202.563965, 5061.538574, 4224.615234, 4953.846191, 4161.538574, 4189.230469, 4224.615234, 4212.820313, 4245.641113, 4185.127930, 4127.692383, 4230.769043, 4276.922852, 4168.205078, 3474.000000, 8278.000000, 8152.000000, 0.000000, 0.000000, 0.000000, 8740.000000, 53.846153, 4.000000, 4.000000, 4.000000, 4.000000, 4.000000, 4.000000, 4.000000, 4.000000, 4.000000, 4.000000, 4.000000, 4.000000, 4.000000, 4.000000, 4.000000, 4.000000
67.000000, 0.000000, 4195.384277, 5116.410156, 4225.641113, 5033.333008, 4160.512695, 4181.538574, 4220.000000, 4210.769043, 4242.051270, 4185.641113, 4129.743652, 4234.871582, 4266.153809, 4167.179199, 3489.000000, 8274.000000, 8139.000000, 0.000000, 0.000000, 0.000000, 8740.000000, 62.051281, 4.000000, 4.000000, 4.000000, 4.000000, 4.000000, 4.000000, 4.000000, 4.000000, 4.000000, 4.000000, 4.000000, 4.000000, 4.000000, 4.000000, 4.000000, 4.000000
68.000000, 0.000000, 4187.692383, 5166.666504, 4222.051270, 5114.358887, 4164.102539, 4184.615234, 4220.000000, 4208.717773, 4240.000000, 4179.487305, 4129.743652, 4242.051270, 4264.102539, 4162.563965, 3554.000000, 8274.000000, 8139.000000, 0.000000, 0.000000, 0.000000, 8740.000000, 69.743591, 4.000000, 4.000000, 4.000000, 4.000000, 4.000000, 4.000000, 4.000000, 4.000000, 4.000000, 4.000000, 4.000000, 4.000000, 4.000000, 4.000000, 4.000000, 4.000000
69.000000, 0.000000, 4185.127930, 5234.871582, 4218.461426, 5212.820313, 4164.615234, 4190.256348, 4221.025391, 4206.153809, 4238.461426, 4182.563965, 4135.384277, 4244.615234, 4267.692383, 4163.589844, 3492.000000, 8262.000000, 8137.000000, 0.000000, 0.000000, 0.000000, 8740.000000, 77.948715, 4.000000, 4.000000, 4.000000, 4.000000, 4.000000, 4.000000, 4.000000, 4.000000, 4.000000, 4.000000, 4.000000, 4.000000, 4.000000, 4.000000, 4.000000, 4.000000
70.000000, 0.000000, 4190.769043, 5327.179199, 4220.512695, 5302.051270, 4168.205078, 4189.743652, 4217.948730, 4202.563965, 4241.025391, 4187.179199, 4147.692383, 4244.102539, 4265.127930, 4173.333008, 2994.000000, 8262.000000, 8137.000000, 0.000000, 0.000000, 0.000000, 8740.000000, 85.641022, 4.000000, 4.000000, 4.000000, 4.000000, 4.000000, 4.000000, 4.000000, 4.000000, 4.000000, 4.000000, 4.000000, 4.000000, 4.000000, 4.000000, 4.000000, 4.000000
71.000000, 0.000000, 4192.307617, 5414.871582, 4221.538574, 5369.743652, 4173.333008, 4191.794922, 4225.127930, 4208.205078, 4246.153809, 4176.410156, 4149.743652, 4243.076660, 4260.512695, 4172.307617, 1758.000000, 8261.000000, 8143.000000, 0.000000, 0.000000, 0.000000, 8740.000000, 93.846153, 4.000000, 4.000000, 4.000000, 4.000000, 4.000000, 4.000000, 4.000000, 4.000000, 4.000000, 4.000000, 4.000000, 4.000000, 4.000000, 4.000000, 4.000000, 4.000000
72.000000, 0.000000, 4172.820313, 5468.717773, 4210.769043, 5430.769043, 4168.205078, 4194.871582, 4232.820313, 4217.436035, 4247.179199, 4169.743652, 4134.358887, 4232.820313, 4248.205078, 4148.205078, 3468.000000, 8261.000000, 8143.000000, 0.000000, 0.000000, 0.000000, 8740.000000, 101.538460, 4.000000, 4.000000, 4.000000, 4.000000, 4.000000, 4.000000, 4.000000, 4.000000, 4.000000, 4.000000, 4.000000, 4.000000, 4.000000, 4.000000, 4.000000, 4.000000
73.000000, 0.000000, 4155.897461, 5506.153809, 4202.563965, 5486.153809, 4158.974121, 4189.230469, 4228.717773, 4213.846191, 4241.025391, 4176.922852, 4133.333008, 4219.487305, 4254.358887, 4136.410156, 1577.000000, 8241.000000, 8146.000000, 0.000000, 0.000000, 0.000000, 8740.000000, 109.743584, 4.000000, 4.000000, 4.000000, 4.000000, 4.000000, 4.000000, 4.000000, 4.000000, 4.000000, 4.000000, 4.000000, 4.000000, 4.000000, 4.000000, 4.000000, 4.000000
74.000000, 0.000000, 4165.127930, 5560.000000, 4206.666504, 5542.051270, 4164.615234, 4188.205078, 4225.127930, 4211.794922, 4245.127930, 4183.589844, 4162.051270, 4232.307617, 4287.179199, 4170.769043, 3075.000000, 8241.000000, 8146.000000, 0.000000, 0.000000, 0.000000, 8740.000000, 117.948715, 4.000000, 4.000000, 4.000000, 4.000000, 4.000000, 4.000000, 4.000000, 4.000000, 4.000000, 4.000000, 4.000000, 4.000000, 4.000000, 4.000000, 4.000000, 4.000000
75.000000, 0.000000, 4180.000000, 5603.589844, 4219.487305, 5593.846191, 4166.666504, 4195.384277, 4231.281738, 4220.512695, 4262.051270, 4182.563965, 4183.589844, 4260.512695, 4297.948730, 4210.256348, 3523.000000, 8227.000000, 8145.000000, 0.000000, 0.000000, 0.000000, 8740.000000, 125.641022, 4.000000, 4.000000, 4.000000, 4.000000, 4.000000, 4.000000, 4.000000, 4.000000, 4.000000, 4.000000, 4.000000, 4.000000, 4.000000, 4.000000, 4.000000, 4.000000
76.000000, 0.000000, 4167.692383, 5609.230469, 4222.051270, 5629.230469, 4156.410156, 4195.897461, 4239.487305, 4220.000000, 4265.127930, 4179.487305, 4178.461426, 4260.000000, 4277.948730, 4201.025391, 2924.000000, 8227.000000, 8145.000000, 0.000000, 0.000000, 0.000000, 8740.000000, 133.846146, 4.000000, 4.000000, 4.000000, 4.000000, 4.000000, 4.000000, 4.000000, 4.000000, 4.000000, 4.000000, 4.000000, 4.000000, 4.000000, 4.000000, 4.000000, 4.000000
77.000000, 0.000000, 4151.794922, 5630.256348, 4210.256348, 5670.256348, 4155.897461, 4201.538574, 4243.589844, 4215.384277, 4261.025391, 4174.871582, 4178.974121, 4239.487305, 4270.256348, 4179.487305, 3331.000000, 8211.000000, 8143.000000, 0.000000, 0.000000, 0.000000, 8740.000000, 141.538452, 4.000000, 4.000000, 4.000000, 4.000000, 4.000000, 4.000000, 4.000000, 4.000000, 4.000000, 4.000000, 4.000000, 4.000000, 4.000000, 4.000000, 4.000000, 4.000000
78.000000, 0.000000, 4151.281738, 5678.974121, 4205.641113, 5722.563965, 4159.487305, 4207.692383, 4241.538574, 4216.410156, 4258.461426, 4164.615234, 4183.076660, 4233.846191, 4268.205078, 4183.589844, 3075.000000, 8211.000000, 8143.000000, 0.000000, 0.000000, 0.000000, 8740.000000, 149.743591, 4.000000, 4.000000, 4.000000, 4.000000, 4.000000, 4.000000, 4.000000, 4.000000, 4.000000, 4.000000, 4.000000, 4.000000, 4.000000, 4.000000, 4.000000, 4.000000
79.000000, 0.000000, 4148.205078, 5719.486816, 4205.641113, 5778.461426, 4172.307617, 4200.512695, 4233.846191, 4212.820313, 4255.384277, 4163.076660, 4183.589844, 4235.897461, 4242.563965, 4190.769043, 3523.000000, 8189.000000, 8150.000000, 0.000000, 0.000000, 0.000000, 8740.000000, 157.435898, 4.000000, 4.000000, 4.000000, 4.000000, 4.000000, 4.000000, 4.000000, 4.000000, 4.000000, 4.000000, 4.000000, 4.000000, 4.000000, 4.000000, 4.000000, 4.000000
80.000000, 0.000000, 4148.717773, 5758.974121, 4206.153809, 5838.974121, 4182.051270, 4197.436035, 4234.358887, 4204.615234, 4260.512695, 4172.820313, 4193.333008, 4231.281738, 4226.153809, 4190.769043, 2924.000000, 8189.000000, 8150.000000, 0.000000, 0.000000, 0.000000, 8740.000000, 165.641022, 4.000000, 4.000000, 4.000000, 4.000000, 4.000000, 4.000000, 4.000000, 4.000000, 4.000000, 4.000000, 4.000000, 4.000000, 4.000000, 4.000000, 4.000000, 4.000000
81.000000, 0.000000, 4148.205078, 5796.922852, 4209.230469, 5894.871582, 4158.461426, 4200.000000, 4236.922852, 4198.461426, 4255.897461, 4171.794922, 4197.436035, 4229.230469, 4225.641113, 4194.358887, 3331.000000, 8176.000000, 8147.000000, 0.000000, 0.000000, 0.000000, 8740.000000, 173.333328, 4.000000, 4.000000, 4.000000, 4.000000, 4.000000, 4.000000, 4.000000, 4.000000, 4.000000, 4.000000, 4.000000, 4.000000, 4.000000, 4.000000, 4.000000, 4.000000
82.000000, 0.000000, 4143.076660, 5819.486816, 4210.256348, 5938.461426, 4136.410156, 4196.410156, 4231.281738, 4199.487305, 4244.102539, 4159.487305, 4198.974121, 4231.794922, 4214.871582, 4203.589844, 3075.000000, 8176.000000, 8147.000000, 0.000000, 0.000000, 0.000000, 8740.000000, 181.538452, 4.000000, 4.000000, 4.000000, 4.000000, 4.000000, 4.000000, 4.000000, 4.000000, 4.000000, 4.000000, 4.000000, 4.000000, 4.000000, 4.000000, 4.000000, 4.000000
83.000000, 0.000000, 4147.692383, 5836.410156, 4217.948730, 5973.333008, 4152.307617, 4192.307617, 4230.769043, 4206.666504, 4243.589844, 4156.410156, 4222.051270, 4236.922852, 4198.974121, 4209.230469, 3523.000000, 8163.000000, 8142.000000, 0.000000, 0.000000, 0.000000, 8740.000000, 189.230759, 4.000000, 4.000000, 4.000000, 4.000000, 4.000000, 4.000000, 4.000000, 4.000000, 4.000000, 4.000000, 4.000000, 4.000000, 4.000000, 4.000000, 4.000000, 4.000000
84.000000, 0.000000, 4157.436035, 5856.922852, 4230.769043, 6014.358887, 4165.641113, 4193.846191, 4236.922852, 4212.820313, 4251.281738, 4161.025391, 4250.256348, 4246.666504, 4194.358887, 4211.281738, 2924.000000, 8163.000000, 8142.000000, 0.000000, 0.000000, 0.000000, 8740.000000, 197.435898, 4.000000, 4.000000, 4.000000, 4.000000, 4.000000, 4.000000, 4.000000, 4.000000, 4.000000, 4.000000, 4.000000, 4.000000, 4.000000, 4.000000, 4.000000, 4.000000
85.000000, 0.000000, 4154.358887, 5875.384277, 4226.153809, 6062.051270, 4150.769043, 4194.871582, 4235.897461, 4212.820313, 4252.820313, 4155.384277, 4255.384277, 4252.307617, 4182.051270, 4218.974121, 3331.000000, 8157.000000, 8140.000000, 0.000000, 0.000000, 0.000000, 8740.000000, 205.128204, 4.000000, 4.000000, 4.000000, 4.000000, 4.000000, 4.000000, 4.000000, 4.000000, 4.000000, 4.000000, 4.000000, 4.000000, 4.000000, 4.000000, 4.000000, 4.000000
86.000000, 0.000000, 4138.461426, 5891.794922, 4209.743652, 6097.435547, 4153.846191, 4192.307617, 4236.410156, 4213.333008, 4252.307617, 4149.743652, 4248.205078, 4248.205078, 4150.256348, 4213.333008, 3075.000000, 8157.000000, 8140.000000, 0.000000, 0.000000, 0.000000, 8740.000000, 213.333328, 4.000000, 4.000000, 4.000000, 4.000000, 4.000000, 4.000000, 4.000000, 4.000000, 4.000000, 4.000000, 4.000000, 4.000000, 4.000000, 4.000000, 4.000000, 4.000000
87.000000, 0.000000, 4130.256348, 5914.358887, 4208.717773, 6119.486816, 4159.487305, 4193.846191, 4242.051270, 4221.025391, 4263.076660, 4157.948730, 4253.333008, 4239.487305, 4147.692383, 4196.922852, 3523.000000, 8159.000000, 8127.000000, 0.000000, 0.000000, 0.000000, 8740.000000, 221.025635, 4.000000, 4.000000, 4.000000, 4.000000, 4.000000, 4.000000, 4.000000, 4.000000, 4.000000, 4.000000, 4.000000, 4.000000, 4.000000, 4.000000, 4.000000, 4.000000
88.000000, 0.000000, 4124.102539, 5925.127930, 4216.922852, 6141.538086, 4130.256348, 4195.384277, 4240.000000, 4220.512695, 4263.589844, 4159.487305, 4263.076660, 4231.281738, 4156.410156, 4192.820313, 2924.000000, 8159.000000, 8127.000000, 0.000000, 0.000000, 0.000000, 8740.000000, 229.230759, 4.000000, 4.000000, 4.000000, 4.000000, 4.000000, 4.000000, 4.000000, 4.000000, 4.000000, 4.000000, 4.000000, 4.000000, 4.000000, 4.000000, 4.000000, 4.000000
89.000000, 0.000000, 4121.025391, 5932.820313, 4216.410156, 6181.538086, 4138.974121, 4201.025391, 4242.563965, 4213.333008, 4264.102539, 4153.333008, 4267.692383, 4234.358887, 4134.358887, 4203.589844, 3331.000000, 8160.000000, 8127.000000, 0.000000, 0.000000, 0.000000, 8740.000000, 237.435898, 4.000000, 4.000000, 4.000000, 4.000000, 4.000000, 4.000000, 4.000000, 4.000000, 4.000000, 4.000000, 4.000000, 4.000000, 4.000000, 4.000000, 4.000000, 4.000000
90.000000, 0.000000, 4124.102539, 5962.051270, 4214.871582, 6221.025391, 4182.563965, 4212.820313, 4252.820313, 4222.563965, 4283.076660, 4154.871582, 4283.589844, 4251.281738, 4125.127930, 4216.922852, 3075.000000, 8160.000000, 8127.000000, 0.000000, 0.000000, 0.000000, 8740.000000, 245.128204, 4.000000, 4.000000, 4.000000, 4.000000, 4.000000, 4.000000, 4.000000, 4.000000, 4.000000, 4.000000, 4.000000, 4.000000, 4.000000, 4.000000, 4.000000, 4.000000
91.000000, 0.000000, 4115.384277, 5989.743652, 4214.358887, 6232.820313, 4165.127930, 4210.256348, 4246.666504, 4232.307617, 4281.538574, 4155.384277, 4295.384277, 4243.076660, 4129.230469, 4208.717773, 3523.000000, 8165.000000, 8130.000000, 0.000000, 0.000000, 0.000000, 8740.000000, 253.333328, 4.000000, 4.000000, 4.000000, 4.000000, 4.000000, 4.000000, 4.000000, 4.000000, 4.000000, 4.000000, 4.000000, 4.000000, 4.000000, 4.000000, 4.000000, 4.000000
92.000000, 0.000000, 4116.922852, 6008.205078, 4223.589844, 6260.000000, 4147.692383, 4200.512695, 4235.384277, 4225.127930, 4270.256348, 4147.692383, 4296.922852, 4227.692383, 4118.461426, 4201.538574, 2924.000000, 8165.000000, 8130.000000, 0.000000, 0.000000, 0.000000, 8740.000000, 261.025635, 4.000000, 4.000000, 4.000000, 4.000000, 4.000000, 4.000000, 4.000000, 4.000000, 4.000000, 4.000000, 4.000000, 4.000000, 4.000000, 4.000000, 4.000000, 4.000000
93.000000, 0.000000, 4128.205078, 6026.666504, 4233.333008, 6304.102539, 4181.025391, 4197.436035, 4237.948730, 4216.922852, 4279.487305, 4140.000000, 4306.153809, 4239.487305, 4093.333252, 4213.333008, 3331.000000, 8173.000000, 8139.000000, 0.000000, 0.000000, 0.000000, 8740.000000, 269.230774, 4.000000, 4.000000, 4.000000, 4.000000, 4.000000, 4.000000, 4.000000, 4.000000, 4.000000, 4.000000, 4.000000, 4.000000, 4.000000, 4.000000, 4.000000, 4.000000
94.000000, 0.000000, 4113.846191, 6028.717773, 4225.127930, 6304.615234, 4159.487305, 4191.794922, 4236.922852, 4214.871582, 4278.974121, 4133.846191, 4297.948730, 4242.051270, 4060.512695, 4203.589844, 3075.000000, 8173.000000, 8139.000000, 0.000000, 0.000000, 0.000000, 8740.000000, 276.923065, 4.000000, 4.000000, 4.000000, 4.000000, 4.000000, 4.000000, 4.000000, 4.000000, 4.000000, 4.000000, 4.000000, 4.000000, 4.000000, 4.000000, 4.000000, 4.000000
95.000000, 0.000000, 4101.025391, 6041.538086, 4222.563965, 6311.281738, 4133.333008, 4192.307617, 4236.410156, 4221.025391, 4274.871582, 4142.563965, 4300.000000, 4236.410156, 4055.384521, 4197.436035, 3523.000000, 8182.000000, 8139.000000, 0.000000, 0.000000, 0.000000, 8740.000000, 285.128204, 4.000000, 4.000000, 4.000000, 4.000000, 4.000000, 4.000000, 4.000000, 4.000000, 4.000000, 4.000000, 4.000000, 4.000000, 4.000000, 4.000000, 4.000000, 4.000000
96.000000, 0.000000, 4113.333008, 6089.230469, 4234.358887, 6375.897461, 4169.743652, 4199.487305, 4247.179199, 4231.281738, 4288.205078, 4151.281738, 4332.307617, 4251.281738, 4074.871582, 4220.000000, 2924.000000, 8182.000000, 8139.000000, 0.000000, 0.000000, 0.000000, 8740.000000, 292.820496, 4.000000, 4.000000, 4.000000, 4.000000, 4.000000, 4.000000, 4.000000, 4.000000, 4.000000, 4.000000, 4.000000, 4.000000, 4.000000, 4.000000, 4.000000, 4.000000
97.000000, 0.000000, 4115.384277, 6132.307617, 4235.384277, 6418.974121, 4177.948730, 4202.051270, 4248.717773, 4231.794922, 4296.410156, 4142.563965, 4346.666504, 4265.127930, 4062.563965, 4228.205078, 3331.000000, 8183.000000, 8145.000000, 0.000000, 0.000000, 0.000000, 8740.000000, 301.025635, 4.000000, 4.000000, 4.000000, 4.000000, 4.000000, 4.000000, 4.000000, 4.000000, 4.000000, 4.000000, 4.000000, 4.000000, 4.000000, 4.000000, 4.000000, 4.000000
98.000000, 0.000000, 4097.948730, 6153.333008, 4229.230469, 6414.871582, 4141.538574, 4195.384277, 4242.563965, 4223.589844, 4284.102539, 4135.897461, 4337.948730, 4260.512695, 4021.025635, 4212.307617, 3075.000000, 8183.000000, 8145.000000, 0.000000, 0.000000, 0.000000, 8740.000000, 308.717926, 4.000000, 4.000000, 4.000000, 4.000000, 4.000000, 4.000000, 4.000000, 4.000000, 4.000000, 4.000000, 4.000000, 4.000000, 4.000000, 4.000000, 4.000000, 4.000000
99.000000, 0.000000, 4082.051270, 6169.230469, 4232.307617, 6434.871582, 4094.871582, 4181.025391, 4242.051270, 4209.743652, 4258.974121, 4124.102539, 4330.256348, 4241.025391, 3995.897217, 4194.871582, 3523.000000, 8180.000000, 8143.000000, 0.000000, 0.000000, 0.000000, 8740.000000, 316.923065, 4.000000, 4.000000, 4.000000, 4.000000, 4.000000, 4.000000, 4.000000, 4.000000, 4.000000, 4.000000, 4.000000, 4.000000, 4.000000, 4.000000, 4.000000, 4.000000
100.000000, 0.000000, 4073.333252, 6181.025391, 4228.205078, 6491.794922, 4092.307617, 4177.948730, 4249.743652, 4207.179199, 4252.820313, 4109.230469, 4339.487305, 4233.846191, 3998.974365, 4185.127930, 2924.000000, 8180.000000, 8143.000000, 0.000000, 0.000000, 0.000000, 8740.000000, 324.615387, 4.000000, 4.000000, 4.000000, 4.000000, 4.000000, 4.000000, 4.000000, 4.000000, 4.000000, 4.000000, 4.000000, 4.000000, 4.000000, 4.000000, 4.000000, 4.000000
101.000000, 0.000000, 4069.230713, 6209.743652, 4219.487305, 6541.538086, 4161.538574, 4191.794922, 4268.205078, 4222.563965, 4278.461426, 4121.025391, 4368.717773, 4242.051270, 4008.717773, 4185.127930, 3331.000000, 8178.000000, 8132.000000, 0.000000, 0.000000, 0.000000, 8740.000000, 332.820496, 4.000000, 4.000000, 4.000000, 4.000000, 4.000000, 4.000000, 4.000000, 4.000000, 4.000000, 4.000000, 4.000000, 4.000000, 4.000000, 4.000000, 4.000000, 4.000000
102.000000, 0.000000, 4068.205078, 6259.486816, 4220.512695, 6570.769043, 4187.179199, 4197.948730, 4269.743652, 4227.179199, 4290.256348, 4136.922852, 4400.512695, 4239.487305, 4007.179443, 4187.179199, 3075.000000, 8178.000000, 8132.000000, 0.000000, 0.000000, 0.000000, 8740.000000, 341.025635, 4.000000, 4.000000, 4.000000, 4.000000, 4.000000, 4.000000, 4.000000, 4.000000, 4.000000, 4.000000, 4.000000, 4.000000, 4.000000, 4.000000, 4.000000, 4.000000
103.000000, 0.000000, 4062.563965, 6282.051270, 4221.538574, 6623.076660, 4130.256348, 4190.769043, 4251.794922, 4213.846191, 4264.102539, 4122.563965, 4414.871582, 4231.794922, 3982.563965, 4184.615234, 3523.000000, 8170.000000, 8133.000000, 0.000000, 0.000000, 0.000000, 8740.000000, 348.717926, 4.000000, 4.000000, 4.000000, 4.000000, 4.000000, 4.000000, 4.000000, 4.000000, 4.000000, 4.000000, 4.000000, 4.000000, 4.000000, 4.000000, 4.000000, 4.000000
104.000000, 0.000000, 4064.102539, 6283.589355, 4221.025391, 6712.307617, 4134.871582, 4187.692383, 4251.281738, 4208.717773, 4249.743652, 4103.589844, 4429.230469, 4247.692383, 3961.025635, 4196.410156, 2924.000000, 8170.000000, 8133.000000, 0.000000, 0.000000, 0.000000, 8740.000000, 356.923065, 4.000000, 4.000000, 4.000000, 4.000000, 4.000000, 4.000000, 4.000000, 4.000000, 4.000000, 4.000000, 4.000000, 4.000000, 4.000000, 4.000000, 4.000000, 4.000000
105.000000, 0.000000, 4080.512695, 6282.563965, 4237.948730, 6754.871582, 4163.076660, 4187.692383, 4264.102539, 4209.743652, 4258.461426, 4101.538574, 4444.102539, 4267.179199, 3950.256348, 4215.384277, 3331.000000, 8161.000000, 8132.000000, 0.000000, 0.000000, 0.000000, 8740.000000, 364.615387, 4.000000, 4.000000, 4.000000, 4.000000, 4.000000, 4.000000, 4.000000, 4.000000, 4.000000, 4.000000, 4.000000, 4.000000, 4.000000, 4.000000, 4.000000, 4.000000
106.000000, 0.000000, 4088.717773, 6250.769043, 4260.000000, 6764.102539, 4109.230469, 4185.641113, 4267.692383, 4202.563965, 4260.000000, 4101.538574, 4440.000000, 4250.769043, 3943.589600, 4195.384277, 3075.000000, 8161.000000, 8132.000000, 0.000000, 0.000000, 0.000000, 8740.000000, 372.820496, 4.000000, 4.000000, 4.000000, 4.000000, 4.000000, 4.000000, 4.000000, 4.000000, 4.000000, 4.000000, 4.000000, 4.000000, 4.000000, 4.000000, 4.000000, 4.000000
107.000000, 0.000000, 4077.435791, 6206.666504, 4245.641113, 6817.435547, 4092.820313, 4184.615234, 4260.512695, 4198.461426, 4258.974121, 4105.127930, 4460.000000, 4231.281738, 3942.051270, 4176.410156, 3523.000000, 8147.000000, 8122.000000, 0.000000, 0.000000, 0.000000, 8740.000000, 380.512817, 4.000000, 4.000000, 4.000000, 4.000000, 4.000000, 4.000000, 4.000000, 4.000000, 4.000000, 4.000000, 4.000000, 4.000000, 4.000000, 4.000000, 4.000000, 4.000000
108.000000, 0.000000, 4068.717773, 6177.435547, 4228.717773, 6858.974121, 4137.948730, 4185.641113, 4261.025391, 4207.179199, 4257.436035, 4107.179199, 4494.358887, 4248.717773, 3914.358887, 4195.384277, 2924.000000, 8147.000000, 8122.000000, 0.000000, 0.000000, 0.000000, 8740.000000, 388.717926, 4.000000, 4.000000, 4.000000, 4.000000, 4.000000, 4.000000, 4.000000, 4.000000, 4.000000, 4.000000, 4.000000, 4.000000, 4.000000, 4.000000, 4.000000, 4.000000
109.000000, 0.000000, 4065.640869, 6147.692383, 4238.974121, 6860.000000, 4146.666504, 4189.743652, 4270.256348, 4213.333008, 4255.897461, 4106.153809, 4506.666504, 4262.051270, 3883.589600, 4197.436035, 3331.000000, 8146.000000, 8131.000000, 0.000000, 0.000000, 0.000000, 8740.000000, 396.410248, 4.000000, 4.000000, 4.000000, 4.000000, 4.000000, 4.000000, 4.000000, 4.000000, 4.000000, 4.000000, 4.000000, 4.000000, 4.000000, 4.000000, 4.000000, 4.000000
110.000000, 0.000000, 4056.923096, 6090.769043, 4238.461426, 6880.512695, 4121.538574, 4186.153809, 4267.692383, 4209.743652, 4260.512695, 4113.333008, 4510.769043, 4230.769043, 3867.692139, 4161.538574, 3075.000000, 8146.000000, 8131.000000, 0.000000, 0.000000, 0.000000, 8740.000000, 404.615387, 4.000000, 4.000000, 4.000000, 4.000000, 4.000000, 4.000000, 4.000000, 4.000000, 4.000000, 4.000000, 4.000000, 4.000000, 4.000000, 4.000000, 4.000000, 4.000000
111.000000, 0.000000, 4059.487061, 6011.794922, 4231.794922, 6913.846191, 4130.769043, 4180.000000, 4262.563965, 4212.307617, 4267.692383, 4122.051270, 4529.230469, 4218.461426, 3848.205078, 4153.333008, 3523.000000, 8132.000000, 8124.000000, 0.000000, 0.000000, 0.000000, 8740.000000, 412.307678, 4.000000, 4.000000, 4.000000, 4.000000, 4.000000, 4.000000, 4.000000, 4.000000, 4.000000, 4.000000, 4.000000, 4.000000, 4.000000, 4.000000, 4.000000, 4.000000
112.000000, 0.000000, 4073.333252, 5952.307617, 4234.871582, 6924.615234, 4157.948730, 4184.102539, 4263.589844, 4216.410156, 4270.256348, 4123.589844, 4564.615234, 4246.666504, 3846.153809, 4184.615234, 2924.000000, 8132.000000, 8124.000000, 0.000000, 0.000000, 0.000000, 8740.000000, 420.512817, 4.000000, 4.000000, 4.000000, 4.000000, 4.000000, 4.000000, 4.000000, 4.000000, 4.000000, 4.000000, 4.000000, 4.000000, 4.000000, 4.000000, 4.000000, 4.000000
113.000000, 0.000000, 4067.692139, 5901.025391, 4224.102539, 6912.820313, 4142.563965, 4180.000000, 4262.051270, 4210.256348, 4257.948730, 4116.410156, 4585.127930, 4245.127930, 3854.871582, 4188.717773, 3331.000000, 8127.000000, 8128.000000, 0.000000, 0.000000, 0.000000, 8740.000000, 428.205109, 4.000000, 4.000000, 4.000000, 4.000000, 4.000000, 4.000000, 4.000000, 4.000000, 4.000000, 4.000000, 4.000000, 4.000000, 4.000000, 4.000000, 4.000000, 4.000000
114.000000, 0.000000, 4061.538330, 5805.641113, 4213.846191, 6894.871582, 4127.179199, 4164.102539, 4258.461426, 4204.615234, 4240.000000, 4113.846191, 4567.179199, 4221.538574, 3831.281982, 4171.794922, 3075.000000, 8127.000000, 8128.000000, 0.000000, 0.000000, 0.000000, 8740.000000, 436.410248, 4.000000, 4.000000, 4.000000, 4.000000, 4.000000, 4.000000, 4.000000, 4.000000, 4.000000, 4.000000, 4.000000, 4.000000, 4.000000, 4.000000, 4.000000, 4.000000
115.000000, 0.000000, 4075.897217, 5685.127930, 4223.589844, 6885.640625, 4141.538574, 4164.102539, 4260.000000, 4205.641113, 4238.974121, 4131.794922, 4557.435547, 4228.717773, 3806.666504, 4184.615234, 3523.000000, 8124.000000, 8140.000000, 0.000000, 0.000000, 0.000000, 8740.000000, 444.615387, 4.000000, 4.000000, 4.000000, 4.000000, 4.000000, 4.000000, 4.000000, 4.000000, 4.000000, 4.000000, 4.000000, 4.000000, 4.000000, 4.000000, 4.000000, 4.000000
116.000000, 0.000000, 4076.410156, 5567.179199, 4227.179199, 6869.230469, 4145.641113, 4169.743652, 4261.538574, 4208.717773, 4245.641113, 4147.179199, 4578.974121, 4242.563965, 3827.179443, 4188.205078, 2924.000000, 8124.000000, 8140.000000, 0.000000, 0.000000, 0.000000, 8740.000000, 452.307678, 4.000000, 4.000000, 4.000000, 4.000000, 4.000000, 4.000000, 4.000000, 4.000000, 4.000000, 4.000000, 4.000000, 4.000000, 4.000000, 4.000000, 4.000000, 4.000000
117.000000, 0.000000, 4066.153809, 5440.512695, 4221.025391, 6832.820313, 4136.410156, 4165.641113, 4261.538574, 4206.666504, 4237.948730, 4140.512695, 4589.743652, 4233.333008, 3850.256348, 4172.307617, 3331.000000, 8111.000000, 8149.000000, 0.000000, 0.000000, 0.000000, 8740.000000, 460.512817, 4.000000, 4.000000, 4.000000, 4.000000, 4.000000, 4.000000, 4.000000, 4.000000, 4.000000, 4.000000, 4.000000, 4.000000, 4.000000, 4.000000, 4.000000, 4.000000
118.000000, 0.000000, 4091.794678, 5321.538574, 4217.436035, 6792.820313, 4152.307617, 4168.717773, 4262.563965, 4206.153809, 4231.794922, 4144.615234, 4582.563965, 4223.076660, 3851.794678, 4174.358887, 3075.000000, 8111.000000, 8149.000000, 0.000000, 0.000000, 0.000000, 8740.000000, 468.205109, 4.000000, 4.000000, 4.000000, 4.000000, 4.000000, 4.000000, 4.000000, 4.000000, 4.000000, 4.000000, 4.000000, 4.000000, 4.000000, 4.000000, 4.000000, 4.000000
119.000000, 0.000000, 4149.743652, 5213.846191, 4220.000000, 6737.435547, 4156.410156, 4172.307617, 4267.692383, 4205.641113, 4234.358887, 4165.127930, 4577.948730, 4226.153809, 3855.384521, 4180.000000, 3523.000000, 8112.000000, 8159.000000, 0.000000, 0.000000, 0.000000, 8740.000000, 476.410248, 4.000000, 4.000000, 4.000000, 4.000000, 4.000000, 4.000000, 4.000000, 4.000000, 4.000000, 4.000000, 4.000000, 4.000000, 4.000000, 4.000000, 4.000000, 4.000000
120.000000, 0.000000, 4205.127930, 5102.051270, 4225.127930, 6672.820313, 4151.281738, 4170.769043, 4273.846191, 4205.641113, 4240.000000, 4172.307617, 4576.922852, 4232.820313, 3867.692139, 4175.897461, 2924.000000, 8112.000000, 8159.000000, 0.000000, 0.000000, 0.000000, 8740.000000, 484.102539, 4.000000, 4.000000, 4.000000, 4.000000, 4.000000, 4.000000, 4.000000, 4.000000, 4.000000, 4.000000, 4.000000, 4.000000, 4.000000, 4.000000, 4.000000, 4.000000
121.000000, 0.000000, 4250.769043, 4998.461426, 4222.051270, 6616.922852, 4160.000000, 4167.692383, 4271.281738, 4208.205078, 4241.538574, 4168.717773, 4567.692383, 4229.230469, 3878.461426, 4175.384277, 3331.000000, 8106.000000, 8172.000000, 0.000000, 0.000000, 0.000000, 8740.000000, 492.307678, 4.000000, 4.000000, 4.000000, 4.000000, 4.000000, 4.000000, 4.000000, 4.000000, 4.000000, 4.000000, 4.000000, 4.000000, 4.000000, 4.000000, 4.000000, 4.000000
122.000000, 0.000000, 4312.307617, 4911.794922, 4216.410156, 6560.512695, 4140.512695, 4158.974121, 4266.666504, 4207.692383, 4237.436035, 4169.230469, 4555.897461, 4228.205078, 3893.845947, 4174.358887, 3075.000000, 8106.000000, 8172.000000, 0.000000, 0.000000, 0.000000, 8740.000000, 500.000000, 4.000000, 4.000000, 4.000000, 4.000000, 4.000000, 4.000000, 4.000000, 4.000000, 4.000000, 4.000000, 4.000000, 4.000000, 4.000000, 4.000000, 4.000000, 4.000000
123.000000, 0.000000, 4401.538574, 4843.589844, 4219.487305, 6513.333008, 4145.641113, 4154.871582, 4265.641113, 4210.256348, 4244.615234, 4171.794922, 4557.435547, 4236.410156, 3928.717773, 4174.358887, 3523.000000, 8101.000000, 8171.000000, 0.000000, 0.000000, 0.000000, 8740.000000, 508.205109, 4.000000, 4.000000, 4.000000, 4.000000, 4.000000, 4.000000, 4.000000, 4.000000, 4.000000, 4.000000, 4.000000, 4.000000, 4.000000, 4.000000, 4.000000, 4.000000
124.000000, 0.000000, 4490.769043, 4781.538574, 4223.076660, 6457.435547, 4180.000000, 4159.487305, 4270.769043, 4214.358887, 4253.333008, 4175.897461, 4564.102539, 4237.436035, 3952.820313, 4183.589844, 2924.000000, 8101.000000, 8171.000000, 0.000000, 0.000000, 0.000000, 8740.000000, 515.897400, 4.000000, 4.000000, 4.000000, 4.000000, 4.000000, 4.000000, 4.000000, 4.000000, 4.000000, 4.000000, 4.000000, 4.000000, 4.000000, 4.000000, 4.000000, 4.000000
125.000000, 0.000000, 4555.384277, 4716.922852, 4216.410156, 6389.230469, 4164.615234, 4161.025391, 4273.846191, 4211.281738, 4247.692383, 4176.410156, 4557.948730, 4228.205078, 3957.435791, 4187.179199, 3331.000000, 8100.000000, 8169.000000, 0.000000, 0.000000, 0.000000, 8740.000000, 524.102539, 4.000000, 4.000000, 4.000000, 4.000000, 4.000000, 4.000000, 4.000000, 4.000000, 4.000000, 4.000000, 4.000000, 4.000000, 4.000000, 4.000000, 4.000000, 4.000000
126.000000, 0.000000, 4607.692383, 4659.487305, 4210.769043, 6351.794922, 4148.205078, 4160.512695, 4273.333008, 4207.179199, 4239.487305, 4170.769043, 4534.358887, 4223.076660, 3958.461426, 4173.333008, 3075.000000, 8100.000000, 8169.000000, 0.000000, 0.000000, 0.000000, 8740.000000, 531.794861, 4.000000, 4.000000, 4.000000, 4.000000, 4.000000, 4.000000, 4.000000, 4.000000, 4.000000, 4.000000, 4.000000, 4.000000, 4.000000, 4.000000, 4.000000, 4.000000
127.000000, 0.000000, 4666.666504, 4612.307617, 4212.820313, 6321.538086, 4185.641113, 4163.076660, 4276.922852, 4210.769043, 4247.692383, 4178.461426, 4523.589844, 4232.307617, 3968.205078, 4169.743652, 54.000000, 8095.000000, 8169.000000, 0.000000, 0.000000, 0.000000, 8740.000000, 540.000000, 4.000000, 4.000000, 4.000000, 4.000000, 4.000000, 4.000000, 4.000000, 4.000000, 4.000000, 4.000000, 4.000000, 4.000000, 4.000000, 4.000000, 4.000000, 4.000000
0.000000, 0.000000, 4722.563965, 4563.589844, 4207.179199, 6263.589355, 4211.281738, 4161.538574, 4276.410156, 4213.333008, 4260.000000, 4196.922852, 4529.230469, 4236.410156, 4004.615234, 4187.179199, 3343.000000, 8095.000000, 8169.000000, 0.000000, 0.000000, 0.000000, 8740.000000, 548.205139, 4.000000, 4.000000, 4.000000, 4.000000, 4.000000, 4.000000, 4.000000, 4.000000, 4.000000, 4.000000, 4.000000, 4.000000, 4.000000, 4.000000, 4.000000, 4.000000
1.000000, 0.000000, 4763.589844, 4511.794922, 4201.025391, 6205.641113, 4193.846191, 4152.820313, 4273.846191, 4206.666504, 4256.410156, 4201.538574, 4524.102539, 4233.333008, 4047.692139, 4203.076660, 3304.000000, 8091.000000, 8167.000000, 0.000000, 0.000000, 0.000000, 8740.000000, 555.897400, 4.000000, 4.000000, 4.000000, 4.000000, 4.000000, 4.000000, 4.000000, 4.000000, 4.000000, 4.000000, 4.000000, 4.000000, 4.000000, 4.000000, 4.000000, 4.000000
2.000000, 0.000000, 4797.948730, 4462.563965, 4203.076660, 6150.769043, 4176.410156, 4148.717773, 4275.384277, 4205.641113, 4256.410156, 4196.922852, 4506.666504, 4239.487305, 4058.461426, 4209.230469, 3454.000000, 8091.000000, 8167.000000, 0.000000, 0.000000, 0.000000, 8740.000000, 564.102539, 4.000000, 4.000000, 4.000000, 4.000000, 4.000000, 4.000000, 4.000000, 4.000000, 4.000000, 4.000000, 4.000000, 4.000000, 4.000000, 4.000000, 4.000000, 4.000000
3.000000, 0.000000, 4834.871582, 4421.538574, 4204.102539, 6085.127930, 4169.743652, 4148.205078, 4272.820313, 4205.127930, 4261.025391, 4203.076660, 4489.743652, 4243.076660, 4057.435791, 4204.615234, 3484.000000, 8095.000000, 8168.000000, 0.000000, 0.000000, 0.000000, 8740.000000, 571.794861, 4.000000, 4.000000, 4.000000, 4.000000, 4.000000, 4.000000, 4.000000, 4.000000, 4.000000, 4.000000, 4.000000, 4.000000, 4.000000, 4.000000, 4.000000, 4.000000
4.000000, 0.000000, 4876.922852, 4399.487305, 4206.153809, 6024.102539, 4188.717773, 4145.127930, 4267.179199, 4200.512695, 4257.436035, 4215.384277, 4474.871582, 4233.846191, 4072.820313, 4194.871582, 3547.000000, 8095.000000, 8168.000000, 0.000000, 0.000000, 0.000000, 8740.000000, 580.000000, 4.000000, 4.000000, 4.000000, 4.000000, 4.000000, 4.000000, 4.000000, 4.000000, 4.000000, 4.000000, 4.000000, 4.000000, 4.000000, 4.000000, 4.000000, 4.000000
5.000000, 0.000000, 4922.563965, 4376.410156, 4209.230469, 5970.769043, 4207.179199, 4142.051270, 4264.615234, 4203.076660, 4255.384277, 4223.076660, 4457.435547, 4233.333008, 4084.615234, 4196.410156, 3491.000000, 8096.000000, 8172.000000, 0.000000, 0.000000, 0.000000, 8740.000000, 587.692322, 4.000000, 4.000000, 4.000000, 4.000000, 4.000000, 4.000000, 4.000000, 4.000000, 4.000000, 4.000000, 4.000000, 4.000000, 4.000000, 4.000000, 4.000000, 4.000000
6.000000, 0.000000, 4966.153809, 4334.358887, 4210.256348, 5904.102539, 4180.000000, 4128.717773, 4258.461426, 4202.563965, 4251.281738, 4217.948730, 4440.512695, 4242.563965, 4089.230713, 4199.487305, 2983.000000, 8096.000000, 8172.000000, 0.000000, 0.000000, 0.000000, 8740.000000, 595.897400, 4.000000, 4.000000, 4.000000, 4.000000, 4.000000, 4.000000, 4.000000, 4.000000, 4.000000, 4.000000, 4.000000, 4.000000, 4.000000, 4.000000, 4.000000, 4.000000
7.000000, 0.000000, 5012.820313, 4307.692383, 4206.153809, 5837.435547, 4174.871582, 4127.179199, 4252.820313, 4196.410156, 4246.666504, 4211.281738, 4426.153809, 4240.512695, 4105.641113, 4196.410156, 1760.000000, 8088.000000, 8187.000000, 0.000000, 0.000000, 0.000000, 8740.000000, 603.589722, 4.000000, 4.000000, 4.000000, 4.000000, 4.000000, 4.000000, 4.000000, 4.000000, 4.000000, 4.000000, 4.000000, 4.000000, 4.000000, 4.000000, 4.000000, 4.000000
8.000000, 0.000000, 5055.897461, 4303.589844, 4204.615234, 5790.769043, 4212.307617, 4144.615234, 4262.051270, 4202.051270, 4253.846191, 4224.102539, 4415.384277, 4243.589844, 4122.563965, 4197.948730, 3459.000000, 8088.000000, 8187.000000, 0.000000, 0.000000, 0.000000, 8740.000000, 611.794861, 4.000000, 4.000000, 4.000000, 4.000000, 4.000000, 4.000000, 4.000000, 4.000000, 4.000000, 4.000000, 4.000000, 4.000000, 4.000000, 4.000000, 4.000000, 4.000000
9.000000, 0.000000, 5083.076660, 4290.769043, 4209.743652, 5733.846191, 4212.820313, 4142.563965, 4269.230469, 4210.256348, 4254.871582, 4230.256348, 4404.615234, 4245.641113, 4117.436035, 4194.871582, 1577.000000, 8089.000000, 8190.000000, 0.000000, 0.000000, 0.000000, 8740.000000, 619.487183, 4.000000, 4.000000, 4.000000, 4.000000, 4.000000, 4.000000, 4.000000, 4.000000, 4.000000, 4.000000, 4.000000, 4.000000, 4.000000, 4.000000, 4.000000, 4.000000
10.000000, 0.000000, 5107.179199, 4271.794922, 4210.769043, 5660.000000, 4201.538574, 4131.794922, 4262.563965, 4208.205078, 4248.205078, 4220.512695, 4390.769043, 4234.871582, 4108.717773, 4182.051270, 3063.000000, 8089.000000, 8190.000000, 0.000000, 0.000000, 0.000000, 8740.000000, 627.692322, 4.000000, 4.000000, 4.000000, 4.000000, 4.000000, 4.000000, 4.000000, 4.000000, 4.000000, 4.000000, 4.000000, 4.000000, 4.000000, 4.000000, 4.000000, 4.000000
11.000000, 0.000000, 5131.794922, 4253.333008, 4203.076660, 5604.102539, 4210.256348, 4137.948730, 4265.641113, 4207.692383, 4246.153809, 4216.922852, 4369.743652, 4223.076660, 4115.897461, 4169.230469, 3524.000000, 8091.000000, 8198.000000, 0.000000, 0.000000, 0.000000, 8740.000000, 635.384583, 4.000000, 4.000000, 4.000000, 4.000000, 4.000000, 4.000000, 4.000000, 4.000000, 4.000000, 4.000000, 4.000000, 4.000000, 4.000000, 4.000000, 4.000000, 4.000000
12.000000, 0.000000, 5156.922852, 4238.461426, 4194.871582, 5575.897461, 4212.820313, 4144.615234, 4271.281738, 4210.769043, 4248.205078, 4223.589844, 4350.256348, 4218.974121, 4131.794922, 4173.333008, 2915.000000, 8091.000000, 8198.000000, 0.000000, 0.000000, 0.000000, 8740.000000, 643.589722, 4.000000, 4.000000, 4.000000, 4.000000, 4.000000, 4.000000, 4.000000, 4.000000, 4.000000, 4.000000, 4.000000, 4.000000, 4.000000, 4.000000, 4.000000, 4.000000
13.000000, 0.000000, 5191.794922, 4234.871582, 4200.512695, 5552.307617, 4225.641113, 4132.820313, 4267.179199, 4213.846191, 4254.358887, 4231.281738, 4350.256348, 4222.563965, 4143.076660, 4190.256348, 3338.000000, 8085.000000, 8192.000000, 0.000000, 0.000000, 0.000000, 8740.000000, 651.282043, 4.000000, 4.000000, 4.000000, 4.000000, 4.000000, 4.000000, 4.000000, 4.000000, 4.000000, 4.000000, 4.000000, 4.000000, 4.000000, 4.000000, 4.000000, 4.000000
14.000000, 0.000000, 5223.589844, 4225.127930, 4210.256348, 5516.410156, 4255.897461, 4123.076660, 4264.615234, 4217.436035, 4258.461426, 4245.127930, 4355.384277, 4229.743652, 4154.871582, 4200.512695, 3063.000000, 8085.000000, 8192.000000, 0.000000, 0.000000, 0.000000, 8740.000000, 659.487183, 4.000000, 4.000000, 4.000000, 4.000000, 4.000000, 4.000000, 4.000000, 4.000000, 4.000000, 4.000000, 4.000000, 4.000000, 4.000000, 4.000000, 4.000000, 4.000000
15.000000, 0.000000, 5237.948730, 4196.922852, 4212.307617, 5461.538086, 4244.615234, 4125.641113, 4258.974121, 4213.333008, 4256.922852, 4263.076660, 4341.025391, 4231.794922, 4161.025391, 4196.922852, 3524.000000, 8088.000000, 8190.000000, 0.000000, 0.000000, 0.000000, 8740.000000, 667.692322, 4.000000, 4.000000, 4.000000, 4.000000, 4.000000, 4.000000, 4.000000, 4.000000, 4.000000, 4.000000, 4.000000, 4.000000, 4.000000, 4.000000, 4.000000, 4.000000
16.000000, 0.000000, 5248.205078, 4161.538574, 4218.974121, 5410.769043, 4207.692383, 4125.641113, 4252.307617, 4205.641113, 4252.307617, 4267.179199, 4328.717773, 4231.281738, 4153.846191, 4189.743652, 0.000000, 8088.000000, 8190.000000, 0.000000, 0.000000, 0.000000, 8740.000000, 675.384583, 4.000000, 4.000000, 4.000000, 4.000000, 4.000000, 4.000000, 4.000000, 4.000000, 4.000000, 4.000000, 4.000000, 4.000000, 4.000000, 4.000000, 4.000000, 4.000000
17.000000, 0.000000, 5262.051270, 4149.743652, 4227.692383, 5388.205078, 4226.666504, 4126.666504, 4258.974121, 4205.641113, 4257.948730, 4275.384277, 4335.384277, 4237.436035, 4166.153809, 4196.410156, 0.000000, 8090.000000, 8191.000000, 0.000000, 0.000000, 0.000000, 8740.000000, 683.589722, 4.000000, 4.000000, 4.000000, 4.000000, 4.000000, 4.000000, 4.000000, 4.000000, 4.000000, 4.000000, 4.000000, 4.000000, 4.000000, 4.000000, 4.000000, 4.000000
18.000000, 0.000000, 5268.205078, 4151.794922, 4230.769043, 5359.486816, 4274.871582, 4134.871582, 4264.102539, 4208.205078, 4263.589844, 4287.179199, 4338.461426, 4240.512695, 4200.512695, 4212.307617, 0.000000, 8090.000000, 8191.000000, 0.000000, 0.000000, 0.000000, 8740.000000, 691.282043, 4.000000, 4.000000, 4.000000, 4.000000, 4.000000, 4.000000, 4.000000, 4.000000, 4.000000, 4.000000, 4.000000, 4.000000, 4.000000, 4.000000, 4.000000, 4.000000
19.000000, 0.000000, 5263.589844, 4129.230469, 4233.333008, 5303.076660, 4267.692383, 4133.846191, 4255.384277, 4202.563965, 4258.461426, 4284.615234, 4323.589844, 4240.512695, 4201.025391, 4208.717773, 0.000000, 8090.000000, 8191.000000, 0.000000, 0.000000, 0.000000, 8740.000000, 699.487183, 4.000000, 4.000000, 4.000000, 4.000000, 4.000000, 4.000000, 4.000000, 4.000000, 4.000000, 4.000000, 4.000000, 4.000000, 4.000000, 4.000000, 4.000000, 4.000000
20.000000, 0.000000, 5262.563965, 4097.436035, 4239.487305, 5252.307617, 4229.743652, 4125.127930, 4250.256348, 4198.974121, 4256.922852, 4296.410156, 4310.256348, 4247.179199, 4179.487305, 4203.589844, 0.000000, 8090.000000, 8191.000000, 0.000000, 0.000000, 0.000000, 8740.000000, 707.179443, 4.000000, 4.000000, 4.000000, 4.000000, 4.000000, 4.000000, 4.000000, 4.000000, 4.000000, 4.000000, 4.000000, 4.000000, 4.000000, 4.000000, 4.000000, 4.000000
21.000000, 0.000000, 5263.589844, 4082.051270, 4247.179199, 5220.512695, 4221.538574, 4118.974121, 4254.358887, 4197.436035, 4252.820313, 4321.538574, 4306.666504, 4248.717773, 4185.641113, 4209.230469, 0.000000, 8097.000000, 8187.000000, 0.000000, 0.000000, 0.000000, 8740.000000, 715.384583, 4.000000, 4.000000, 4.000000, 4.000000, 4.000000, 4.000000, 4.000000, 4.000000, 4.000000, 4.000000, 4.000000, 4.000000, 4.000000, 4.000000, 4.000000, 4.000000
22.000000, 0.000000, 5263.076660, 4070.769043, 4255.384277, 5186.153809, 4243.589844, 4118.974121, 4253.846191, 4197.948730, 4245.127930, 4334.358887, 4301.025391, 4243.589844, 4205.641113, 4210.769043, 0.000000, 8097.000000, 8187.000000, 0.000000, 0.000000, 0.000000, 8740.000000, 723.076904, 4.000000, 4.000000, 4.000000, 4.000000, 4.000000, 4.000000, 4.000000, 4.000000, 4.000000, 4.000000, 4.000000, 4.000000, 4.000000, 4.000000, 4.000000, 4.000000
23.000000, 0.000000, 5266.153809, 4054.871582, 4262.563965, 5136.410156, 4260.512695, 4122.051270, 4250.769043, 4201.538574, 4247.179199, 4338.974121, 4292.820313, 4246.153809, 4201.538574, 4210.256348, 0.000000, 8101.000000, 8177.000000, 0.000000, 0.000000, 0.000000, 8740.000000, 731.282043, 4.000000, 4.000000, 4.000000, 4.000000, 4.000000, 4.000000, 4.000000, 4.000000, 4.000000, 4.000000, 4.000000, 4.000000, 4.000000, 4.000000, 4.000000, 4.000000
24.000000, 0.000000, 5269.230469, 4043.589600, 4267.692383, 5097.948730, 4263.589844, 4120.000000, 4250.769043, 4197.948730, 4245.641113, 4343.589844, 4283.076660, 4250.256348, 4193.846191, 4218.974121, 0.000000, 8101.000000, 8177.000000, 0.000000, 0.000000, 0.000000, 8740.000000, 738.974365, 4.000000, 4.000000, 4.000000, 4.000000, 4.000000, 4.000000, 4.000000, 4.000000, 4.000000, 4.000000, 4.000000, 4.000000, 4.000000, 4.000000, 4.000000, 4.000000
25.000000, 0.000000, 5274.871582, 4041.025635, 4274.358887, 5067.179199, 4279.487305, 4117.948730, 4246.666504, 4196.410156, 4239.487305, 4348.205078, 4278.974121, 4248.717773, 4207.692383, 4228.717773, 0.000000, 8105.000000, 8172.000000, 0.000000, 0.000000, 0.000000, 8740.000000, 747.179443, 4.000000, 4.000000, 4.000000, 4.000000, 4.000000, 4.000000, 4.000000, 4.000000, 4.000000, 4.000000, 4.000000, 4.000000, 4.000000, 4.000000, 4.000000, 4.000000
26.000000, 0.000000, 5270.256348, 4019.487061, 4275.384277, 4997.435547, 4302.051270, 4115.897461, 4245.127930, 4201.538574, 4233.846191, 4361.025391, 4272.307617, 4247.692383, 4208.205078, 4217.948730, 0.000000, 8105.000000, 8172.000000, 0.000000, 0.000000, 0.000000, 8740.000000, 754.871765, 4.000000, 4.000000, 4.000000, 4.000000, 4.000000, 4.000000, 4.000000, 4.000000, 4.000000, 4.000000, 4.000000, 4.000000, 4.000000, 4.000000, 4.000000, 4.000000
27.000000, 0.000000, 5257.948730, 4001.538330, 4272.820313, 4935.897461, 4305.127930, 4118.461426, 4246.153809, 4197.436035, 4230.769043, 4378.461426, 4262.563965, 4246.666504, 4187.179199, 4204.615234, 0.000000, 8120.000000, 8170.000000, 0.000000, 0.000000, 0.000000, 8740.000000, 763.076904, 4.000000, 4.000000, 4.000000, 4.000000, 4.000000, 4.000000, 4.000000, 4.000000, 4.000000, 4.000000, 4.000000, 4.000000, 4.000000, 4.000000, 4.000000, 4.000000
28.000000, 0.000000, 5267.692383, 4017.948730, 4276.410156, 4924.102539, 4318.974121, 4121.025391, 4243.589844, 4190.256348, 4229.743652, 4382.051270, 4254.871582, 4239.487305, 4191.794922, 4212.820313, 0.000000, 8120.000000, 8170.000000, 0.000000, 0.000000, 0.000000, 8740.000000, 771.282043, 4.000000, 4.000000, 4.000000, 4.000000, 4.000000, 4.000000, 4.000000, 4.000000, 4.000000, 4.000000, 4.000000, 4.000000, 4.000000, 4.000000, 4.000000, 4.000000
29.000000, 0.000000, 5277.435547, 4020.512695, 4286.153809, 4893.846191, 4337.436035, 4118.974121, 4242.563965, 4193.846191, 4223.076660, 4381.538574, 4242.051270, 4232.307617, 4200.000000, 4211.794922, 0.000000, 8121.000000, 8162.000000, 0.000000, 0.000000, 0.000000, 8740.000000, 778.974365, 4.000000, 4.000000, 4.000000, 4.000000, 4.000000, 4.000000, 4.000000, 4.000000, 4.000000, 4.000000, 4.000000, 4.000000, 4.000000, 4.000000, 4.000000, 4.000000
30.000000, 0.000000, 5271.281738, 3995.384521, 4291.281738, 4842.051270, 4326.153809, 4124.615234, 4246.666504, 4202.051270, 4228.717773, 4396.922852, 4242.563965, 4239.487305, 4195.384277, 4201.025391, 0.000000, 8121.000000, 8162.000000, 0.000000, 0.000000, 0.000000, 8740.000000, 787.179443, 4.000000, 4.000000, 4.000000, 4.000000, 4.000000, 4.000000, 4.000000, 4.000000, 4.000000, 4.000000, 4.000000, 4.000000, 4.000000, 4.000000, 4.000000, 4.000000
31.000000, 0.000000, 5271.794922, 3980.000000, 4294.871582, 4811.281738, 4309.743652, 4129.743652, 4247.692383, 4202.051270, 4242.051270, 4416.410156, 4250.769043, 4247.692383, 4199.487305, 4204.102539, 0.000000, 8136.000000, 8164.000000, 0.000000, 0.000000, 0.000000, 8740.000000, 794.871765, 4.000000, 4.000000, 4.000000, 4.000000, 4.000000, 4.000000, 4.000000, 4.000000, 4.000000, 4.000000, 4.000000, 4.000000, 4.000000, 4.000000, 4.000000, 4.000000
32.000000, 0.000000, 5283.589844, 3978.974365, 4306.666504, 4783.076660, 4328.717773, 4126.666504, 4243.076660, 4196.922852, 4242.563965, 4425.641113, 4246.153809, 4253.333008, 4205.641113, 4216.922852, 0.000000, 8136.000000, 8164.000000, 0.000000, 0.000000, 0.000000, 8740.000000, 803.076904, 4.000000, 4.000000, 4.000000, 4.000000, 4.000000, 4.000000, 4.000000, 4.000000, 4.000000, 4.000000, 4.000000, 4.000000, 4.000000, 4.000000, 4.000000, 4.000000
33.000000, 0.000000, 5286.666504, 3972.307617, 4318.461426, 4748.717773, 4350.256348, 4124.615234, 4241.538574, 4197.948730, 4237.948730, 4426.666504, 4246.153809, 4264.102539, 4208.205078, 4229.230469, 0.000000, 8138.000000, 8173.000000, 0.000000, 0.000000, 0.000000, 8740.000000, 810.769226, 4.000000, 4.000000, 4.000000, 4.000000, 4.000000, 4.000000, 4.000000, 4.000000, 4.000000, 4.000000, 4.000000, 4.000000, 4.000000, 4.000000, 4.000000, 4.000000
34.000000, 0.000000, 5278.461426, 3956.410156, 4320.512695, 4718.974121, 4321.538574, 4121.538574, 4240.000000, 4201.025391, 4234.871582, 4427.179199, 4247.692383, 4262.051270, 4215.384277, 4226.153809, 0.000000, 8138.000000, 8173.000000, 0.000000, 0.000000, 0.000000, 8740.000000, 818.974365, 4.000000, 4.000000, 4.000000, 4.000000, 4.000000, 4.000000, 4.000000, 4.000000, 4.000000, 4.000000, 4.000000, 4.000000, 4.000000, 4.000000, 4.000000, 4.000000
35.000000, 0.000000, 5265.127930, 3935.384521, 4308.205078, 4678.974121, 4294.358887, 4112.307617, 4230.256348, 4200.512695, 4229.743652, 4428.717773, 4231.281738, 4242.563965, 4205.641113, 4204.102539, 0.000000, 8143.000000, 8171.000000, 0.000000, 0.000000, 0.000000, 8740.000000, 826.666626, 4.000000, 4.000000, 4.000000, 4.000000, 4.000000, 4.000000, 4.000000, 4.000000, 4.000000, 4.000000, 4.000000, 4.000000, 4.000000, 4.000000, 4.000000, 4.000000
36.000000, 0.000000, 5257.435547, 3923.076904, 4302.051270, 4646.666504, 4323.076660, 4111.794922, 4228.205078, 4199.487305, 4228.205078, 4434.358887, 4217.948730, 4238.974121, 4180.512695, 4196.922852, 0.000000, 8143.000000, 8171.000000, 0.000000, 0.000000, 0.000000, 8740.000000, 834.871765, 4.000000, 4.000000, 4.000000, 4.000000, 4.000000, 4.000000, 4.000000, 4.000000, 4.000000, 4.000000, 4.000000, 4.000000, 4.000000, 4.000000, 4.000000, 4.000000
37.000000, 0.000000, 5259.486816, 3923.589600, 4310.256348, 4630.256348, 4341.025391, 4122.051270, 4236.922852, 4202.563965, 4236.410156, 4439.487305, 4220.512695, 4243.589844, 4181.025391, 4211.281738, 0.000000, 8139.000000, 8173.000000, 0.000000, 0.000000, 0.000000, 8740.000000, 842.564087, 4.000000, 4.000000, 4.000000, 4.000000, 4.000000, 4.000000, 4.000000, 4.000000, 4.000000, 4.000000, 4.000000, 4.000000, 4.000000, 4.000000, 4.000000, 4.000000
