title:neutral-2, recorded:15.05.18 09.11.29, timestamp started:2018-05-12T20:28:52.032863+02:00            , sampling:128, subject:Noé, labels:COUNTER INTERPOLATED AF3 F7 F3 FC5 T7 P7 O1 O2 P8 T8 FC6 F4 F8 AF4 RAW_CQ GYROX GYROY MARKER MARKER_HARDWARE SYNC TIME_STAMP_s TIME_STAMP_ms CQ_AF3 CQ_F7 CQ_F3 CQ_FC5 CQ_T7 CQ_P7 CQ_O1 CQ_O2 CQ_P8 CQ_T8 CQ_FC6 CQ_F4 CQ_F8 CQ_AF4 CQ_CMS CQ_DRL, chan:40, samples:7456, units:emotiv
77.000000, 0.000000, 4196.410156, 4060.000000, 4216.922852, 4171.281738, 4173.333008, 4200.512695, 4018.974365, 4204.102539, 4243.589844, 4241.025391, 4223.076660, 4203.589844, 4201.025391, 4201.538574, 3503.000000, 8176.000000, 8186.000000, 0.000000, 0.000000, 0.000000, 21949.000000, 836.410217, 4.000000, 4.000000, 4.000000, 4.000000, 4.000000, 4.000000, 4.000000, 4.000000, 4.000000, 4.000000, 4.000000, 4.000000, 4.000000, 4.000000, 4.000000, 4.000000
78.000000, 0.000000, 4197.948730, 4073.333252, 4214.871582, 4174.871582, 4179.487305, 4200.512695, 4020.512695, 4201.538574, 4238.461426, 4233.846191, 4216.922852, 4198.974121, 4202.563965, 4202.563965, 2791.000000, 8176.000000, 8186.000000, 0.000000, 0.000000, 0.000000, 21949.000000, 844.615356, 4.000000, 4.000000, 4.000000, 4.000000, 4.000000, 4.000000, 4.000000, 4.000000, 4.000000, 4.000000, 4.000000, 4.000000, 4.000000, 4.000000, 4.000000, 4.000000
79.000000, 0.000000, 4200.000000, 4084.102539, 4210.256348, 4183.589844, 4182.563965, 4201.538574, 4011.794678, 4198.974121, 4230.256348, 4227.692383, 4215.384277, 4191.281738, 4206.153809, 4202.563965, 3119.000000, 8184.000000, 8179.000000, 0.000000, 0.000000, 0.000000, 21949.000000, 852.307678, 4.000000, 4.000000, 4.000000, 4.000000, 4.000000, 4.000000, 4.000000, 4.000000, 4.000000, 4.000000, 4.000000, 4.000000, 4.000000, 4.000000, 4.000000, 4.000000
80.000000, 0.000000, 4198.974121, 4088.205078, 4204.615234, 4184.615234, 4184.615234, 4203.076660, 4022.051270, 4201.538574, 4231.794922, 4229.230469, 4216.922852, 4188.717773, 4205.127930, 4203.076660, 3511.000000, 8184.000000, 8179.000000, 0.000000, 0.000000, 0.000000, 21949.000000, 860.512817, 4.000000, 4.000000, 4.000000, 4.000000, 4.000000, 4.000000, 4.000000, 4.000000, 4.000000, 4.000000, 4.000000, 4.000000, 4.000000, 4.000000, 4.000000, 4.000000
81.000000, 0.000000, 4197.948730, 4084.615234, 4203.076660, 4174.871582, 4185.641113, 4202.563965, 4025.640869, 4204.102539, 4234.871582, 4228.717773, 4216.410156, 4190.256348, 4201.538574, 4200.000000, 3503.000000, 8186.000000, 8178.000000, 0.000000, 0.000000, 0.000000, 21949.000000, 868.205078, 4.000000, 4.000000, 4.000000, 4.000000, 4.000000, 4.000000, 4.000000, 4.000000, 4.000000, 4.000000, 4.000000, 4.000000, 4.000000, 4.000000, 4.000000, 4.000000
82.000000, 0.000000, 4201.538574, 4082.051270, 4206.666504, 4169.743652, 4183.589844, 4201.538574, 4022.563965, 4203.076660, 4238.461426, 4230.769043, 4217.436035, 4194.358887, 4207.179199, 4198.974121, 2791.000000, 8186.000000, 8178.000000, 0.000000, 0.000000, 0.000000, 21949.000000, 876.410217, 4.000000, 4.000000, 4.000000, 4.000000, 4.000000, 4.000000, 4.000000, 4.000000, 4.000000, 4.000000, 4.000000, 4.000000, 4.000000, 4.000000, 4.000000, 4.000000
83.000000, 0.000000, 4201.025391, 4085.640869, 4210.769043, 4174.358887, 4182.563965, 4203.076660, 4031.794678, 4202.051270, 4239.487305, 4235.897461, 4217.436035, 4198.974121, 4212.820313, 4201.538574, 3119.000000, 8199.000000, 8178.000000, 0.000000, 0.000000, 0.000000, 21949.000000, 884.102539, 4.000000, 4.000000, 4.000000, 4.000000, 4.000000, 4.000000, 4.000000, 4.000000, 4.000000, 4.000000, 4.000000, 4.000000, 4.000000, 4.000000, 4.000000, 4.000000
84.000000, 0.000000, 4196.922852, 4087.692139, 4211.281738, 4175.384277, 4183.589844, 4204.102539, 4046.153809, 4202.051270, 4233.333008, 4234.358887, 4217.436035, 4195.897461, 4211.281738, 4202.563965, 3511.000000, 8199.000000, 8178.000000, 0.000000, 0.000000, 0.000000, 21949.000000, 891.794861, 4.000000, 4.000000, 4.000000, 4.000000, 4.000000, 4.000000, 4.000000, 4.000000, 4.000000, 4.000000, 4.000000, 4.000000, 4.000000, 4.000000, 4.000000, 4.000000
85.000000, 0.000000, 4201.025391, 4089.743408, 4209.230469, 4171.794922, 4185.641113, 4202.051270, 4048.205078, 4202.563965, 4231.794922, 4231.281738, 4221.538574, 4193.846191, 4212.307617, 4202.051270, 3503.000000, 8202.000000, 8176.000000, 0.000000, 0.000000, 0.000000, 21949.000000, 900.000000, 4.000000, 4.000000, 4.000000, 4.000000, 4.000000, 4.000000, 4.000000, 4.000000, 4.000000, 4.000000, 4.000000, 4.000000, 4.000000, 4.000000, 4.000000, 4.000000
86.000000, 0.000000, 4202.051270, 4091.281982, 4205.641113, 4172.307617, 4185.641113, 4201.025391, 4036.923096, 4202.051270, 4236.410156, 4230.769043, 4223.589844, 4198.974121, 4215.384277, 4202.051270, 2791.000000, 8202.000000, 8176.000000, 0.000000, 0.000000, 0.000000, 21949.000000, 907.692261, 4.000000, 4.000000, 4.000000, 4.000000, 4.000000, 4.000000, 4.000000, 4.000000, 4.000000, 4.000000, 4.000000, 4.000000, 4.000000, 4.000000, 4.000000, 4.000000
87.000000, 0.000000, 4195.384277, 4082.051270, 4201.025391, 4171.794922, 4183.589844, 4200.000000, 4030.256348, 4201.025391, 4229.230469, 4224.102539, 4217.436035, 4194.358887, 4205.641113, 4196.922852, 3119.000000, 8204.000000, 8177.000000, 0.000000, 0.000000, 0.000000, 21949.000000, 915.897400, 4.000000, 4.000000, 4.000000, 4.000000, 4.000000, 4.000000, 4.000000, 4.000000, 4.000000, 4.000000, 4.000000, 4.000000, 4.000000, 4.000000, 4.000000, 4.000000
88.000000, 0.000000, 4195.384277, 4073.333252, 4197.436035, 4166.153809, 4181.025391, 4195.384277, 4026.666504, 4200.512695, 4216.410156, 4210.769043, 4206.153809, 4184.102539, 4189.230469, 4188.717773, 3511.000000, 8204.000000, 8177.000000, 0.000000, 0.000000, 0.000000, 21949.000000, 923.589722, 4.000000, 4.000000, 4.000000, 4.000000, 4.000000, 4.000000, 4.000000, 4.000000, 4.000000, 4.000000, 4.000000, 4.000000, 4.000000, 4.000000, 4.000000, 4.000000
89.000000, 0.000000, 4201.538574, 4076.410156, 4191.281738, 4162.563965, 4181.538574, 4192.820313, 4024.102539, 4201.538574, 4214.358887, 4204.102539, 4200.000000, 4185.127930, 4184.102539, 4186.153809, 3503.000000, 8206.000000, 8180.000000, 0.000000, 0.000000, 0.000000, 21949.000000, 931.794861, 4.000000, 4.000000, 4.000000, 4.000000, 4.000000, 4.000000, 4.000000, 4.000000, 4.000000, 4.000000, 4.000000, 4.000000, 4.000000, 4.000000, 4.000000, 4.000000
90.000000, 0.000000, 4203.076660, 4076.410156, 4186.666504, 4164.615234, 4183.076660, 4196.922852, 4028.205078, 4203.076660, 4216.922852, 4207.179199, 4202.051270, 4184.615234, 4187.692383, 4187.179199, 2791.000000, 8206.000000, 8180.000000, 0.000000, 0.000000, 0.000000, 21949.000000, 940.000000, 4.000000, 4.000000, 4.000000, 4.000000, 4.000000, 4.000000, 4.000000, 4.000000, 4.000000, 4.000000, 4.000000, 4.000000, 4.000000, 4.000000, 4.000000, 4.000000
91.000000, 0.000000, 4201.538574, 4078.974365, 4188.205078, 4169.230469, 4183.589844, 4202.051270, 4036.410156, 4203.076660, 4218.461426, 4212.820313, 4204.615234, 4183.076660, 4188.717773, 4188.205078, 3119.000000, 8208.000000, 8178.000000, 0.000000, 0.000000, 0.000000, 21949.000000, 947.692261, 4.000000, 4.000000, 4.000000, 4.000000, 4.000000, 4.000000, 4.000000, 4.000000, 4.000000, 4.000000, 4.000000, 4.000000, 4.000000, 4.000000, 4.000000, 4.000000
92.000000, 0.000000, 4202.563965, 4088.717773, 4188.717773, 4171.794922, 4181.025391, 4202.051270, 4044.102539, 4202.051270, 4218.461426, 4214.358887, 4202.563965, 4191.794922, 4186.153809, 4190.769043, 3511.000000, 8208.000000, 8178.000000, 0.000000, 0.000000, 0.000000, 21949.000000, 955.384583, 4.000000, 4.000000, 4.000000, 4.000000, 4.000000, 4.000000, 4.000000, 4.000000, 4.000000, 4.000000, 4.000000, 4.000000, 4.000000, 4.000000, 4.000000, 4.000000
93.000000, 0.000000, 4204.102539, 4091.794678, 4187.692383, 4172.307617, 4176.922852, 4201.025391, 4044.102539, 4203.076660, 4220.000000, 4212.820313, 4201.538574, 4193.333008, 4186.153809, 4191.794922, 3503.000000, 8214.000000, 8174.000000, 0.000000, 0.000000, 0.000000, 21949.000000, 963.589722, 4.000000, 4.000000, 4.000000, 4.000000, 4.000000, 4.000000, 4.000000, 4.000000, 4.000000, 4.000000, 4.000000, 4.000000, 4.000000, 4.000000, 4.000000, 4.000000
94.000000, 0.000000, 4201.538574, 4088.717773, 4188.717773, 4170.769043, 4171.281738, 4198.461426, 4037.948730, 4204.102539, 4225.127930, 4214.358887, 4204.615234, 4186.666504, 4187.692383, 4189.743652, 2791.000000, 8214.000000, 8174.000000, 0.000000, 0.000000, 0.000000, 21949.000000, 971.794861, 4.000000, 4.000000, 4.000000, 4.000000, 4.000000, 4.000000, 4.000000, 4.000000, 4.000000, 4.000000, 4.000000, 4.000000, 4.000000, 4.000000, 4.000000, 4.000000
95.000000, 0.000000, 4203.589844, 4090.256348, 4188.205078, 4167.692383, 4170.256348, 4193.846191, 4037.948730, 4201.025391, 4226.153809, 4215.897461, 4204.615234, 4187.179199, 4186.666504, 4190.769043, 3119.000000, 8216.000000, 8169.000000, 0.000000, 0.000000, 0.000000, 21949.000000, 979.487183, 4.000000, 4.000000, 4.000000, 4.000000, 4.000000, 4.000000, 4.000000, 4.000000, 4.000000, 4.000000, 4.000000, 4.000000, 4.000000, 4.000000, 4.000000, 4.000000
96.000000, 0.000000, 4206.666504, 4098.974121, 4187.179199, 4173.333008, 4177.948730, 4194.871582, 4046.153809, 4201.025391, 4223.076660, 4215.384277, 4208.205078, 4190.769043, 4188.717773, 4197.948730, 3511.000000, 8216.000000, 8169.000000, 0.000000, 0.000000, 0.000000, 21949.000000, 987.179443, 4.000000, 4.000000, 4.000000, 4.000000, 4.000000, 4.000000, 4.000000, 4.000000, 4.000000, 4.000000, 4.000000, 4.000000, 4.000000, 4.000000, 4.000000, 4.000000
97.000000, 0.000000, 4205.641113, 4106.153809, 4188.717773, 4182.051270, 4187.179199, 4201.538574, 4051.794678, 4204.615234, 4229.230469, 4216.922852, 4216.410156, 4190.769043, 4189.743652, 4202.563965, 3503.000000, 8220.000000, 8171.000000, 0.000000, 0.000000, 0.000000, 21949.000000, 995.384583, 4.000000, 4.000000, 4.000000, 4.000000, 4.000000, 4.000000, 4.000000, 4.000000, 4.000000, 4.000000, 4.000000, 4.000000, 4.000000, 4.000000, 4.000000, 4.000000
98.000000, 0.000000, 4205.127930, 4105.641113, 4186.153809, 4176.922852, 4180.512695, 4203.589844, 4045.128174, 4204.102539, 4232.307617, 4217.948730, 4213.333008, 4187.179199, 4187.179199, 4198.974121, 2791.000000, 8220.000000, 8171.000000, 0.000000, 0.000000, 0.000000, 21950.000000, 3.589744, 4.000000, 4.000000, 4.000000, 4.000000, 4.000000, 4.000000, 4.000000, 4.000000, 4.000000, 4.000000, 4.000000, 4.000000, 4.000000, 4.000000, 4.000000, 4.000000
99.000000, 0.000000, 4209.230469, 4102.563965, 4180.512695, 4171.281738, 4172.307617, 4197.948730, 4041.025635, 4200.512695, 4219.487305, 4215.897461, 4208.717773, 4181.538574, 4192.307617, 4196.922852, 3119.000000, 8222.000000, 8172.000000, 0.000000, 0.000000, 0.000000, 21950.000000, 11.282051, 4.000000, 4.000000, 4.000000, 4.000000, 4.000000, 4.000000, 4.000000, 4.000000, 4.000000, 4.000000, 4.000000, 4.000000, 4.000000, 4.000000, 4.000000, 4.000000
100.000000, 0.000000, 4215.384277, 4113.333008, 4182.563965, 4181.538574, 4175.384277, 4196.922852, 4046.153809, 4200.512695, 4216.410156, 4214.871582, 4213.846191, 4183.076660, 4200.000000, 4207.179199, 3511.000000, 8222.000000, 8172.000000, 0.000000, 0.000000, 0.000000, 21950.000000, 18.974358, 4.000000, 4.000000, 4.000000, 4.000000, 4.000000, 4.000000, 4.000000, 4.000000, 4.000000, 4.000000, 4.000000, 4.000000, 4.000000, 4.000000, 4.000000, 4.000000
101.000000, 0.000000, 4214.358887, 4121.538574, 4186.666504, 4186.666504, 4177.436035, 4202.563965, 4048.717773, 4201.538574, 4223.589844, 4215.384277, 4217.436035, 4192.820313, 4200.512695, 4216.410156, 3503.000000, 8227.000000, 8167.000000, 0.000000, 0.000000, 0.000000, 21950.000000, 27.179487, 4.000000, 4.000000, 4.000000, 4.000000, 4.000000, 4.000000, 4.000000, 4.000000, 4.000000, 4.000000, 4.000000, 4.000000, 4.000000, 4.000000, 4.000000, 4.000000
102.000000, 0.000000, 4216.922852, 4124.615234, 4188.205078, 4181.538574, 4175.897461, 4199.487305, 4046.153809, 4201.025391, 4218.974121, 4215.897461, 4221.025391, 4198.974121, 4208.205078, 4224.102539, 2791.000000, 8227.000000, 8167.000000, 0.000000, 0.000000, 0.000000, 21950.000000, 35.384613, 4.000000, 4.000000, 4.000000, 4.000000, 4.000000, 4.000000, 4.000000, 4.000000, 4.000000, 4.000000, 4.000000, 4.000000, 4.000000, 4.000000, 4.000000, 4.000000
103.000000, 0.000000, 4227.179199, 4143.589844, 4194.358887, 4190.769043, 4179.487305, 4189.230469, 4035.384521, 4201.025391, 4214.358887, 4219.487305, 4231.794922, 4201.025391, 4221.025391, 4242.051270, 3119.000000, 8241.000000, 8149.000000, 0.000000, 0.000000, 0.000000, 21950.000000, 43.076923, 4.000000, 4.000000, 4.000000, 4.000000, 4.000000, 4.000000, 4.000000, 4.000000, 4.000000, 4.000000, 4.000000, 4.000000, 4.000000, 4.000000, 4.000000, 4.000000
104.000000, 0.000000, 4227.692383, 4160.000000, 4196.922852, 4200.512695, 4183.076660, 4186.153809, 4020.512695, 4201.025391, 4212.820313, 4214.358887, 4236.922852, 4203.589844, 4224.102539, 4256.922852, 3511.000000, 8241.000000, 8149.000000, 0.000000, 0.000000, 0.000000, 21950.000000, 51.282051, 4.000000, 4.000000, 4.000000, 4.000000, 4.000000, 4.000000, 4.000000, 4.000000, 4.000000, 4.000000, 4.000000, 4.000000, 4.000000, 4.000000, 4.000000, 4.000000
105.000000, 0.000000, 4220.000000, 4154.871582, 4192.307617, 4193.846191, 4184.615234, 4188.205078, 4017.435791, 4201.025391, 4202.051270, 4202.051270, 4229.743652, 4198.974121, 4216.922852, 4249.743652, 3503.000000, 8250.000000, 8136.000000, 0.000000, 0.000000, 0.000000, 21950.000000, 58.974358, 4.000000, 4.000000, 4.000000, 4.000000, 4.000000, 4.000000, 4.000000, 4.000000, 4.000000, 4.000000, 4.000000, 4.000000, 4.000000, 4.000000, 4.000000, 4.000000
106.000000, 0.000000, 4214.871582, 4149.743652, 4186.666504, 4187.692383, 4183.589844, 4192.307617, 4020.512695, 4201.025391, 4195.384277, 4194.358887, 4221.025391, 4188.205078, 4206.666504, 4235.897461, 2791.000000, 8250.000000, 8136.000000, 0.000000, 0.000000, 0.000000, 21950.000000, 67.179489, 4.000000, 4.000000, 4.000000, 4.000000, 4.000000, 4.000000, 4.000000, 4.000000, 4.000000, 4.000000, 4.000000, 4.000000, 4.000000, 4.000000, 4.000000, 4.000000
107.000000, 0.000000, 4212.820313, 4153.846191, 4185.127930, 4187.179199, 4175.384277, 4197.948730, 4020.000000, 4201.025391, 4204.615234, 4197.948730, 4221.538574, 4187.692383, 4208.205078, 4233.846191, 3119.000000, 8253.000000, 8110.000000, 0.000000, 0.000000, 0.000000, 21950.000000, 74.871796, 4.000000, 4.000000, 4.000000, 4.000000, 4.000000, 4.000000, 4.000000, 4.000000, 4.000000, 4.000000, 4.000000, 4.000000, 4.000000, 4.000000, 4.000000, 4.000000
108.000000, 0.000000, 4212.820313, 4152.820313, 4188.205078, 4188.717773, 4170.256348, 4194.871582, 4021.538330, 4201.025391, 4216.410156, 4209.743652, 4232.820313, 4195.897461, 4224.615234, 4236.922852, 3511.000000, 8253.000000, 8110.000000, 0.000000, 0.000000, 0.000000, 21950.000000, 83.076920, 4.000000, 4.000000, 4.000000, 4.000000, 4.000000, 4.000000, 4.000000, 4.000000, 4.000000, 4.000000, 4.000000, 4.000000, 4.000000, 4.000000, 4.000000, 4.000000
109.000000, 0.000000, 4212.307617, 4148.205078, 4189.743652, 4188.205078, 4171.281738, 4184.615234, 4017.435791, 4201.025391, 4217.436035, 4211.794922, 4236.410156, 4201.538574, 4230.256348, 4234.871582, 3503.000000, 8259.000000, 8092.000000, 0.000000, 0.000000, 0.000000, 21950.000000, 90.769226, 4.000000, 4.000000, 4.000000, 4.000000, 4.000000, 4.000000, 4.000000, 4.000000, 4.000000, 4.000000, 4.000000, 4.000000, 4.000000, 4.000000, 4.000000, 4.000000
110.000000, 0.000000, 4207.692383, 4145.641113, 4187.179199, 4188.717773, 4168.205078, 4179.487305, 4011.281982, 4201.025391, 4207.179199, 4201.538574, 4229.743652, 4197.948730, 4219.487305, 4225.641113, 2791.000000, 8259.000000, 8092.000000, 0.000000, 0.000000, 0.000000, 21950.000000, 98.974358, 4.000000, 4.000000, 4.000000, 4.000000, 4.000000, 4.000000, 4.000000, 4.000000, 4.000000, 4.000000, 4.000000, 4.000000, 4.000000, 4.000000, 4.000000, 4.000000
111.000000, 0.000000, 4201.025391, 4143.076660, 4184.102539, 4191.281738, 4165.641113, 4182.051270, 4023.076904, 4201.025391, 4197.436035, 4198.974121, 4228.205078, 4191.794922, 4215.384277, 4215.384277, 3119.000000, 8263.000000, 8070.000000, 0.000000, 0.000000, 0.000000, 21950.000000, 106.666664, 4.000000, 4.000000, 4.000000, 4.000000, 4.000000, 4.000000, 4.000000, 4.000000, 4.000000, 4.000000, 4.000000, 4.000000, 4.000000, 4.000000, 4.000000, 4.000000
112.000000, 0.000000, 4196.922852, 4143.589844, 4186.666504, 4191.794922, 4167.692383, 4185.641113, 4039.487061, 4201.025391, 4197.436035, 4204.615234, 4225.127930, 4188.717773, 4213.846191, 4206.153809, 3511.000000, 8263.000000, 8070.000000, 0.000000, 0.000000, 0.000000, 21950.000000, 114.871796, 4.000000, 4.000000, 4.000000, 4.000000, 4.000000, 4.000000, 4.000000, 4.000000, 4.000000, 4.000000, 4.000000, 4.000000, 4.000000, 4.000000, 4.000000, 4.000000
113.000000, 0.000000, 4194.358887, 4136.922852, 4182.051270, 4185.641113, 4168.717773, 4185.127930, 4040.512695, 4201.025391, 4201.538574, 4201.025391, 4217.948730, 4187.179199, 4203.589844, 4197.436035, 3503.000000, 8268.000000, 8053.000000, 0.000000, 0.000000, 0.000000, 21950.000000, 122.564102, 4.000000, 4.000000, 4.000000, 4.000000, 4.000000, 4.000000, 4.000000, 4.000000, 4.000000, 4.000000, 4.000000, 4.000000, 4.000000, 4.000000, 4.000000, 4.000000
114.000000, 0.000000, 4193.333008, 4125.641113, 4172.820313, 4179.487305, 4170.256348, 4184.102539, 4036.923096, 4201.025391, 4200.512695, 4196.922852, 4212.307617, 4184.615234, 4197.436035, 4191.794922, 2791.000000, 8268.000000, 8053.000000, 0.000000, 0.000000, 0.000000, 21950.000000, 130.769226, 4.000000, 4.000000, 4.000000, 4.000000, 4.000000, 4.000000, 4.000000, 4.000000, 4.000000, 4.000000, 4.000000, 4.000000, 4.000000, 4.000000, 4.000000, 4.000000
115.000000, 0.000000, 4197.436035, 4121.538574, 4176.410156, 4184.102539, 4176.410156, 4192.307617, 4040.000000, 4201.025391, 4197.948730, 4200.512695, 4211.281738, 4185.127930, 4200.000000, 4192.307617, 3119.000000, 8272.000000, 8045.000000, 0.000000, 0.000000, 0.000000, 21950.000000, 138.974350, 4.000000, 4.000000, 4.000000, 4.000000, 4.000000, 4.000000, 4.000000, 4.000000, 4.000000, 4.000000, 4.000000, 4.000000, 4.000000, 4.000000, 4.000000, 4.000000
116.000000, 0.000000, 4200.000000, 4124.102539, 4188.205078, 4189.230469, 4182.051270, 4197.436035, 4042.563965, 4201.025391, 4202.563965, 4202.051270, 4215.384277, 4190.256348, 4198.461426, 4194.358887, 3511.000000, 8272.000000, 8045.000000, 0.000000, 0.000000, 0.000000, 21950.000000, 146.666656, 4.000000, 4.000000, 4.000000, 4.000000, 4.000000, 4.000000, 4.000000, 4.000000, 4.000000, 4.000000, 4.000000, 4.000000, 4.000000, 4.000000, 4.000000, 4.000000
117.000000, 0.000000, 4195.897461, 4125.127930, 4188.205078, 4186.153809, 4185.127930, 4189.230469, 4038.461426, 4201.025391, 4205.641113, 4203.076660, 4214.358887, 4190.769043, 4190.256348, 4192.307617, 3503.000000, 8283.000000, 8031.000000, 0.000000, 0.000000, 0.000000, 21950.000000, 154.871796, 4.000000, 4.000000, 4.000000, 4.000000, 4.000000, 4.000000, 4.000000, 4.000000, 4.000000, 4.000000, 4.000000, 4.000000, 4.000000, 4.000000, 4.000000, 4.000000
118.000000, 0.000000, 4194.358887, 4118.461426, 4180.512695, 4182.563965, 4180.512695, 4177.948730, 4034.871582, 4201.025391, 4202.051270, 4203.589844, 4203.076660, 4186.666504, 4182.051270, 4187.692383, 2791.000000, 8283.000000, 8031.000000, 0.000000, 0.000000, 0.000000, 21950.000000, 162.564102, 4.000000, 4.000000, 4.000000, 4.000000, 4.000000, 4.000000, 4.000000, 4.000000, 4.000000, 4.000000, 4.000000, 4.000000, 4.000000, 4.000000, 4.000000, 4.000000
119.000000, 0.000000, 4195.897461, 4110.256348, 4183.076660, 4183.076660, 4170.256348, 4174.871582, 4037.435791, 4201.025391, 4198.461426, 4201.538574, 4197.948730, 4186.153809, 4180.512695, 4184.615234, 3119.000000, 8285.000000, 8027.000000, 0.000000, 0.000000, 0.000000, 21950.000000, 170.769226, 4.000000, 4.000000, 4.000000, 4.000000, 4.000000, 4.000000, 4.000000, 4.000000, 4.000000, 4.000000, 4.000000, 4.000000, 4.000000, 4.000000, 4.000000, 4.000000
120.000000, 0.000000, 4199.487305, 4109.743652, 4189.230469, 4184.615234, 4172.820313, 4181.025391, 4043.076904, 4201.025391, 4200.512695, 4201.538574, 4201.025391, 4191.281738, 4185.641113, 4185.641113, 3511.000000, 8285.000000, 8027.000000, 0.000000, 0.000000, 0.000000, 21950.000000, 178.461533, 4.000000, 4.000000, 4.000000, 4.000000, 4.000000, 4.000000, 4.000000, 4.000000, 4.000000, 4.000000, 4.000000, 4.000000, 4.000000, 4.000000, 4.000000, 4.000000
121.000000, 0.000000, 4199.487305, 4112.820313, 4187.692383, 4185.127930, 4186.666504, 4186.666504, 4043.076904, 4201.025391, 4202.051270, 4201.025391, 4195.384277, 4190.256348, 4183.589844, 4184.615234, 3503.000000, 8307.000000, 8025.000000, 0.000000, 0.000000, 0.000000, 21950.000000, 186.666656, 4.000000, 4.000000, 4.000000, 4.000000, 4.000000, 4.000000, 4.000000, 4.000000, 4.000000, 4.000000, 4.000000, 4.000000, 4.000000, 4.000000, 4.000000, 4.000000
122.000000, 0.000000, 4194.871582, 4107.179199, 4184.102539, 4184.102539, 4184.102539, 4187.179199, 4045.128174, 4201.025391, 4197.436035, 4189.743652, 4178.461426, 4175.897461, 4171.794922, 4174.871582, 2791.000000, 8307.000000, 8025.000000, 0.000000, 0.000000, 0.000000, 21950.000000, 194.358963, 4.000000, 4.000000, 4.000000, 4.000000, 4.000000, 4.000000, 4.000000, 4.000000, 4.000000, 4.000000, 4.000000, 4.000000, 4.000000, 4.000000, 4.000000, 4.000000
123.000000, 0.000000, 4191.794922, 4098.974121, 4182.563965, 4176.410156, 4173.333008, 4185.641113, 4050.769043, 4201.025391, 4194.871582, 4184.615234, 4167.179199, 4165.127930, 4166.666504, 4169.743652, 3119.000000, 8317.000000, 8016.000000, 0.000000, 0.000000, 0.000000, 21950.000000, 202.564102, 4.000000, 4.000000, 4.000000, 4.000000, 4.000000, 4.000000, 4.000000, 4.000000, 4.000000, 4.000000, 4.000000, 4.000000, 4.000000, 4.000000, 4.000000, 4.000000
124.000000, 0.000000, 4195.384277, 4097.948730, 4177.948730, 4170.769043, 4181.025391, 4186.666504, 4050.256348, 4201.025391, 4200.512695, 4196.410156, 4174.871582, 4169.743652, 4172.307617, 4177.436035, 3511.000000, 8317.000000, 8016.000000, 0.000000, 0.000000, 0.000000, 21950.000000, 210.256409, 4.000000, 4.000000, 4.000000, 4.000000, 4.000000, 4.000000, 4.000000, 4.000000, 4.000000, 4.000000, 4.000000, 4.000000, 4.000000, 4.000000, 4.000000, 4.000000
125.000000, 0.000000, 4202.051270, 4098.461426, 4171.794922, 4172.307617, 4186.153809, 4185.641113, 4047.692139, 4201.025391, 4198.974121, 4197.948730, 4182.051270, 4173.333008, 4174.871582, 4182.563965, 3503.000000, 8324.000000, 8014.000000, 0.000000, 0.000000, 0.000000, 21950.000000, 218.461533, 4.000000, 4.000000, 4.000000, 4.000000, 4.000000, 4.000000, 4.000000, 4.000000, 4.000000, 4.000000, 4.000000, 4.000000, 4.000000, 4.000000, 4.000000, 4.000000
126.000000, 0.000000, 4202.563965, 4101.538574, 4172.820313, 4175.897461, 4175.897461, 4185.641113, 4044.615234, 4201.025391, 4188.717773, 4186.153809, 4174.871582, 4168.205078, 4171.794922, 4183.589844, 2791.000000, 8324.000000, 8014.000000, 0.000000, 0.000000, 0.000000, 21950.000000, 226.666656, 4.000000, 4.000000, 4.000000, 4.000000, 4.000000, 4.000000, 4.000000, 4.000000, 4.000000, 4.000000, 4.000000, 4.000000, 4.000000, 4.000000, 4.000000, 4.000000
127.000000, 0.000000, 4199.487305, 4107.692383, 4174.358887, 4175.897461, 4171.281738, 4184.615234, 4042.051270, 4201.025391, 4178.461426, 4182.051270, 4166.153809, 4160.000000, 4164.615234, 4181.025391, 57.000000, 8335.000000, 8012.000000, 0.000000, 0.000000, 0.000000, 21950.000000, 234.358963, 4.000000, 4.000000, 4.000000, 4.000000, 4.000000, 4.000000, 4.000000, 4.000000, 4.000000, 4.000000, 4.000000, 4.000000, 4.000000, 4.000000, 4.000000, 4.000000
0.000000, 0.000000, 4198.461426, 4105.127930, 4174.358887, 4171.281738, 4173.333008, 4178.974121, 4042.051270, 4201.025391, 4173.846191, 4182.563965, 4166.666504, 4155.384277, 4158.974121, 4173.333008, 3527.000000, 8335.000000, 8012.000000, 0.000000, 0.000000, 0.000000, 21950.000000, 242.564102, 4.000000, 4.000000, 4.000000, 4.000000, 4.000000, 4.000000, 4.000000, 4.000000, 4.000000, 4.000000, 4.000000, 4.000000, 4.000000, 4.000000, 4.000000, 4.000000
1.000000, 0.000000, 4198.974121, 4095.897217, 4179.487305, 4166.666504, 4169.230469, 4178.461426, 4045.128174, 4201.025391, 4180.000000, 4184.102539, 4168.717773, 4154.871582, 4165.127930, 4174.871582, 3538.000000, 8345.000000, 8005.000000, 0.000000, 0.000000, 0.000000, 21950.000000, 250.256409, 4.000000, 4.000000, 4.000000, 4.000000, 4.000000, 4.000000, 4.000000, 4.000000, 4.000000, 4.000000, 4.000000, 4.000000, 4.000000, 4.000000, 4.000000, 4.000000
2.000000, 0.000000, 4201.538574, 4098.974121, 4184.102539, 4167.692383, 4168.205078, 4184.615234, 4048.205078, 4201.025391, 4188.205078, 4186.153809, 4169.743652, 4155.897461, 4171.281738, 4185.127930, 2254.000000, 8345.000000, 8005.000000, 0.000000, 0.000000, 0.000000, 21950.000000, 258.461517, 4.000000, 4.000000, 4.000000, 4.000000, 4.000000, 4.000000, 4.000000, 4.000000, 4.000000, 4.000000, 4.000000, 4.000000, 4.000000, 4.000000, 4.000000, 4.000000
3.000000, 0.000000, 4202.051270, 4107.179199, 4188.205078, 4168.717773, 4172.820313, 4185.127930, 4053.845947, 4201.025391, 4189.230469, 4185.641113, 4171.281738, 4156.410156, 4169.230469, 4188.205078, 3568.000000, 8337.000000, 8007.000000, 0.000000, 0.000000, 0.000000, 21950.000000, 266.153839, 4.000000, 4.000000, 4.000000, 4.000000, 4.000000, 4.000000, 4.000000, 4.000000, 4.000000, 4.000000, 4.000000, 4.000000, 4.000000, 4.000000, 4.000000, 4.000000
4.000000, 0.000000, 4197.948730, 4108.717773, 4196.410156, 4169.230469, 4173.333008, 4183.589844, 4079.487061, 4201.025391, 4187.179199, 4185.641113, 4171.794922, 4158.974121, 4171.794922, 4188.205078, 3479.000000, 8337.000000, 8007.000000, 0.000000, 0.000000, 0.000000, 21950.000000, 274.358978, 4.000000, 4.000000, 4.000000, 4.000000, 4.000000, 4.000000, 4.000000, 4.000000, 4.000000, 4.000000, 4.000000, 4.000000, 4.000000, 4.000000, 4.000000, 4.000000
5.000000, 0.000000, 4196.922852, 4105.641113, 4203.076660, 4170.256348, 4171.281738, 4186.153809, 4114.871582, 4201.025391, 4181.538574, 4183.076660, 4171.281738, 4158.461426, 4177.436035, 4189.230469, 3580.000000, 8334.000000, 8017.000000, 0.000000, 0.000000, 0.000000, 21950.000000, 282.051270, 4.000000, 4.000000, 4.000000, 4.000000, 4.000000, 4.000000, 4.000000, 4.000000, 4.000000, 4.000000, 4.000000, 4.000000, 4.000000, 4.000000, 4.000000, 4.000000
6.000000, 0.000000, 4198.461426, 4107.179199, 4208.205078, 4171.281738, 4174.871582, 4186.666504, 4132.820313, 4201.025391, 4176.410156, 4177.948730, 4172.307617, 4160.512695, 4180.000000, 4190.256348, 2227.000000, 8334.000000, 8017.000000, 0.000000, 0.000000, 0.000000, 21950.000000, 290.256409, 4.000000, 4.000000, 4.000000, 4.000000, 4.000000, 4.000000, 4.000000, 4.000000, 4.000000, 4.000000, 4.000000, 4.000000, 4.000000, 4.000000, 4.000000, 4.000000
7.000000, 0.000000, 4197.948730, 4113.846191, 4217.436035, 4170.256348, 4178.461426, 4188.717773, 4115.897461, 4201.025391, 4184.102539, 4181.025391, 4172.820313, 4168.205078, 4180.512695, 4193.333008, 1131.000000, 8328.000000, 8037.000000, 0.000000, 0.000000, 0.000000, 21950.000000, 297.948700, 4.000000, 4.000000, 4.000000, 4.000000, 4.000000, 4.000000, 4.000000, 4.000000, 4.000000, 4.000000, 4.000000, 4.000000, 4.000000, 4.000000, 4.000000, 4.000000
8.000000, 0.000000, 4194.871582, 4113.333008, 4226.666504, 4168.717773, 4176.922852, 4199.487305, 4086.153809, 4201.025391, 4191.281738, 4183.589844, 4169.230469, 4166.153809, 4176.922852, 4193.333008, 3537.000000, 8328.000000, 8037.000000, 0.000000, 0.000000, 0.000000, 21950.000000, 306.153839, 4.000000, 4.000000, 4.000000, 4.000000, 4.000000, 4.000000, 4.000000, 4.000000, 4.000000, 4.000000, 4.000000, 4.000000, 4.000000, 4.000000, 4.000000, 4.000000
9.000000, 0.000000, 4195.897461, 4112.820313, 4233.846191, 4170.256348, 4176.410156, 4201.538574, 4090.256348, 4201.025391, 4187.692383, 4182.563965, 4167.179199, 4160.512695, 4176.410156, 4188.205078, 3538.000000, 8313.000000, 8072.000000, 0.000000, 0.000000, 0.000000, 21950.000000, 314.358978, 4.000000, 4.000000, 4.000000, 4.000000, 4.000000, 4.000000, 4.000000, 4.000000, 4.000000, 4.000000, 4.000000, 4.000000, 4.000000, 4.000000, 4.000000, 4.000000
10.000000, 1.000000, 4195.897461, 4112.820313, 4239.487305, 4169.743652, 4174.871582, 4198.461426, 4094.871582, 4201.025391, 4186.666504, 4180.000000, 4165.641113, 4161.025391, 4176.410156, 4187.692383, 3469.000000, 8313.000000, 8072.000000, 0.000000, 0.000000, 0.000000, 21950.000000, 322.051270, 4.000000, 4.000000, 4.000000, 4.000000, 4.000000, 4.000000, 4.000000, 4.000000, 4.000000, 4.000000, 4.000000, 4.000000, 4.000000, 4.000000, 4.000000, 4.000000
11.000000, 1.000000, 4195.897461, 4112.820313, 4245.641113, 4169.230469, 4172.820313, 4195.384277, 4099.487305, 4201.025391, 4186.153809, 4177.948730, 4164.102539, 4161.538574, 4176.922852, 4187.692383, 3400.000000, 8313.000000, 8072.000000, 0.000000, 0.000000, 0.000000, 21950.000000, 329.743591, 4.000000, 4.000000, 4.000000, 4.000000, 4.000000, 4.000000, 4.000000, 4.000000, 4.000000, 4.000000, 4.000000, 4.000000, 4.000000, 4.000000, 4.000000, 4.000000
12.000000, 1.000000, 4195.384277, 4112.820313, 4251.794922, 4168.717773, 4171.281738, 4192.307617, 4103.589844, 4201.025391, 4185.127930, 4175.384277, 4162.563965, 4162.051270, 4176.922852, 4187.179199, 3331.000000, 8313.000000, 8072.000000, 0.000000, 0.000000, 0.000000, 21950.000000, 337.948700, 4.000000, 4.000000, 4.000000, 4.000000, 4.000000, 4.000000, 4.000000, 4.000000, 4.000000, 4.000000, 4.000000, 4.000000, 4.000000, 4.000000, 4.000000, 4.000000
13.000000, 1.000000, 4195.384277, 4112.820313, 4257.948730, 4167.692383, 4169.230469, 4188.717773, 4108.205078, 4201.025391, 4184.615234, 4172.820313, 4160.512695, 4162.563965, 4177.436035, 4186.666504, 3262.000000, 8313.000000, 8072.000000, 0.000000, 0.000000, 0.000000, 21950.000000, 345.641022, 4.000000, 4.000000, 4.000000, 4.000000, 4.000000, 4.000000, 4.000000, 4.000000, 4.000000, 4.000000, 4.000000, 4.000000, 4.000000, 4.000000, 4.000000, 4.000000
14.000000, 1.000000, 4195.384277, 4112.820313, 4263.589844, 4167.179199, 4167.692383, 4186.153809, 4112.820313, 4201.025391, 4183.589844, 4170.256348, 4158.974121, 4163.076660, 4177.436035, 4186.153809, 3193.000000, 8313.000000, 8072.000000, 0.000000, 0.000000, 0.000000, 21950.000000, 353.333313, 4.000000, 4.000000, 4.000000, 4.000000, 4.000000, 4.000000, 4.000000, 4.000000, 4.000000, 4.000000, 4.000000, 4.000000, 4.000000, 4.000000, 4.000000, 4.000000
15.000000, 0.000000, 4194.871582, 4113.333008, 4270.256348, 4166.153809, 4165.641113, 4182.563965, 4117.436035, 4201.025391, 4182.563965, 4168.205078, 4156.922852, 4164.102539, 4178.461426, 4186.153809, 3119.000000, 8313.000000, 8072.000000, 0.000000, 0.000000, 0.000000, 21950.000000, 361.538452, 4.000000, 4.000000, 4.000000, 4.000000, 4.000000, 4.000000, 4.000000, 4.000000, 4.000000, 4.000000, 4.000000, 4.000000, 4.000000, 4.000000, 4.000000, 4.000000
16.000000, 0.000000, 4204.615234, 4125.127930, 4280.000000, 4173.846191, 4169.743652, 4184.615234, 4116.922852, 4201.025391, 4186.153809, 4175.897461, 4167.179199, 4165.641113, 4187.692383, 4194.871582, 0.000000, 8313.000000, 8072.000000, 0.000000, 0.000000, 0.000000, 21950.000000, 369.230774, 4.000000, 4.000000, 4.000000, 4.000000, 4.000000, 4.000000, 4.000000, 4.000000, 4.000000, 4.000000, 4.000000, 4.000000, 4.000000, 4.000000, 4.000000, 4.000000
17.000000, 0.000000, 4210.256348, 4132.820313, 4284.615234, 4177.436035, 4171.281738, 4186.153809, 4114.871582, 4201.025391, 4188.205078, 4184.615234, 4174.358887, 4169.230469, 4190.769043, 4205.127930, 0.000000, 8324.000000, 8151.000000, 0.000000, 0.000000, 0.000000, 21950.000000, 376.923065, 4.000000, 4.000000, 4.000000, 4.000000, 4.000000, 4.000000, 4.000000, 4.000000, 4.000000, 4.000000, 4.000000, 4.000000, 4.000000, 4.000000, 4.000000, 4.000000
18.000000, 0.000000, 4203.589844, 4124.102539, 4282.051270, 4172.820313, 4169.743652, 4186.153809, 4111.281738, 4201.538574, 4185.641113, 4177.948730, 4164.615234, 4164.615234, 4177.948730, 4201.025391, 0.000000, 8324.000000, 8151.000000, 0.000000, 0.000000, 0.000000, 21950.000000, 385.128204, 4.000000, 4.000000, 4.000000, 4.000000, 4.000000, 4.000000, 4.000000, 4.000000, 4.000000, 4.000000, 4.000000, 4.000000, 4.000000, 4.000000, 4.000000, 4.000000
19.000000, 0.000000, 4197.948730, 4120.000000, 4280.000000, 4170.256348, 4166.666504, 4183.589844, 4107.692383, 4200.512695, 4183.589844, 4168.205078, 4160.000000, 4158.974121, 4173.333008, 4198.461426, 0.000000, 8325.000000, 8159.000000, 0.000000, 0.000000, 0.000000, 21950.000000, 392.820496, 4.000000, 4.000000, 4.000000, 4.000000, 4.000000, 4.000000, 4.000000, 4.000000, 4.000000, 4.000000, 4.000000, 4.000000, 4.000000, 4.000000, 4.000000, 4.000000
20.000000, 0.000000, 4204.102539, 4124.102539, 4279.487305, 4168.717773, 4165.127930, 4183.076660, 4111.281738, 4200.512695, 4184.615234, 4169.230469, 4168.205078, 4162.563965, 4182.051270, 4200.000000, 0.000000, 8325.000000, 8159.000000, 0.000000, 0.000000, 0.000000, 21950.000000, 401.025635, 4.000000, 4.000000, 4.000000, 4.000000, 4.000000, 4.000000, 4.000000, 4.000000, 4.000000, 4.000000, 4.000000, 4.000000, 4.000000, 4.000000, 4.000000, 4.000000
21.000000, 0.000000, 4211.281738, 4125.641113, 4277.948730, 4168.717773, 4167.179199, 4185.127930, 4113.333008, 4200.512695, 4189.230469, 4179.487305, 4176.922852, 4171.794922, 4187.692383, 4200.000000, 0.000000, 8327.000000, 8148.000000, 0.000000, 0.000000, 0.000000, 21950.000000, 408.717926, 4.000000, 4.000000, 4.000000, 4.000000, 4.000000, 4.000000, 4.000000, 4.000000, 4.000000, 4.000000, 4.000000, 4.000000, 4.000000, 4.000000, 4.000000, 4.000000
22.000000, 0.000000, 4210.256348, 4125.127930, 4278.974121, 4170.769043, 4170.256348, 4184.102539, 4113.333008, 4200.000000, 4197.948730, 4186.153809, 4185.641113, 4177.436035, 4193.846191, 4210.769043, 0.000000, 8327.000000, 8148.000000, 0.000000, 0.000000, 0.000000, 21950.000000, 416.410248, 4.000000, 4.000000, 4.000000, 4.000000, 4.000000, 4.000000, 4.000000, 4.000000, 4.000000, 4.000000, 4.000000, 4.000000, 4.000000, 4.000000, 4.000000, 4.000000
23.000000, 0.000000, 4211.281738, 4127.179199, 4276.410156, 4172.307617, 4168.717773, 4184.615234, 4108.205078, 4201.025391, 4201.538574, 4186.666504, 4192.307617, 4176.922852, 4197.436035, 4218.974121, 0.000000, 8325.000000, 8140.000000, 0.000000, 0.000000, 0.000000, 21950.000000, 424.102539, 4.000000, 4.000000, 4.000000, 4.000000, 4.000000, 4.000000, 4.000000, 4.000000, 4.000000, 4.000000, 4.000000, 4.000000, 4.000000, 4.000000, 4.000000, 4.000000
24.000000, 0.000000, 4211.281738, 4127.692383, 4268.717773, 4171.281738, 4168.205078, 4187.179199, 4101.538574, 4201.025391, 4196.922852, 4185.127930, 4194.871582, 4171.281738, 4191.281738, 4206.666504, 0.000000, 8325.000000, 8140.000000, 0.000000, 0.000000, 0.000000, 21950.000000, 432.307678, 4.000000, 4.000000, 4.000000, 4.000000, 4.000000, 4.000000, 4.000000, 4.000000, 4.000000, 4.000000, 4.000000, 4.000000, 4.000000, 4.000000, 4.000000, 4.000000
25.000000, 0.000000, 4208.717773, 4124.615234, 4265.127930, 4169.743652, 4171.794922, 4186.666504, 4107.179199, 4200.512695, 4196.922852, 4184.102539, 4196.922852, 4168.717773, 4189.743652, 4199.487305, 0.000000, 8316.000000, 8124.000000, 0.000000, 0.000000, 0.000000, 21950.000000, 440.000000, 4.000000, 4.000000, 4.000000, 4.000000, 4.000000, 4.000000, 4.000000, 4.000000, 4.000000, 4.000000, 4.000000, 4.000000, 4.000000, 4.000000, 4.000000, 4.000000
26.000000, 0.000000, 4208.717773, 4122.563965, 4262.051270, 4168.205078, 4171.794922, 4183.589844, 4117.948730, 4202.051270, 4201.025391, 4187.692383, 4200.512695, 4170.769043, 4194.358887, 4204.102539, 0.000000, 8316.000000, 8124.000000, 0.000000, 0.000000, 0.000000, 21950.000000, 447.692291, 4.000000, 4.000000, 4.000000, 4.000000, 4.000000, 4.000000, 4.000000, 4.000000, 4.000000, 4.000000, 4.000000, 4.000000, 4.000000, 4.000000, 4.000000, 4.000000
27.000000, 0.000000, 4209.230469, 4123.589844, 4254.871582, 4168.717773, 4168.205078, 4184.615234, 4121.538574, 4203.076660, 4205.641113, 4193.333008, 4202.563965, 4169.743652, 4188.205078, 4204.615234, 0.000000, 8299.000000, 8084.000000, 0.000000, 0.000000, 0.000000, 21950.000000, 455.384613, 4.000000, 4.000000, 4.000000, 4.000000, 4.000000, 4.000000, 4.000000, 4.000000, 4.000000, 4.000000, 4.000000, 4.000000, 4.000000, 4.000000, 4.000000, 4.000000
28.000000, 0.000000, 4209.230469, 4120.512695, 4246.666504, 4166.153809, 4167.179199, 4185.127930, 4128.205078, 4202.563965, 4209.230469, 4191.281738, 4205.641113, 4168.717773, 4185.641113, 4200.512695, 0.000000, 8299.000000, 8084.000000, 0.000000, 0.000000, 0.000000, 21950.000000, 463.076904, 4.000000, 4.000000, 4.000000, 4.000000, 4.000000, 4.000000, 4.000000, 4.000000, 4.000000, 4.000000, 4.000000, 4.000000, 4.000000, 4.000000, 4.000000, 4.000000
29.000000, 0.000000, 4207.179199, 4111.281738, 4236.922852, 4159.487305, 4162.051270, 4181.025391, 4114.871582, 4201.538574, 4205.641113, 4184.102539, 4207.179199, 4167.179199, 4188.205078, 4200.000000, 0.000000, 8283.000000, 8065.000000, 0.000000, 0.000000, 0.000000, 21950.000000, 470.769226, 4.000000, 4.000000, 4.000000, 4.000000, 4.000000, 4.000000, 4.000000, 4.000000, 4.000000, 4.000000, 4.000000, 4.000000, 4.000000, 4.000000, 4.000000, 4.000000
30.000000, 0.000000, 4207.692383, 4104.102539, 4223.589844, 4156.922852, 4155.384277, 4178.974121, 4070.769043, 4200.512695, 4197.948730, 4182.563965, 4202.563965, 4160.512695, 4180.512695, 4199.487305, 0.000000, 8283.000000, 8065.000000, 0.000000, 0.000000, 0.000000, 21950.000000, 478.461517, 4.000000, 4.000000, 4.000000, 4.000000, 4.000000, 4.000000, 4.000000, 4.000000, 4.000000, 4.000000, 4.000000, 4.000000, 4.000000, 4.000000, 4.000000, 4.000000
31.000000, 0.000000, 4209.743652, 4109.743652, 4217.436035, 4158.974121, 4161.538574, 4182.051270, 4062.563965, 4200.000000, 4195.384277, 4181.538574, 4203.076660, 4157.436035, 4177.436035, 4200.000000, 0.000000, 8265.000000, 8042.000000, 0.000000, 0.000000, 0.000000, 21950.000000, 486.666656, 4.000000, 4.000000, 4.000000, 4.000000, 4.000000, 4.000000, 4.000000, 4.000000, 4.000000, 4.000000, 4.000000, 4.000000, 4.000000, 4.000000, 4.000000, 4.000000
32.000000, 0.000000, 4207.179199, 4121.025391, 4217.436035, 4162.051270, 4169.230469, 4185.127930, 4102.051270, 4201.025391, 4194.871582, 4178.974121, 4209.230469, 4158.974121, 4180.000000, 4200.512695, 0.000000, 8265.000000, 8042.000000, 0.000000, 0.000000, 0.000000, 21950.000000, 494.358948, 4.000000, 4.000000, 4.000000, 4.000000, 4.000000, 4.000000, 4.000000, 4.000000, 4.000000, 4.000000, 4.000000, 4.000000, 4.000000, 4.000000, 4.000000, 4.000000
33.000000, 0.000000, 4204.615234, 4117.436035, 4208.717773, 4158.974121, 4164.102539, 4183.589844, 4112.820313, 4201.025391, 4187.179199, 4181.538574, 4211.281738, 4156.922852, 4175.384277, 4198.461426, 0.000000, 8231.000000, 7981.000000, 0.000000, 0.000000, 0.000000, 21950.000000, 502.051270, 4.000000, 4.000000, 4.000000, 4.000000, 4.000000, 4.000000, 4.000000, 4.000000, 4.000000, 4.000000, 4.000000, 4.000000, 4.000000, 4.000000, 4.000000, 4.000000
34.000000, 0.000000, 4207.692383, 4107.179199, 4200.512695, 4155.897461, 4158.461426, 4182.563965, 4101.538574, 4199.487305, 4186.666504, 4185.127930, 4211.281738, 4155.897461, 4171.794922, 4197.948730, 0.000000, 8231.000000, 7981.000000, 0.000000, 0.000000, 0.000000, 21950.000000, 509.743591, 4.000000, 4.000000, 4.000000, 4.000000, 4.000000, 4.000000, 4.000000, 4.000000, 4.000000, 4.000000, 4.000000, 4.000000, 4.000000, 4.000000, 4.000000, 4.000000
35.000000, 0.000000, 4213.333008, 4111.794922, 4201.025391, 4159.487305, 4158.974121, 4183.076660, 4112.307617, 4199.487305, 4193.846191, 4185.641113, 4216.410156, 4156.922852, 4174.871582, 4198.974121, 0.000000, 8208.000000, 7962.000000, 0.000000, 0.000000, 0.000000, 21950.000000, 517.435913, 4.000000, 4.000000, 4.000000, 4.000000, 4.000000, 4.000000, 4.000000, 4.000000, 4.000000, 4.000000, 4.000000, 4.000000, 4.000000, 4.000000, 4.000000, 4.000000
36.000000, 0.000000, 4213.333008, 4116.922852, 4196.410156, 4161.025391, 4156.922852, 4184.102539, 4116.410156, 4200.512695, 4190.256348, 4181.025391, 4214.358887, 4153.846191, 4169.743652, 4196.410156, 0.000000, 8208.000000, 7962.000000, 0.000000, 0.000000, 0.000000, 21950.000000, 525.640991, 4.000000, 4.000000, 4.000000, 4.000000, 4.000000, 4.000000, 4.000000, 4.000000, 4.000000, 4.000000, 4.000000, 4.000000, 4.000000, 4.000000, 4.000000, 4.000000
37.000000, 0.000000, 4211.281738, 4108.717773, 4186.153809, 4156.410156, 4158.974121, 4184.615234, 4107.692383, 4199.487305, 4177.948730, 4174.871582, 4205.641113, 4150.769043, 4157.436035, 4188.717773, 0.000000, 8153.000000, 7924.000000, 0.000000, 0.000000, 0.000000, 21950.000000, 533.333313, 4.000000, 4.000000, 4.000000, 4.000000, 4.000000, 4.000000, 4.000000, 4.000000, 4.000000, 4.000000, 4.000000, 4.000000, 4.000000, 4.000000, 4.000000, 4.000000
38.000000, 0.000000, 4211.281738, 4105.641113, 4181.538574, 4157.436035, 4158.974121, 4183.076660, 4113.333008, 4197.436035, 4175.897461, 4172.307617, 4205.127930, 4151.794922, 4154.871582, 4184.102539, 0.000000, 8153.000000, 7924.000000, 0.000000, 0.000000, 0.000000, 21950.000000, 541.025635, 4.000000, 4.000000, 4.000000, 4.000000, 4.000000, 4.000000, 4.000000, 4.000000, 4.000000, 4.000000, 4.000000, 4.000000, 4.000000, 4.000000, 4.000000, 4.000000
39.000000, 0.000000, 4207.692383, 4108.205078, 4176.922852, 4159.487305, 4154.358887, 4184.615234, 4123.589844, 4200.000000, 4183.589844, 4173.846191, 4208.205078, 4150.769043, 4161.025391, 4184.102539, 0.000000, 8141.000000, 7893.000000, 0.000000, 0.000000, 0.000000, 21950.000000, 548.717957, 4.000000, 4.000000, 4.000000, 4.000000, 4.000000, 4.000000, 4.000000, 4.000000, 4.000000, 4.000000, 4.000000, 4.000000, 4.000000, 4.000000, 4.000000, 4.000000
40.000000, 0.000000, 4206.666504, 4107.179199, 4169.743652, 4157.436035, 4159.487305, 4187.692383, 4127.692383, 4202.051270, 4184.102539, 4178.974121, 4205.127930, 4145.641113, 4167.179199, 4184.102539, 0.000000, 8141.000000, 7893.000000, 0.000000, 0.000000, 0.000000, 21950.000000, 556.410217, 4.000000, 4.000000, 4.000000, 4.000000, 4.000000, 4.000000, 4.000000, 4.000000, 4.000000, 4.000000, 4.000000, 4.000000, 4.000000, 4.000000, 4.000000, 4.000000
41.000000, 0.000000, 4210.256348, 4106.153809, 4169.230469, 4157.948730, 4165.641113, 4187.692383, 4127.179199, 4200.000000, 4185.127930, 4183.076660, 4201.538574, 4141.538574, 4169.743652, 4186.153809, 0.000000, 8121.000000, 7862.000000, 0.000000, 0.000000, 0.000000, 21950.000000, 564.102539, 4.000000, 4.000000, 4.000000, 4.000000, 4.000000, 4.000000, 4.000000, 4.000000, 4.000000, 4.000000, 4.000000, 4.000000, 4.000000, 4.000000, 4.000000, 4.000000
42.000000, 0.000000, 4209.230469, 4107.692383, 4166.153809, 4160.000000, 4158.974121, 4188.717773, 4123.589844, 4201.538574, 4200.512695, 4188.717773, 4201.025391, 4141.538574, 4169.743652, 4188.717773, 0.000000, 8121.000000, 7862.000000, 0.000000, 0.000000, 0.000000, 21950.000000, 571.794861, 4.000000, 4.000000, 4.000000, 4.000000, 4.000000, 4.000000, 4.000000, 4.000000, 4.000000, 4.000000, 4.000000, 4.000000, 4.000000, 4.000000, 4.000000, 4.000000
43.000000, 0.000000, 4207.179199, 4106.666504, 4155.897461, 4160.512695, 4153.333008, 4193.333008, 4122.563965, 4203.589844, 4203.589844, 4194.358887, 4200.512695, 4140.512695, 4170.256348, 4187.692383, 0.000000, 8113.000000, 7855.000000, 0.000000, 0.000000, 0.000000, 21950.000000, 580.000000, 4.000000, 4.000000, 4.000000, 4.000000, 4.000000, 4.000000, 4.000000, 4.000000, 4.000000, 4.000000, 4.000000, 4.000000, 4.000000, 4.000000, 4.000000, 4.000000
44.000000, 0.000000, 4208.205078, 4105.641113, 4154.358887, 4166.153809, 4161.025391, 4196.922852, 4125.127930, 4202.051270, 4189.230469, 4193.333008, 4198.974121, 4140.512695, 4168.717773, 4187.692383, 0.000000, 8113.000000, 7855.000000, 0.000000, 0.000000, 0.000000, 21950.000000, 587.692322, 4.000000, 4.000000, 4.000000, 4.000000, 4.000000, 4.000000, 4.000000, 4.000000, 4.000000, 4.000000, 4.000000, 4.000000, 4.000000, 4.000000, 4.000000, 4.000000
45.000000, 0.000000, 4209.230469, 4104.102539, 4157.948730, 4170.256348, 4168.205078, 4198.461426, 4125.127930, 4201.538574, 4188.717773, 4186.666504, 4193.846191, 4142.051270, 4166.666504, 4187.692383, 0.000000, 8102.000000, 7853.000000, 0.000000, 0.000000, 0.000000, 21950.000000, 595.384583, 4.000000, 4.000000, 4.000000, 4.000000, 4.000000, 4.000000, 4.000000, 4.000000, 4.000000, 4.000000, 4.000000, 4.000000, 4.000000, 4.000000, 4.000000, 4.000000
46.000000, 0.000000, 4209.230469, 4104.102539, 4155.897461, 4169.230469, 4169.743652, 4201.025391, 4121.538574, 4201.538574, 4198.461426, 4186.666504, 4186.666504, 4142.051270, 4168.205078, 4187.179199, 0.000000, 8102.000000, 7853.000000, 0.000000, 0.000000, 0.000000, 21950.000000, 603.076904, 4.000000, 4.000000, 4.000000, 4.000000, 4.000000, 4.000000, 4.000000, 4.000000, 4.000000, 4.000000, 4.000000, 4.000000, 4.000000, 4.000000, 4.000000, 4.000000
47.000000, 0.000000, 4208.205078, 4108.717773, 4152.820313, 4168.205078, 4169.230469, 4202.051270, 4118.461426, 4200.512695, 4195.384277, 4191.281738, 4181.538574, 4141.538574, 4169.230469, 4187.179199, 0.000000, 8071.000000, 7856.000000, 0.000000, 0.000000, 0.000000, 21950.000000, 610.769226, 4.000000, 4.000000, 4.000000, 4.000000, 4.000000, 4.000000, 4.000000, 4.000000, 4.000000, 4.000000, 4.000000, 4.000000, 4.000000, 4.000000, 4.000000, 4.000000
48.000000, 0.000000, 4206.666504, 4112.820313, 4151.794922, 4168.717773, 4169.743652, 4201.025391, 4117.948730, 4200.512695, 4188.717773, 4188.205078, 4176.410156, 4138.461426, 4161.538574, 4186.153809, 0.000000, 8071.000000, 7856.000000, 0.000000, 0.000000, 0.000000, 21950.000000, 618.974365, 4.000000, 4.000000, 4.000000, 4.000000, 4.000000, 4.000000, 4.000000, 4.000000, 4.000000, 4.000000, 4.000000, 4.000000, 4.000000, 4.000000, 4.000000, 4.000000
49.000000, 0.000000, 4204.615234, 4112.820313, 4150.256348, 4170.256348, 4171.794922, 4201.025391, 4118.461426, 4198.974121, 4184.102539, 4183.076660, 4172.307617, 4135.897461, 4155.897461, 4187.179199, 0.000000, 8043.000000, 7865.000000, 0.000000, 0.000000, 0.000000, 21950.000000, 626.666626, 4.000000, 4.000000, 4.000000, 4.000000, 4.000000, 4.000000, 4.000000, 4.000000, 4.000000, 4.000000, 4.000000, 4.000000, 4.000000, 4.000000, 4.000000, 4.000000
50.000000, 0.000000, 4205.127930, 4110.256348, 4152.307617, 4165.641113, 4166.666504, 4200.512695, 4120.000000, 4198.461426, 4176.922852, 4181.025391, 4171.281738, 4136.410156, 4157.436035, 4188.717773, 0.000000, 8043.000000, 7865.000000, 0.000000, 0.000000, 0.000000, 21950.000000, 634.358948, 4.000000, 4.000000, 4.000000, 4.000000, 4.000000, 4.000000, 4.000000, 4.000000, 4.000000, 4.000000, 4.000000, 4.000000, 4.000000, 4.000000, 4.000000, 4.000000
51.000000, 0.000000, 4204.102539, 4106.153809, 4152.307617, 4160.000000, 4160.000000, 4200.000000, 4121.538574, 4200.000000, 4175.897461, 4180.512695, 4170.256348, 4138.974121, 4156.410156, 4186.666504, 0.000000, 7986.000000, 7896.000000, 0.000000, 0.000000, 0.000000, 21950.000000, 642.051270, 4.000000, 4.000000, 4.000000, 4.000000, 4.000000, 4.000000, 4.000000, 4.000000, 4.000000, 4.000000, 4.000000, 4.000000, 4.000000, 4.000000, 4.000000, 4.000000
52.000000, 0.000000, 4206.666504, 4111.281738, 4150.769043, 4165.127930, 4165.641113, 4201.025391, 4120.000000, 4201.538574, 4181.025391, 4183.076660, 4175.897461, 4144.615234, 4159.487305, 4189.743652, 0.000000, 7986.000000, 7896.000000, 0.000000, 0.000000, 0.000000, 21950.000000, 649.743591, 4.000000, 4.000000, 4.000000, 4.000000, 4.000000, 4.000000, 4.000000, 4.000000, 4.000000, 4.000000, 4.000000, 4.000000, 4.000000, 4.000000, 4.000000, 4.000000
53.000000, 0.000000, 4216.922852, 4120.512695, 4160.512695, 4171.281738, 4173.333008, 4201.025391, 4125.127930, 4202.051270, 4184.102539, 4187.179199, 4185.127930, 4154.358887, 4168.717773, 4195.384277, 0.000000, 7954.000000, 7906.000000, 0.000000, 0.000000, 0.000000, 21950.000000, 657.948730, 4.000000, 4.000000, 4.000000, 4.000000, 4.000000, 4.000000, 4.000000, 4.000000, 4.000000, 4.000000, 4.000000, 4.000000, 4.000000, 4.000000, 4.000000, 4.000000
54.000000, 0.000000, 4217.948730, 4117.948730, 4166.666504, 4170.256348, 4165.641113, 4200.000000, 4135.384277, 4202.563965, 4187.179199, 4188.717773, 4187.179199, 4158.461426, 4173.846191, 4194.358887, 0.000000, 7954.000000, 7906.000000, 0.000000, 0.000000, 0.000000, 21950.000000, 665.640991, 4.000000, 4.000000, 4.000000, 4.000000, 4.000000, 4.000000, 4.000000, 4.000000, 4.000000, 4.000000, 4.000000, 4.000000, 4.000000, 4.000000, 4.000000, 4.000000
55.000000, 0.000000, 4208.205078, 4110.256348, 4158.461426, 4169.230469, 4158.461426, 4199.487305, 4134.871582, 4202.563965, 4185.127930, 4185.127930, 4186.153809, 4156.410156, 4173.333008, 4190.769043, 0.000000, 7920.000000, 7915.000000, 0.000000, 0.000000, 0.000000, 21950.000000, 673.333313, 4.000000, 4.000000, 4.000000, 4.000000, 4.000000, 4.000000, 4.000000, 4.000000, 4.000000, 4.000000, 4.000000, 4.000000, 4.000000, 4.000000, 4.000000, 4.000000
56.000000, 0.000000, 4206.666504, 4107.692383, 4157.436035, 4168.717773, 4158.974121, 4201.025391, 4128.205078, 4202.563965, 4183.589844, 4184.615234, 4184.615234, 4154.358887, 4170.256348, 4187.692383, 0.000000, 7920.000000, 7915.000000, 0.000000, 0.000000, 0.000000, 21950.000000, 681.025635, 4.000000, 4.000000, 4.000000, 4.000000, 4.000000, 4.000000, 4.000000, 4.000000, 4.000000, 4.000000, 4.000000, 4.000000, 4.000000, 4.000000, 4.000000, 4.000000
57.000000, 0.000000, 4208.205078, 4108.205078, 4166.666504, 4167.692383, 4157.948730, 4202.563965, 4133.846191, 4203.076660, 4187.692383, 4187.179199, 4184.102539, 4159.487305, 4172.307617, 4190.256348, 0.000000, 7869.000000, 7969.000000, 0.000000, 0.000000, 0.000000, 21950.000000, 688.717957, 4.000000, 4.000000, 4.000000, 4.000000, 4.000000, 4.000000, 4.000000, 4.000000, 4.000000, 4.000000, 4.000000, 4.000000, 4.000000, 4.000000, 4.000000, 4.000000
58.000000, 0.000000, 4208.205078, 4108.205078, 4169.230469, 4168.717773, 4162.563965, 4202.563965, 4143.589844, 4203.076660, 4187.692383, 4186.666504, 4187.692383, 4166.153809, 4185.641113, 4199.487305, 0.000000, 7869.000000, 7969.000000, 0.000000, 0.000000, 0.000000, 21950.000000, 696.410217, 4.000000, 4.000000, 4.000000, 4.000000, 4.000000, 4.000000, 4.000000, 4.000000, 4.000000, 4.000000, 4.000000, 4.000000, 4.000000, 4.000000, 4.000000, 4.000000
59.000000, 0.000000, 4207.179199, 4107.692383, 4163.589844, 4169.230469, 4169.743652, 4202.563965, 4136.410156, 4202.051270, 4183.589844, 4184.615234, 4185.127930, 4163.589844, 4189.743652, 4198.974121, 0.000000, 7851.000000, 8017.000000, 0.000000, 0.000000, 0.000000, 21950.000000, 704.615356, 4.000000, 4.000000, 4.000000, 4.000000, 4.000000, 4.000000, 4.000000, 4.000000, 4.000000, 4.000000, 4.000000, 4.000000, 4.000000, 4.000000, 4.000000, 4.000000
60.000000, 0.000000, 4203.076660, 4106.153809, 4160.512695, 4167.692383, 4170.256348, 4204.102539, 4128.205078, 4201.025391, 4186.153809, 4184.615234, 4173.333008, 4153.333008, 4173.846191, 4184.615234, 0.000000, 7851.000000, 8017.000000, 0.000000, 0.000000, 0.000000, 21950.000000, 712.307678, 4.000000, 4.000000, 4.000000, 4.000000, 4.000000, 4.000000, 4.000000, 4.000000, 4.000000, 4.000000, 4.000000, 4.000000, 4.000000, 4.000000, 4.000000, 4.000000
61.000000, 0.000000, 4203.076660, 4105.641113, 4162.051270, 4167.179199, 4167.692383, 4203.589844, 4120.512695, 4201.025391, 4187.179199, 4182.051270, 4165.641113, 4145.641113, 4163.589844, 4180.000000, 0.000000, 7838.000000, 8112.000000, 0.000000, 0.000000, 0.000000, 21950.000000, 720.000000, 4.000000, 4.000000, 4.000000, 4.000000, 4.000000, 4.000000, 4.000000, 4.000000, 4.000000, 4.000000, 4.000000, 4.000000, 4.000000, 4.000000, 4.000000, 4.000000
62.000000, 0.000000, 4206.666504, 4111.281738, 4170.769043, 4171.281738, 4168.717773, 4202.563965, 4106.153809, 4201.538574, 4185.127930, 4185.127930, 4167.179199, 4147.179199, 4174.358887, 4189.743652, 0.000000, 7838.000000, 8112.000000, 0.000000, 0.000000, 0.000000, 21950.000000, 727.692261, 4.000000, 4.000000, 4.000000, 4.000000, 4.000000, 4.000000, 4.000000, 4.000000, 4.000000, 4.000000, 4.000000, 4.000000, 4.000000, 4.000000, 4.000000, 4.000000
63.000000, 0.000000, 4209.230469, 4109.230469, 4173.333008, 4171.794922, 4170.256348, 4208.205078, 4104.102539, 4202.563965, 4190.769043, 4193.333008, 4170.769043, 4151.794922, 4185.127930, 4190.769043, 0.000000, 7859.000000, 8164.000000, 0.000000, 0.000000, 0.000000, 21950.000000, 735.384583, 4.000000, 4.000000, 4.000000, 4.000000, 4.000000, 4.000000, 4.000000, 4.000000, 4.000000, 4.000000, 4.000000, 4.000000, 4.000000, 4.000000, 4.000000, 4.000000
64.000000, 0.000000, 4208.717773, 4097.436035, 4168.205078, 4167.692383, 4167.692383, 4209.743652, 4088.205078, 4202.051270, 4196.922852, 4192.820313, 4166.666504, 4150.769043, 4186.666504, 4184.615234, 3527.000000, 7859.000000, 8164.000000, 0.000000, 0.000000, 0.000000, 21950.000000, 743.589722, 4.000000, 4.000000, 4.000000, 4.000000, 4.000000, 4.000000, 4.000000, 4.000000, 4.000000, 4.000000, 4.000000, 4.000000, 4.000000, 4.000000, 4.000000, 4.000000
65.000000, 0.000000, 4209.743652, 4093.845947, 4170.769043, 4173.333008, 4170.256348, 4203.589844, 4050.769043, 4201.538574, 4198.974121, 4195.384277, 4159.487305, 4149.743652, 4189.743652, 4192.820313, 3538.000000, 7894.000000, 8230.000000, 0.000000, 0.000000, 0.000000, 21950.000000, 751.282043, 4.000000, 4.000000, 4.000000, 4.000000, 4.000000, 4.000000, 4.000000, 4.000000, 4.000000, 4.000000, 4.000000, 4.000000, 4.000000, 4.000000, 4.000000, 4.000000
66.000000, 0.000000, 4211.281738, 4095.897217, 4170.769043, 4179.487305, 4172.307617, 4202.563965, 4064.615234, 4202.051270, 4201.538574, 4200.000000, 4156.410156, 4154.871582, 4192.820313, 4200.512695, 2254.000000, 7894.000000, 8230.000000, 0.000000, 0.000000, 0.000000, 21950.000000, 758.974365, 4.000000, 4.000000, 4.000000, 4.000000, 4.000000, 4.000000, 4.000000, 4.000000, 4.000000, 4.000000, 4.000000, 4.000000, 4.000000, 4.000000, 4.000000, 4.000000
67.000000, 0.000000, 4211.281738, 4087.692139, 4158.461426, 4175.897461, 4164.615234, 4204.102539, 4110.769043, 4201.538574, 4200.000000, 4193.846191, 4148.717773, 4156.410156, 4189.743652, 4191.281738, 3568.000000, 7978.000000, 8377.000000, 0.000000, 0.000000, 0.000000, 21950.000000, 766.666626, 4.000000, 4.000000, 4.000000, 4.000000, 4.000000, 4.000000, 4.000000, 4.000000, 4.000000, 4.000000, 4.000000, 4.000000, 4.000000, 4.000000, 4.000000, 4.000000
68.000000, 0.000000, 4216.410156, 4077.435791, 4151.794922, 4180.000000, 4162.051270, 4198.461426, 4103.589844, 4200.512695, 4192.307617, 4190.769043, 4138.461426, 4154.358887, 4185.641113, 4188.717773, 3479.000000, 7978.000000, 8377.000000, 0.000000, 0.000000, 0.000000, 21950.000000, 774.358948, 4.000000, 4.000000, 4.000000, 4.000000, 4.000000, 4.000000, 4.000000, 4.000000, 4.000000, 4.000000, 4.000000, 4.000000, 4.000000, 4.000000, 4.000000, 4.000000
69.000000, 0.000000, 4224.102539, 4073.845947, 4152.307617, 4189.230469, 4166.666504, 4190.769043, 4087.692139, 4200.000000, 4188.205078, 4198.461426, 4137.436035, 4157.436035, 4180.000000, 4201.025391, 3580.000000, 8030.000000, 8429.000000, 0.000000, 0.000000, 0.000000, 21950.000000, 782.564087, 4.000000, 4.000000, 4.000000, 4.000000, 4.000000, 4.000000, 4.000000, 4.000000, 4.000000, 4.000000, 4.000000, 4.000000, 4.000000, 4.000000, 4.000000, 4.000000
70.000000, 0.000000, 4227.179199, 4070.769043, 4144.102539, 4188.717773, 4162.563965, 4187.692383, 4111.794922, 4201.538574, 4188.205078, 4199.487305, 4140.000000, 4160.000000, 4172.820313, 4203.076660, 2210.000000, 8030.000000, 8429.000000, 0.000000, 0.000000, 0.000000, 21950.000000, 790.256409, 4.000000, 4.000000, 4.000000, 4.000000, 4.000000, 4.000000, 4.000000, 4.000000, 4.000000, 4.000000, 4.000000, 4.000000, 4.000000, 4.000000, 4.000000, 4.000000
71.000000, 0.000000, 4229.743652, 4071.794678, 4133.333008, 4191.281738, 4157.436035, 4185.127930, 4117.436035, 4203.076660, 4187.179199, 4196.410156, 4142.051270, 4164.102539, 4177.948730, 4199.487305, 1132.000000, 8125.000000, 8438.000000, 0.000000, 0.000000, 0.000000, 21950.000000, 797.948669, 4.000000, 4.000000, 4.000000, 4.000000, 4.000000, 4.000000, 4.000000, 4.000000, 4.000000, 4.000000, 4.000000, 4.000000, 4.000000, 4.000000, 4.000000, 4.000000
72.000000, 0.000000, 4229.743652, 4077.948730, 4125.127930, 4198.974121, 4164.615234, 4184.102539, 4101.025391, 4202.051270, 4187.179199, 4201.025391, 4152.307617, 4166.666504, 4187.692383, 4202.563965, 3530.000000, 8125.000000, 8438.000000, 0.000000, 0.000000, 0.000000, 21950.000000, 805.640991, 4.000000, 4.000000, 4.000000, 4.000000, 4.000000, 4.000000, 4.000000, 4.000000, 4.000000, 4.000000, 4.000000, 4.000000, 4.000000, 4.000000, 4.000000, 4.000000
73.000000, 0.000000, 4223.076660, 4081.025635, 4112.307617, 4193.846191, 4166.666504, 4184.102539, 4109.230469, 4200.512695, 4183.076660, 4202.051270, 4163.076660, 4160.512695, 4186.666504, 4200.000000, 3538.000000, 8163.000000, 8419.000000, 0.000000, 0.000000, 0.000000, 21950.000000, 813.333313, 4.000000, 4.000000, 4.000000, 4.000000, 4.000000, 4.000000, 4.000000, 4.000000, 4.000000, 4.000000, 4.000000, 4.000000, 4.000000, 4.000000, 4.000000, 4.000000
74.000000, 0.000000, 4214.871582, 4085.640869, 4098.974121, 4186.666504, 4156.410156, 4179.487305, 4105.641113, 4201.538574, 4174.871582, 4196.922852, 4166.153809, 4156.410156, 4186.666504, 4192.820313, 2793.000000, 8163.000000, 8419.000000, 0.000000, 0.000000, 0.000000, 21950.000000, 821.025635, 4.000000, 4.000000, 4.000000, 4.000000, 4.000000, 4.000000, 4.000000, 4.000000, 4.000000, 4.000000, 4.000000, 4.000000, 4.000000, 4.000000, 4.000000, 4.000000
75.000000, 0.000000, 4216.410156, 4098.974121, 4089.743408, 4187.179199, 4153.846191, 4176.922852, 4083.589600, 4201.025391, 4168.205078, 4187.179199, 4168.205078, 4154.358887, 4189.743652, 4190.769043, 3118.000000, 8227.000000, 8346.000000, 0.000000, 0.000000, 0.000000, 21950.000000, 829.230774, 4.000000, 4.000000, 4.000000, 4.000000, 4.000000, 4.000000, 4.000000, 4.000000, 4.000000, 4.000000, 4.000000, 4.000000, 4.000000, 4.000000, 4.000000, 4.000000
76.000000, 0.000000, 4219.487305, 4104.615234, 4075.897217, 4182.563965, 4157.948730, 4180.512695, 4091.794678, 4198.974121, 4158.974121, 4171.794922, 4166.153809, 4142.563965, 4183.076660, 4181.538574, 3510.000000, 8227.000000, 8346.000000, 0.000000, 0.000000, 0.000000, 21950.000000, 836.923035, 4.000000, 4.000000, 4.000000, 4.000000, 4.000000, 4.000000, 4.000000, 4.000000, 4.000000, 4.000000, 4.000000, 4.000000, 4.000000, 4.000000, 4.000000, 4.000000
77.000000, 0.000000, 4214.358887, 4095.384521, 4062.563965, 4173.846191, 4164.102539, 4187.692383, 4116.922852, 4199.487305, 4154.358887, 4165.641113, 4162.563965, 4133.846191, 4175.897461, 4170.769043, 3507.000000, 8248.000000, 8320.000000, 0.000000, 0.000000, 0.000000, 21950.000000, 844.615356, 4.000000, 4.000000, 4.000000, 4.000000, 4.000000, 4.000000, 4.000000, 4.000000, 4.000000, 4.000000, 4.000000, 4.000000, 4.000000, 4.000000, 4.000000, 4.000000
78.000000, 0.000000, 4214.871582, 4093.845947, 4063.589600, 4175.897461, 4170.256348, 4195.384277, 4125.641113, 4202.051270, 4171.794922, 4178.461426, 4173.846191, 4136.922852, 4184.102539, 4176.922852, 2793.000000, 8248.000000, 8320.000000, 0.000000, 0.000000, 0.000000, 21950.000000, 852.307678, 4.000000, 4.000000, 4.000000, 4.000000, 4.000000, 4.000000, 4.000000, 4.000000, 4.000000, 4.000000, 4.000000, 4.000000, 4.000000, 4.000000, 4.000000, 4.000000
79.000000, 0.000000, 4220.512695, 4104.102539, 4066.153809, 4183.076660, 4165.641113, 4194.358887, 4119.487305, 4203.589844, 4187.179199, 4191.281738, 4188.205078, 4138.974121, 4196.410156, 4188.205078, 3118.000000, 8271.000000, 8292.000000, 0.000000, 0.000000, 0.000000, 21950.000000, 860.512817, 4.000000, 4.000000, 4.000000, 4.000000, 4.000000, 4.000000, 4.000000, 4.000000, 4.000000, 4.000000, 4.000000, 4.000000, 4.000000, 4.000000, 4.000000, 4.000000
80.000000, 0.000000, 4218.461426, 4109.230469, 4062.051270, 4183.076660, 4157.436035, 4181.538574, 4112.820313, 4202.051270, 4178.974121, 4186.666504, 4190.256348, 4135.897461, 4198.974121, 4185.127930, 3510.000000, 8271.000000, 8292.000000, 0.000000, 0.000000, 0.000000, 21950.000000, 868.205078, 4.000000, 4.000000, 4.000000, 4.000000, 4.000000, 4.000000, 4.000000, 4.000000, 4.000000, 4.000000, 4.000000, 4.000000, 4.000000, 4.000000, 4.000000, 4.000000
81.000000, 0.000000, 4220.512695, 4114.358887, 4065.640869, 4180.512695, 4156.922852, 4170.769043, 4106.666504, 4200.000000, 4173.846191, 4184.102539, 4192.307617, 4136.922852, 4198.974121, 4183.589844, 3507.000000, 8295.000000, 8248.000000, 0.000000, 0.000000, 0.000000, 21950.000000, 875.897400, 4.000000, 4.000000, 4.000000, 4.000000, 4.000000, 4.000000, 4.000000, 4.000000, 4.000000, 4.000000, 4.000000, 4.000000, 4.000000, 4.000000, 4.000000, 4.000000
82.000000, 0.000000, 4226.153809, 4124.615234, 4076.923096, 4184.102539, 4158.461426, 4170.256348, 4104.102539, 4202.051270, 4186.666504, 4196.410156, 4203.076660, 4145.641113, 4202.563965, 4187.692383, 2793.000000, 8295.000000, 8248.000000, 0.000000, 0.000000, 0.000000, 21950.000000, 883.589722, 4.000000, 4.000000, 4.000000, 4.000000, 4.000000, 4.000000, 4.000000, 4.000000, 4.000000, 4.000000, 4.000000, 4.000000, 4.000000, 4.000000, 4.000000, 4.000000
83.000000, 0.000000, 4221.538574, 4125.641113, 4076.410156, 4184.102539, 4160.512695, 4174.871582, 4106.666504, 4203.589844, 4189.230469, 4203.589844, 4202.563965, 4151.794922, 4201.025391, 4185.641113, 3118.000000, 8302.000000, 8228.000000, 0.000000, 0.000000, 0.000000, 21950.000000, 891.282043, 4.000000, 4.000000, 4.000000, 4.000000, 4.000000, 4.000000, 4.000000, 4.000000, 4.000000, 4.000000, 4.000000, 4.000000, 4.000000, 4.000000, 4.000000, 4.000000
84.000000, 0.000000, 4220.512695, 4125.641113, 4070.769043, 4183.589844, 4166.666504, 4184.102539, 4108.717773, 4201.538574, 4184.102539, 4198.974121, 4197.948730, 4150.769043, 4198.461426, 4190.256348, 3510.000000, 8302.000000, 8228.000000, 0.000000, 0.000000, 0.000000, 21950.000000, 899.487183, 4.000000, 4.000000, 4.000000, 4.000000, 4.000000, 4.000000, 4.000000, 4.000000, 4.000000, 4.000000, 4.000000, 4.000000, 4.000000, 4.000000, 4.000000, 4.000000
85.000000, 0.000000, 4226.666504, 4137.948730, 4081.025635, 4192.820313, 4173.333008, 4189.230469, 4107.179199, 4202.563965, 4192.820313, 4200.000000, 4211.281738, 4157.948730, 4208.205078, 4201.025391, 3507.000000, 8305.000000, 8203.000000, 0.000000, 0.000000, 0.000000, 21950.000000, 907.179443, 4.000000, 4.000000, 4.000000, 4.000000, 4.000000, 4.000000, 4.000000, 4.000000, 4.000000, 4.000000, 4.000000, 4.000000, 4.000000, 4.000000, 4.000000, 4.000000
86.000000, 0.000000, 4225.127930, 4146.666504, 4091.281982, 4196.410156, 4173.846191, 4186.153809, 4108.717773, 4207.179199, 4203.589844, 4211.281738, 4226.153809, 4169.743652, 4216.922852, 4204.102539, 2793.000000, 8305.000000, 8203.000000, 0.000000, 0.000000, 0.000000, 21950.000000, 914.871765, 4.000000, 4.000000, 4.000000, 4.000000, 4.000000, 4.000000, 4.000000, 4.000000, 4.000000, 4.000000, 4.000000, 4.000000, 4.000000, 4.000000, 4.000000, 4.000000
87.000000, 0.000000, 4221.025391, 4143.589844, 4087.692139, 4188.717773, 4171.794922, 4188.205078, 4120.000000, 4207.692383, 4207.692383, 4219.487305, 4224.615234, 4173.333008, 4211.281738, 4202.563965, 3118.000000, 8302.000000, 8184.000000, 0.000000, 0.000000, 0.000000, 21950.000000, 922.564087, 4.000000, 4.000000, 4.000000, 4.000000, 4.000000, 4.000000, 4.000000, 4.000000, 4.000000, 4.000000, 4.000000, 4.000000, 4.000000, 4.000000, 4.000000, 4.000000
88.000000, 0.000000, 4219.487305, 4139.487305, 4080.512695, 4183.589844, 4169.230469, 4191.281738, 4125.127930, 4203.589844, 4210.256348, 4219.487305, 4217.948730, 4167.692383, 4201.025391, 4197.436035, 3510.000000, 8302.000000, 8184.000000, 0.000000, 0.000000, 0.000000, 21950.000000, 930.256409, 4.000000, 4.000000, 4.000000, 4.000000, 4.000000, 4.000000, 4.000000, 4.000000, 4.000000, 4.000000, 4.000000, 4.000000, 4.000000, 4.000000, 4.000000, 4.000000
89.000000, 0.000000, 4218.461426, 4140.000000, 4077.948730, 4184.102539, 4168.717773, 4188.205078, 4120.000000, 4202.051270, 4205.641113, 4214.358887, 4214.358887, 4161.538574, 4198.974121, 4196.410156, 3507.000000, 8296.000000, 8162.000000, 0.000000, 0.000000, 0.000000, 21950.000000, 938.461487, 4.000000, 4.000000, 4.000000, 4.000000, 4.000000, 4.000000, 4.000000, 4.000000, 4.000000, 4.000000, 4.000000, 4.000000, 4.000000, 4.000000, 4.000000, 4.000000
90.000000, 0.000000, 4216.410156, 4142.051270, 4075.897217, 4178.461426, 4165.127930, 4183.589844, 4114.358887, 4201.538574, 4191.281738, 4205.127930, 4209.743652, 4155.897461, 4202.051270, 4194.358887, 2793.000000, 8296.000000, 8162.000000, 0.000000, 0.000000, 0.000000, 21950.000000, 946.153809, 4.000000, 4.000000, 4.000000, 4.000000, 4.000000, 4.000000, 4.000000, 4.000000, 4.000000, 4.000000, 4.000000, 4.000000, 4.000000, 4.000000, 4.000000, 4.000000
91.000000, 0.000000, 4218.974121, 4146.153809, 4080.512695, 4177.436035, 4157.948730, 4180.512695, 4114.358887, 4200.000000, 4182.051270, 4198.974121, 4205.127930, 4155.897461, 4201.538574, 4192.307617, 3118.000000, 8286.000000, 8141.000000, 0.000000, 0.000000, 0.000000, 21950.000000, 953.846130, 4.000000, 4.000000, 4.000000, 4.000000, 4.000000, 4.000000, 4.000000, 4.000000, 4.000000, 4.000000, 4.000000, 4.000000, 4.000000, 4.000000, 4.000000, 4.000000
92.000000, 0.000000, 4217.948730, 4153.333008, 4087.179443, 4182.051270, 4157.436035, 4180.000000, 4115.897461, 4200.512695, 4185.641113, 4202.563965, 4205.641113, 4158.974121, 4202.051270, 4195.384277, 3510.000000, 8286.000000, 8141.000000, 0.000000, 0.000000, 0.000000, 21950.000000, 961.538452, 4.000000, 4.000000, 4.000000, 4.000000, 4.000000, 4.000000, 4.000000, 4.000000, 4.000000, 4.000000, 4.000000, 4.000000, 4.000000, 4.000000, 4.000000, 4.000000
93.000000, 0.000000, 4211.281738, 4154.871582, 4086.153809, 4175.897461, 4157.436035, 4183.076660, 4111.281738, 4203.076660, 4187.179199, 4206.153809, 4204.615234, 4155.384277, 4202.563965, 4195.384277, 3507.000000, 8281.000000, 8142.000000, 0.000000, 0.000000, 0.000000, 21950.000000, 969.743591, 4.000000, 4.000000, 4.000000, 4.000000, 4.000000, 4.000000, 4.000000, 4.000000, 4.000000, 4.000000, 4.000000, 4.000000, 4.000000, 4.000000, 4.000000, 4.000000
94.000000, 0.000000, 4212.307617, 4150.769043, 4089.743408, 4173.333008, 4153.846191, 4185.127930, 4110.256348, 4201.025391, 4184.102539, 4202.563965, 4202.051270, 4157.436035, 4201.538574, 4192.307617, 2793.000000, 8281.000000, 8142.000000, 0.000000, 0.000000, 0.000000, 21950.000000, 977.435852, 4.000000, 4.000000, 4.000000, 4.000000, 4.000000, 4.000000, 4.000000, 4.000000, 4.000000, 4.000000, 4.000000, 4.000000, 4.000000, 4.000000, 4.000000, 4.000000
95.000000, 0.000000, 4216.922852, 4152.307617, 4102.051270, 4182.051270, 4156.410156, 4185.127930, 4120.512695, 4198.461426, 4184.102539, 4203.589844, 4203.076660, 4166.666504, 4200.512695, 4197.948730, 3118.000000, 8277.000000, 8139.000000, 0.000000, 0.000000, 0.000000, 21950.000000, 985.128174, 4.000000, 4.000000, 4.000000, 4.000000, 4.000000, 4.000000, 4.000000, 4.000000, 4.000000, 4.000000, 4.000000, 4.000000, 4.000000, 4.000000, 4.000000, 4.000000
96.000000, 0.000000, 4220.512695, 4154.871582, 4111.794922, 4187.692383, 4167.179199, 4191.281738, 4118.461426, 4200.512695, 4187.692383, 4209.743652, 4205.127930, 4171.794922, 4202.563965, 4205.127930, 3510.000000, 8277.000000, 8139.000000, 0.000000, 0.000000, 0.000000, 21950.000000, 992.820496, 4.000000, 4.000000, 4.000000, 4.000000, 4.000000, 4.000000, 4.000000, 4.000000, 4.000000, 4.000000, 4.000000, 4.000000, 4.000000, 4.000000, 4.000000, 4.000000
97.000000, 0.000000, 4218.461426, 4154.358887, 4121.538574, 4189.230469, 4171.794922, 4198.461426, 4106.666504, 4201.025391, 4185.641113, 4210.256348, 4205.641113, 4169.743652, 4204.615234, 4201.025391, 3507.000000, 8277.000000, 8134.000000, 0.000000, 0.000000, 0.000000, 21951.000000, 0.512820, 4.000000, 4.000000, 4.000000, 4.000000, 4.000000, 4.000000, 4.000000, 4.000000, 4.000000, 4.000000, 4.000000, 4.000000, 4.000000, 4.000000, 4.000000, 4.000000
98.000000, 0.000000, 4211.281738, 4153.846191, 4126.153809, 4190.256348, 4169.230469, 4198.461426, 4109.743652, 4200.000000, 4174.871582, 4203.589844, 4201.538574, 4164.102539, 4198.461426, 4198.461426, 2793.000000, 8277.000000, 8134.000000, 0.000000, 0.000000, 0.000000, 21951.000000, 8.205128, 4.000000, 4.000000, 4.000000, 4.000000, 4.000000, 4.000000, 4.000000, 4.000000, 4.000000, 4.000000, 4.000000, 4.000000, 4.000000, 4.000000, 4.000000, 4.000000
99.000000, 0.000000, 4211.281738, 4150.256348, 4125.127930, 4186.153809, 4166.153809, 4196.922852, 4101.025391, 4200.000000, 4166.153809, 4198.974121, 4199.487305, 4156.410156, 4189.743652, 4201.025391, 3118.000000, 8272.000000, 8125.000000, 0.000000, 0.000000, 0.000000, 21951.000000, 16.410255, 4.000000, 4.000000, 4.000000, 4.000000, 4.000000, 4.000000, 4.000000, 4.000000, 4.000000, 4.000000, 4.000000, 4.000000, 4.000000, 4.000000, 4.000000, 4.000000
100.000000, 0.000000, 4213.333008, 4142.563965, 4129.743652, 4182.051270, 4166.153809, 4198.461426, 4080.512695, 4199.487305, 4165.127930, 4200.000000, 4198.461426, 4152.820313, 4188.717773, 4199.487305, 3510.000000, 8272.000000, 8125.000000, 0.000000, 0.000000, 0.000000, 21951.000000, 24.102564, 4.000000, 4.000000, 4.000000, 4.000000, 4.000000, 4.000000, 4.000000, 4.000000, 4.000000, 4.000000, 4.000000, 4.000000, 4.000000, 4.000000, 4.000000, 4.000000
101.000000, 0.000000, 4209.743652, 4140.512695, 4138.974121, 4183.589844, 4168.205078, 4200.000000, 4094.871582, 4200.512695, 4164.102539, 4199.487305, 4192.820313, 4156.410156, 4193.333008, 4198.461426, 3507.000000, 8274.000000, 8114.000000, 0.000000, 0.000000, 0.000000, 21951.000000, 31.794870, 4.000000, 4.000000, 4.000000, 4.000000, 4.000000, 4.000000, 4.000000, 4.000000, 4.000000, 4.000000, 4.000000, 4.000000, 4.000000, 4.000000, 4.000000, 4.000000
102.000000, 0.000000, 4210.256348, 4141.025391, 4140.000000, 4183.589844, 4170.256348, 4200.512695, 4118.461426, 4202.051270, 4157.948730, 4197.436035, 4188.717773, 4153.333008, 4197.948730, 4199.487305, 2793.000000, 8274.000000, 8114.000000, 0.000000, 0.000000, 0.000000, 21951.000000, 39.487179, 4.000000, 4.000000, 4.000000, 4.000000, 4.000000, 4.000000, 4.000000, 4.000000, 4.000000, 4.000000, 4.000000, 4.000000, 4.000000, 4.000000, 4.000000, 4.000000
103.000000, 0.000000, 4212.307617, 4141.025391, 4140.000000, 4182.051270, 4173.333008, 4202.051270, 4111.794922, 4201.538574, 4158.974121, 4199.487305, 4189.743652, 4148.717773, 4202.563965, 4200.512695, 3118.000000, 8280.000000, 8102.000000, 0.000000, 0.000000, 0.000000, 21951.000000, 47.692307, 4.000000, 4.000000, 4.000000, 4.000000, 4.000000, 4.000000, 4.000000, 4.000000, 4.000000, 4.000000, 4.000000, 4.000000, 4.000000, 4.000000, 4.000000, 4.000000
104.000000, 0.000000, 4209.230469, 4143.076660, 4147.179199, 4184.102539, 4175.384277, 4202.051270, 4110.256348, 4201.025391, 4165.641113, 4201.538574, 4188.717773, 4151.794922, 4205.641113, 4200.512695, 3510.000000, 8280.000000, 8102.000000, 0.000000, 0.000000, 0.000000, 21951.000000, 55.384613, 4.000000, 4.000000, 4.000000, 4.000000, 4.000000, 4.000000, 4.000000, 4.000000, 4.000000, 4.000000, 4.000000, 4.000000, 4.000000, 4.000000, 4.000000, 4.000000
105.000000, 0.000000, 4208.205078, 4143.076660, 4152.820313, 4183.589844, 4173.333008, 4199.487305, 4118.974121, 4200.000000, 4164.102539, 4195.897461, 4184.102539, 4153.333008, 4205.641113, 4199.487305, 3507.000000, 8289.000000, 8087.000000, 0.000000, 0.000000, 0.000000, 21951.000000, 63.076923, 4.000000, 4.000000, 4.000000, 4.000000, 4.000000, 4.000000, 4.000000, 4.000000, 4.000000, 4.000000, 4.000000, 4.000000, 4.000000, 4.000000, 4.000000, 4.000000
106.000000, 0.000000, 4209.230469, 4138.461426, 4151.281738, 4177.436035, 4169.743652, 4198.974121, 4117.436035, 4197.948730, 4154.871582, 4185.641113, 4180.000000, 4153.333008, 4205.641113, 4195.897461, 2793.000000, 8289.000000, 8087.000000, 0.000000, 0.000000, 0.000000, 21951.000000, 70.769226, 4.000000, 4.000000, 4.000000, 4.000000, 4.000000, 4.000000, 4.000000, 4.000000, 4.000000, 4.000000, 4.000000, 4.000000, 4.000000, 4.000000, 4.000000, 4.000000
107.000000, 0.000000, 4201.025391, 4135.897461, 4150.769043, 4172.820313, 4168.717773, 4197.436035, 4120.512695, 4197.948730, 4154.871582, 4183.076660, 4175.897461, 4151.281738, 4203.589844, 4191.794922, 3118.000000, 8294.000000, 8081.000000, 0.000000, 0.000000, 0.000000, 21951.000000, 78.461540, 4.000000, 4.000000, 4.000000, 4.000000, 4.000000, 4.000000, 4.000000, 4.000000, 4.000000, 4.000000, 4.000000, 4.000000, 4.000000, 4.000000, 4.000000, 4.000000
108.000000, 0.000000, 4195.384277, 4136.922852, 4154.871582, 4173.333008, 4166.153809, 4191.794922, 4124.615234, 4198.974121, 4161.538574, 4188.717773, 4172.820313, 4144.615234, 4201.025391, 4190.256348, 3510.000000, 8294.000000, 8081.000000, 0.000000, 0.000000, 0.000000, 21951.000000, 86.153847, 4.000000, 4.000000, 4.000000, 4.000000, 4.000000, 4.000000, 4.000000, 4.000000, 4.000000, 4.000000, 4.000000, 4.000000, 4.000000, 4.000000, 4.000000, 4.000000
109.000000, 0.000000, 4202.051270, 4130.769043, 4156.410156, 4171.794922, 4158.974121, 4187.179199, 4122.051270, 4198.974121, 4158.974121, 4187.692383, 4170.256348, 4138.461426, 4202.051270, 4187.179199, 3507.000000, 8299.000000, 8081.000000, 0.000000, 0.000000, 0.000000, 21951.000000, 94.358971, 4.000000, 4.000000, 4.000000, 4.000000, 4.000000, 4.000000, 4.000000, 4.000000, 4.000000, 4.000000, 4.000000, 4.000000, 4.000000, 4.000000, 4.000000, 4.000000
110.000000, 0.000000, 4203.076660, 4121.025391, 4153.333008, 4168.717773, 4155.897461, 4188.717773, 4115.384277, 4197.948730, 4157.948730, 4186.153809, 4167.179199, 4137.436035, 4203.589844, 4184.102539, 2793.000000, 8299.000000, 8081.000000, 0.000000, 0.000000, 0.000000, 21951.000000, 102.051277, 4.000000, 4.000000, 4.000000, 4.000000, 4.000000, 4.000000, 4.000000, 4.000000, 4.000000, 4.000000, 4.000000, 4.000000, 4.000000, 4.000000, 4.000000, 4.000000
111.000000, 0.000000, 4200.000000, 4125.641113, 4159.487305, 4168.717773, 4161.025391, 4193.846191, 4111.794922, 4197.948730, 4167.179199, 4194.871582, 4166.153809, 4139.487305, 4202.051270, 4189.743652, 3118.000000, 8302.000000, 8087.000000, 0.000000, 0.000000, 0.000000, 21951.000000, 109.743584, 4.000000, 4.000000, 4.000000, 4.000000, 4.000000, 4.000000, 4.000000, 4.000000, 4.000000, 4.000000, 4.000000, 4.000000, 4.000000, 4.000000, 4.000000, 4.000000
112.000000, 0.000000, 4207.692383, 4136.922852, 4177.948730, 4170.769043, 4163.589844, 4196.410156, 4113.846191, 4200.000000, 4173.333008, 4202.563965, 4167.692383, 4139.487305, 4201.538574, 4199.487305, 3510.000000, 8302.000000, 8087.000000, 0.000000, 0.000000, 0.000000, 21951.000000, 117.435898, 4.000000, 4.000000, 4.000000, 4.000000, 4.000000, 4.000000, 4.000000, 4.000000, 4.000000, 4.000000, 4.000000, 4.000000, 4.000000, 4.000000, 4.000000, 4.000000
113.000000, 0.000000, 4212.820313, 4141.538574, 4186.153809, 4172.307617, 4158.974121, 4191.281738, 4113.846191, 4197.948730, 4170.769043, 4202.051270, 4171.794922, 4143.589844, 4206.666504, 4204.102539, 3507.000000, 8306.000000, 8098.000000, 0.000000, 0.000000, 0.000000, 21951.000000, 125.128204, 4.000000, 4.000000, 4.000000, 4.000000, 4.000000, 4.000000, 4.000000, 4.000000, 4.000000, 4.000000, 4.000000, 4.000000, 4.000000, 4.000000, 4.000000, 4.000000
114.000000, 0.000000, 4205.641113, 4137.948730, 4182.051270, 4166.666504, 4152.820313, 4183.589844, 4107.179199, 4194.358887, 4166.153809, 4198.461426, 4167.179199, 4151.281738, 4200.512695, 4196.922852, 2793.000000, 8306.000000, 8098.000000, 0.000000, 0.000000, 0.000000, 21951.000000, 132.820511, 4.000000, 4.000000, 4.000000, 4.000000, 4.000000, 4.000000, 4.000000, 4.000000, 4.000000, 4.000000, 4.000000, 4.000000, 4.000000, 4.000000, 4.000000, 4.000000
115.000000, 0.000000, 4200.000000, 4133.333008, 4187.692383, 4159.487305, 4152.820313, 4183.076660, 4105.641113, 4195.897461, 4166.666504, 4198.461426, 4158.974121, 4155.384277, 4190.769043, 4191.794922, 3118.000000, 8306.000000, 8104.000000, 0.000000, 0.000000, 0.000000, 21951.000000, 140.512817, 4.000000, 4.000000, 4.000000, 4.000000, 4.000000, 4.000000, 4.000000, 4.000000, 4.000000, 4.000000, 4.000000, 4.000000, 4.000000, 4.000000, 4.000000, 4.000000
116.000000, 0.000000, 4206.666504, 4141.025391, 4203.076660, 4164.615234, 4162.051270, 4186.153809, 4109.743652, 4199.487305, 4170.256348, 4200.512695, 4164.615234, 4156.922852, 4204.102539, 4201.025391, 3510.000000, 8306.000000, 8104.000000, 0.000000, 0.000000, 0.000000, 21951.000000, 148.717941, 4.000000, 4.000000, 4.000000, 4.000000, 4.000000, 4.000000, 4.000000, 4.000000, 4.000000, 4.000000, 4.000000, 4.000000, 4.000000, 4.000000, 4.000000, 4.000000
117.000000, 0.000000, 4216.922852, 4162.563965, 4214.358887, 4179.487305, 4170.769043, 4188.205078, 4110.256348, 4200.512695, 4169.230469, 4203.076660, 4176.410156, 4162.051270, 4222.051270, 4208.717773, 3507.000000, 8301.000000, 8108.000000, 0.000000, 0.000000, 0.000000, 21951.000000, 156.410248, 4.000000, 4.000000, 4.000000, 4.000000, 4.000000, 4.000000, 4.000000, 4.000000, 4.000000, 4.000000, 4.000000, 4.000000, 4.000000, 4.000000, 4.000000, 4.000000
118.000000, 0.000000, 4214.358887, 4172.820313, 4218.461426, 4185.641113, 4171.281738, 4189.743652, 4107.179199, 4193.846191, 4162.051270, 4203.589844, 4173.846191, 4164.102539, 4220.512695, 4203.589844, 2793.000000, 8301.000000, 8108.000000, 0.000000, 0.000000, 0.000000, 21951.000000, 164.102554, 4.000000, 4.000000, 4.000000, 4.000000, 4.000000, 4.000000, 4.000000, 4.000000, 4.000000, 4.000000, 4.000000, 4.000000, 4.000000, 4.000000, 4.000000, 4.000000
119.000000, 0.000000, 4204.102539, 4166.666504, 4216.922852, 4176.922852, 4163.589844, 4182.563965, 4105.641113, 4188.205078, 4148.717773, 4194.871582, 4165.641113, 4157.436035, 4210.256348, 4201.025391, 3118.000000, 8302.000000, 8113.000000, 0.000000, 0.000000, 0.000000, 21951.000000, 171.794861, 4.000000, 4.000000, 4.000000, 4.000000, 4.000000, 4.000000, 4.000000, 4.000000, 4.000000, 4.000000, 4.000000, 4.000000, 4.000000, 4.000000, 4.000000, 4.000000
120.000000, 0.000000, 4202.051270, 4166.666504, 4214.871582, 4169.743652, 4159.487305, 4176.410156, 4100.000000, 4194.871582, 4143.589844, 4186.666504, 4168.205078, 4154.871582, 4207.179199, 4203.589844, 3510.000000, 8302.000000, 8113.000000, 0.000000, 0.000000, 0.000000, 21951.000000, 179.487183, 4.000000, 4.000000, 4.000000, 4.000000, 4.000000, 4.000000, 4.000000, 4.000000, 4.000000, 4.000000, 4.000000, 4.000000, 4.000000, 4.000000, 4.000000, 4.000000
121.000000, 0.000000, 4203.589844, 4168.205078, 4214.358887, 4169.743652, 4157.948730, 4180.000000, 4098.461426, 4201.538574, 4147.179199, 4186.153809, 4168.717773, 4155.384277, 4203.589844, 4200.000000, 3507.000000, 8301.000000, 8121.000000, 0.000000, 0.000000, 0.000000, 21951.000000, 187.179489, 4.000000, 4.000000, 4.000000, 4.000000, 4.000000, 4.000000, 4.000000, 4.000000, 4.000000, 4.000000, 4.000000, 4.000000, 4.000000, 4.000000, 4.000000, 4.000000
122.000000, 0.000000, 4201.538574, 4165.127930, 4212.307617, 4168.717773, 4155.897461, 4184.102539, 4111.794922, 4196.410156, 4145.127930, 4185.641113, 4160.512695, 4152.820313, 4199.487305, 4195.384277, 2793.000000, 8301.000000, 8121.000000, 0.000000, 0.000000, 0.000000, 21951.000000, 194.871796, 4.000000, 4.000000, 4.000000, 4.000000, 4.000000, 4.000000, 4.000000, 4.000000, 4.000000, 4.000000, 4.000000, 4.000000, 4.000000, 4.000000, 4.000000, 4.000000
123.000000, 0.000000, 4203.076660, 4170.769043, 4214.358887, 4165.641113, 4161.025391, 4184.615234, 4111.281738, 4187.692383, 4139.487305, 4182.563965, 4160.000000, 4152.820313, 4199.487305, 4197.948730, 3118.000000, 8297.000000, 8150.000000, 0.000000, 0.000000, 0.000000, 21951.000000, 203.076920, 4.000000, 4.000000, 4.000000, 4.000000, 4.000000, 4.000000, 4.000000, 4.000000, 4.000000, 4.000000, 4.000000, 4.000000, 4.000000, 4.000000, 4.000000, 4.000000
124.000000, 0.000000, 4206.666504, 4176.922852, 4216.922852, 4167.692383, 4169.743652, 4184.102539, 4083.589600, 4188.717773, 4140.000000, 4183.589844, 4165.127930, 4155.384277, 4199.487305, 4201.025391, 3510.000000, 8297.000000, 8150.000000, 0.000000, 0.000000, 0.000000, 21951.000000, 210.769226, 4.000000, 4.000000, 4.000000, 4.000000, 4.000000, 4.000000, 4.000000, 4.000000, 4.000000, 4.000000, 4.000000, 4.000000, 4.000000, 4.000000, 4.000000, 4.000000
125.000000, 0.000000, 4202.563965, 4175.384277, 4214.358887, 4170.769043, 4170.256348, 4182.563965, 4084.102539, 4193.846191, 4140.000000, 4185.641113, 4160.512695, 4155.384277, 4193.846191, 4199.487305, 3507.000000, 8285.000000, 8162.000000, 0.000000, 0.000000, 0.000000, 21951.000000, 218.461533, 4.000000, 4.000000, 4.000000, 4.000000, 4.000000, 4.000000, 4.000000, 4.000000, 4.000000, 4.000000, 4.000000, 4.000000, 4.000000, 4.000000, 4.000000, 4.000000
126.000000, 0.000000, 4199.487305, 4177.436035, 4215.384277, 4166.666504, 4165.641113, 4183.076660, 4102.563965, 4195.897461, 4142.563965, 4184.615234, 4156.922852, 4153.333008, 4185.127930, 4197.948730, 2793.000000, 8285.000000, 8162.000000, 0.000000, 0.000000, 0.000000, 21951.000000, 226.153839, 4.000000, 4.000000, 4.000000, 4.000000, 4.000000, 4.000000, 4.000000, 4.000000, 4.000000, 4.000000, 4.000000, 4.000000, 4.000000, 4.000000, 4.000000, 4.000000
127.000000, 0.000000, 4200.512695, 4182.563965, 4217.436035, 4157.948730, 4168.717773, 4186.666504, 4057.435791, 4195.897461, 4150.256348, 4186.666504, 4166.666504, 4151.281738, 4186.666504, 4197.948730, 57.000000, 8278.000000, 8171.000000, 0.000000, 0.000000, 0.000000, 21951.000000, 233.846146, 4.000000, 4.000000, 4.000000, 4.000000, 4.000000, 4.000000, 4.000000, 4.000000, 4.000000, 4.000000, 4.000000, 4.000000, 4.000000, 4.000000, 4.000000, 4.000000
0.000000, 0.000000, 4197.948730, 4184.102539, 4213.846191, 4154.871582, 4170.769043, 4187.179199, 3997.435791, 4196.410156, 4153.846191, 4192.307617, 4172.307617, 4151.794922, 4190.256348, 4199.487305, 3526.000000, 8278.000000, 8171.000000, 0.000000, 0.000000, 0.000000, 21951.000000, 241.538452, 4.000000, 4.000000, 4.000000, 4.000000, 4.000000, 4.000000, 4.000000, 4.000000, 4.000000, 4.000000, 4.000000, 4.000000, 4.000000, 4.000000, 4.000000, 4.000000
1.000000, 0.000000, 4200.000000, 4185.641113, 4214.871582, 4157.436035, 4169.230469, 4186.153809, 4020.512695, 4198.461426, 4155.384277, 4201.025391, 4170.769043, 4151.794922, 4187.179199, 4201.538574, 3538.000000, 8261.000000, 8192.000000, 0.000000, 0.000000, 0.000000, 21951.000000, 249.743576, 4.000000, 4.000000, 4.000000, 4.000000, 4.000000, 4.000000, 4.000000, 4.000000, 4.000000, 4.000000, 4.000000, 4.000000, 4.000000, 4.000000, 4.000000, 4.000000
2.000000, 0.000000, 4201.538574, 4186.666504, 4219.487305, 4156.410156, 4168.717773, 4185.127930, 4064.615234, 4200.512695, 4157.948730, 4198.461426, 4169.743652, 4144.615234, 4183.076660, 4194.358887, 2251.000000, 8261.000000, 8192.000000, 0.000000, 0.000000, 0.000000, 21951.000000, 257.435883, 4.000000, 4.000000, 4.000000, 4.000000, 4.000000, 4.000000, 4.000000, 4.000000, 4.000000, 4.000000, 4.000000, 4.000000, 4.000000, 4.000000, 4.000000, 4.000000
3.000000, 0.000000, 4193.846191, 4183.589844, 4216.410156, 4151.794922, 4169.743652, 4185.641113, 4062.051270, 4202.051270, 4157.436035, 4190.256348, 4167.692383, 4137.436035, 4183.589844, 4187.692383, 3563.000000, 8251.000000, 8207.000000, 0.000000, 0.000000, 0.000000, 21951.000000, 265.128204, 4.000000, 4.000000, 4.000000, 4.000000, 4.000000, 4.000000, 4.000000, 4.000000, 4.000000, 4.000000, 4.000000, 4.000000, 4.000000, 4.000000, 4.000000, 4.000000
4.000000, 0.000000, 4194.358887, 4184.615234, 4215.897461, 4152.307617, 4170.256348, 4193.333008, 4051.281982, 4198.974121, 4159.487305, 4193.333008, 4167.692383, 4139.487305, 4186.153809, 4194.358887, 3479.000000, 8251.000000, 8207.000000, 0.000000, 0.000000, 0.000000, 21951.000000, 272.820496, 4.000000, 4.000000, 4.000000, 4.000000, 4.000000, 4.000000, 4.000000, 4.000000, 4.000000, 4.000000, 4.000000, 4.000000, 4.000000, 4.000000, 4.000000, 4.000000
5.000000, 0.000000, 4197.436035, 4188.205078, 4227.179199, 4154.871582, 4164.615234, 4193.333008, 4071.281982, 4194.358887, 4160.000000, 4194.358887, 4168.205078, 4141.025391, 4179.487305, 4198.461426, 3580.000000, 8229.000000, 8225.000000, 0.000000, 0.000000, 0.000000, 21951.000000, 281.025635, 4.000000, 4.000000, 4.000000, 4.000000, 4.000000, 4.000000, 4.000000, 4.000000, 4.000000, 4.000000, 4.000000, 4.000000, 4.000000, 4.000000, 4.000000, 4.000000
6.000000, 0.000000, 4191.794922, 4186.666504, 4232.307617, 4152.820313, 4156.410156, 4185.641113, 4117.436035, 4195.897461, 4159.487305, 4185.641113, 4167.179199, 4135.897461, 4168.717773, 4190.769043, 2222.000000, 8229.000000, 8225.000000, 0.000000, 0.000000, 0.000000, 21951.000000, 288.717957, 4.000000, 4.000000, 4.000000, 4.000000, 4.000000, 4.000000, 4.000000, 4.000000, 4.000000, 4.000000, 4.000000, 4.000000, 4.000000, 4.000000, 4.000000, 4.000000
7.000000, 0.000000, 4194.358887, 4187.179199, 4232.820313, 4150.256348, 4154.358887, 4190.256348, 4129.743652, 4197.436035, 4165.127930, 4189.230469, 4170.769043, 4135.897461, 4171.794922, 4192.307617, 1296.000000, 8222.000000, 8233.000000, 0.000000, 0.000000, 0.000000, 21951.000000, 296.410248, 4.000000, 4.000000, 4.000000, 4.000000, 4.000000, 4.000000, 4.000000, 4.000000, 4.000000, 4.000000, 4.000000, 4.000000, 4.000000, 4.000000, 4.000000, 4.000000
8.000000, 0.000000, 4198.461426, 4190.769043, 4240.512695, 4153.846191, 4157.948730, 4197.948730, 4087.692139, 4197.948730, 4170.769043, 4198.461426, 4176.410156, 4144.615234, 4180.000000, 4203.076660, 3530.000000, 8222.000000, 8233.000000, 0.000000, 0.000000, 0.000000, 21951.000000, 304.102570, 4.000000, 4.000000, 4.000000, 4.000000, 4.000000, 4.000000, 4.000000, 4.000000, 4.000000, 4.000000, 4.000000, 4.000000, 4.000000, 4.000000, 4.000000, 4.000000
9.000000, 0.000000, 4194.871582, 4188.205078, 4242.563965, 4150.256348, 4156.922852, 4190.769043, 4068.205078, 4199.487305, 4165.641113, 4192.307617, 4173.333008, 4144.102539, 4175.384277, 4200.000000, 3538.000000, 8215.000000, 8230.000000, 0.000000, 0.000000, 0.000000, 21951.000000, 311.794861, 4.000000, 4.000000, 4.000000, 4.000000, 4.000000, 4.000000, 4.000000, 4.000000, 4.000000, 4.000000, 4.000000, 4.000000, 4.000000, 4.000000, 4.000000, 4.000000
10.000000, 0.000000, 4192.307617, 4182.051270, 4231.281738, 4139.487305, 4153.846191, 4183.589844, 4097.948730, 4200.000000, 4158.461426, 4184.102539, 4166.666504, 4130.769043, 4167.692383, 4187.179199, 2793.000000, 8215.000000, 8230.000000, 0.000000, 0.000000, 0.000000, 21951.000000, 320.000000, 4.000000, 4.000000, 4.000000, 4.000000, 4.000000, 4.000000, 4.000000, 4.000000, 4.000000, 4.000000, 4.000000, 4.000000, 4.000000, 4.000000, 4.000000, 4.000000
11.000000, 0.000000, 4195.897461, 4185.127930, 4228.205078, 4141.025391, 4158.974121, 4191.794922, 4118.461426, 4199.487305, 4161.538574, 4186.666504, 4166.666504, 4126.153809, 4169.743652, 4183.076660, 3266.000000, 8209.000000, 8214.000000, 0.000000, 0.000000, 0.000000, 21951.000000, 327.692291, 4.000000, 4.000000, 4.000000, 4.000000, 4.000000, 4.000000, 4.000000, 4.000000, 4.000000, 4.000000, 4.000000, 4.000000, 4.000000, 4.000000, 4.000000, 4.000000
12.000000, 0.000000, 4201.025391, 4197.948730, 4240.512695, 4154.871582, 4167.692383, 4198.974121, 4105.127930, 4199.487305, 4168.717773, 4195.897461, 4171.281738, 4134.871582, 4178.461426, 4192.820313, 3510.000000, 8209.000000, 8214.000000, 0.000000, 0.000000, 0.000000, 21951.000000, 335.384613, 4.000000, 4.000000, 4.000000, 4.000000, 4.000000, 4.000000, 4.000000, 4.000000, 4.000000, 4.000000, 4.000000, 4.000000, 4.000000, 4.000000, 4.000000, 4.000000
13.000000, 0.000000, 4200.000000, 4205.127930, 4246.153809, 4161.538574, 4173.333008, 4203.589844, 4102.563965, 4200.000000, 4171.281738, 4200.000000, 4173.333008, 4140.512695, 4182.563965, 4201.025391, 3652.000000, 8209.000000, 8208.000000, 0.000000, 0.000000, 0.000000, 21951.000000, 343.076904, 4.000000, 4.000000, 4.000000, 4.000000, 4.000000, 4.000000, 4.000000, 4.000000, 4.000000, 4.000000, 4.000000, 4.000000, 4.000000, 4.000000, 4.000000, 4.000000
14.000000, 0.000000, 4196.410156, 4202.051270, 4238.974121, 4156.410156, 4173.333008, 4209.230469, 4128.717773, 4199.487305, 4168.717773, 4191.794922, 4170.256348, 4137.436035, 4178.461426, 4194.358887, 2793.000000, 8209.000000, 8208.000000, 0.000000, 0.000000, 0.000000, 21951.000000, 350.769226, 4.000000, 4.000000, 4.000000, 4.000000, 4.000000, 4.000000, 4.000000, 4.000000, 4.000000, 4.000000, 4.000000, 4.000000, 4.000000, 4.000000, 4.000000, 4.000000
15.000000, 0.000000, 4193.333008, 4197.436035, 4231.794922, 4150.256348, 4165.641113, 4206.666504, 4139.487305, 4198.974121, 4170.256348, 4183.589844, 4168.205078, 4132.820313, 4171.794922, 4185.127930, 3266.000000, 8218.000000, 8210.000000, 0.000000, 0.000000, 0.000000, 21951.000000, 358.461517, 4.000000, 4.000000, 4.000000, 4.000000, 4.000000, 4.000000, 4.000000, 4.000000, 4.000000, 4.000000, 4.000000, 4.000000, 4.000000, 4.000000, 4.000000, 4.000000
16.000000, 0.000000, 4193.846191, 4198.974121, 4231.794922, 4149.743652, 4162.051270, 4202.563965, 4128.717773, 4200.000000, 4174.358887, 4190.769043, 4169.230469, 4133.846191, 4170.769043, 4190.256348, 0.000000, 8218.000000, 8210.000000, 0.000000, 0.000000, 0.000000, 21951.000000, 366.153839, 4.000000, 4.000000, 4.000000, 4.000000, 4.000000, 4.000000, 4.000000, 4.000000, 4.000000, 4.000000, 4.000000, 4.000000, 4.000000, 4.000000, 4.000000, 4.000000
17.000000, 0.000000, 4197.948730, 4201.538574, 4232.820313, 4148.717773, 4164.615234, 4203.076660, 4130.256348, 4200.512695, 4174.358887, 4200.000000, 4169.230469, 4137.948730, 4172.307617, 4196.922852, 0.000000, 8216.000000, 8210.000000, 0.000000, 0.000000, 0.000000, 21951.000000, 374.358978, 4.000000, 4.000000, 4.000000, 4.000000, 4.000000, 4.000000, 4.000000, 4.000000, 4.000000, 4.000000, 4.000000, 4.000000, 4.000000, 4.000000, 4.000000, 4.000000
18.000000, 0.000000, 4195.897461, 4199.487305, 4232.820313, 4144.615234, 4162.051270, 4203.076660, 4129.743652, 4199.487305, 4172.307617, 4198.974121, 4168.205078, 4140.512695, 4171.794922, 4193.333008, 0.000000, 8216.000000, 8210.000000, 0.000000, 0.000000, 0.000000, 21951.000000, 382.051270, 4.000000, 4.000000, 4.000000, 4.000000, 4.000000, 4.000000, 4.000000, 4.000000, 4.000000, 4.000000, 4.000000, 4.000000, 4.000000, 4.000000, 4.000000, 4.000000
19.000000, 0.000000, 4191.281738, 4198.461426, 4232.820313, 4143.589844, 4156.410156, 4199.487305, 4117.436035, 4198.461426, 4171.794922, 4197.948730, 4168.717773, 4138.974121, 4173.333008, 4187.179199, 0.000000, 8214.000000, 8216.000000, 0.000000, 0.000000, 0.000000, 21951.000000, 389.743591, 4.000000, 4.000000, 4.000000, 4.000000, 4.000000, 4.000000, 4.000000, 4.000000, 4.000000, 4.000000, 4.000000, 4.000000, 4.000000, 4.000000, 4.000000, 4.000000
20.000000, 0.000000, 4192.820313, 4200.512695, 4230.256348, 4147.692383, 4155.897461, 4198.461426, 4113.333008, 4198.974121, 4172.307617, 4200.000000, 4168.205078, 4140.000000, 4173.333008, 4187.692383, 0.000000, 8214.000000, 8216.000000, 0.000000, 0.000000, 0.000000, 21951.000000, 397.435883, 4.000000, 4.000000, 4.000000, 4.000000, 4.000000, 4.000000, 4.000000, 4.000000, 4.000000, 4.000000, 4.000000, 4.000000, 4.000000, 4.000000, 4.000000, 4.000000
21.000000, 0.000000, 4196.410156, 4202.051270, 4229.230469, 4151.794922, 4161.538574, 4204.615234, 4100.000000, 4200.000000, 4173.846191, 4201.538574, 4167.179199, 4141.025391, 4171.794922, 4190.256348, 0.000000, 8211.000000, 8226.000000, 0.000000, 0.000000, 0.000000, 21951.000000, 405.128204, 4.000000, 4.000000, 4.000000, 4.000000, 4.000000, 4.000000, 4.000000, 4.000000, 4.000000, 4.000000, 4.000000, 4.000000, 4.000000, 4.000000, 4.000000, 4.000000
22.000000, 0.000000, 4195.897461, 4201.538574, 4229.743652, 4153.333008, 4168.717773, 4209.230469, 4068.717773, 4199.487305, 4173.846191, 4196.410156, 4165.127930, 4138.461426, 4171.281738, 4194.871582, 0.000000, 8211.000000, 8226.000000, 0.000000, 0.000000, 0.000000, 21951.000000, 412.820496, 4.000000, 4.000000, 4.000000, 4.000000, 4.000000, 4.000000, 4.000000, 4.000000, 4.000000, 4.000000, 4.000000, 4.000000, 4.000000, 4.000000, 4.000000, 4.000000
23.000000, 0.000000, 4192.820313, 4206.666504, 4231.794922, 4153.846191, 4166.666504, 4206.153809, 4075.897217, 4198.974121, 4169.743652, 4193.846191, 4165.127930, 4137.948730, 4171.281738, 4198.974121, 0.000000, 8208.000000, 8229.000000, 0.000000, 0.000000, 0.000000, 21951.000000, 421.025635, 4.000000, 4.000000, 4.000000, 4.000000, 4.000000, 4.000000, 4.000000, 4.000000, 4.000000, 4.000000, 4.000000, 4.000000, 4.000000, 4.000000, 4.000000, 4.000000
24.000000, 0.000000, 4195.897461, 4214.871582, 4234.358887, 4154.871582, 4159.487305, 4200.512695, 4107.179199, 4200.000000, 4168.205078, 4196.922852, 4168.717773, 4141.538574, 4170.769043, 4200.000000, 0.000000, 8208.000000, 8229.000000, 0.000000, 0.000000, 0.000000, 21951.000000, 428.717926, 4.000000, 4.000000, 4.000000, 4.000000, 4.000000, 4.000000, 4.000000, 4.000000, 4.000000, 4.000000, 4.000000, 4.000000, 4.000000, 4.000000, 4.000000, 4.000000
25.000000, 0.000000, 4194.871582, 4215.384277, 4235.384277, 4154.358887, 4162.051270, 4202.051270, 4099.487305, 4198.461426, 4169.743652, 4195.897461, 4168.717773, 4143.589844, 4168.205078, 4201.538574, 0.000000, 8200.000000, 8232.000000, 0.000000, 0.000000, 0.000000, 21951.000000, 436.410248, 4.000000, 4.000000, 4.000000, 4.000000, 4.000000, 4.000000, 4.000000, 4.000000, 4.000000, 4.000000, 4.000000, 4.000000, 4.000000, 4.000000, 4.000000, 4.000000
26.000000, 0.000000, 4187.692383, 4211.281738, 4230.769043, 4149.230469, 4163.076660, 4202.051270, 4088.205078, 4196.410156, 4168.717773, 4187.692383, 4165.641113, 4140.512695, 4167.692383, 4197.948730, 0.000000, 8200.000000, 8232.000000, 0.000000, 0.000000, 0.000000, 21951.000000, 444.102539, 4.000000, 4.000000, 4.000000, 4.000000, 4.000000, 4.000000, 4.000000, 4.000000, 4.000000, 4.000000, 4.000000, 4.000000, 4.000000, 4.000000, 4.000000, 4.000000
27.000000, 0.000000, 4191.281738, 4212.307617, 4227.692383, 4148.205078, 4155.897461, 4198.974121, 4112.307617, 4199.487305, 4166.153809, 4186.153809, 4167.179199, 4139.487305, 4167.692383, 4193.333008, 0.000000, 8194.000000, 8230.000000, 0.000000, 0.000000, 0.000000, 21951.000000, 451.794861, 4.000000, 4.000000, 4.000000, 4.000000, 4.000000, 4.000000, 4.000000, 4.000000, 4.000000, 4.000000, 4.000000, 4.000000, 4.000000, 4.000000, 4.000000, 4.000000
28.000000, 0.000000, 4196.410156, 4214.871582, 4228.717773, 4148.205078, 4153.846191, 4199.487305, 4127.179199, 4201.538574, 4171.281738, 4195.384277, 4171.794922, 4140.512695, 4165.127930, 4196.410156, 0.000000, 8194.000000, 8230.000000, 1.000000, 4.000000, 0.000000, 21951.000000, 460.000000, 4.000000, 4.000000, 4.000000, 4.000000, 4.000000, 4.000000, 4.000000, 4.000000, 4.000000, 4.000000, 4.000000, 4.000000, 4.000000, 4.000000, 4.000000, 4.000000
29.000000, 0.000000, 4194.358887, 4213.333008, 4231.794922, 4148.205078, 4155.384277, 4200.000000, 4121.538574, 4199.487305, 4177.436035, 4200.000000, 4175.384277, 4141.025391, 4167.179199, 4203.589844, 0.000000, 8166.000000, 8236.000000, 0.000000, 0.000000, 0.000000, 21951.000000, 467.692291, 4.000000, 4.000000, 4.000000, 4.000000, 4.000000, 4.000000, 4.000000, 4.000000, 4.000000, 4.000000, 4.000000, 4.000000, 4.000000, 4.000000, 4.000000, 4.000000
30.000000, 0.000000, 4192.820313, 4213.333008, 4230.769043, 4151.281738, 4156.922852, 4200.000000, 4123.589844, 4199.487305, 4174.871582, 4199.487305, 4175.384277, 4143.076660, 4167.179199, 4199.487305, 0.000000, 8166.000000, 8236.000000, 0.000000, 0.000000, 0.000000, 21951.000000, 475.384613, 4.000000, 4.000000, 4.000000, 4.000000, 4.000000, 4.000000, 4.000000, 4.000000, 4.000000, 4.000000, 4.000000, 4.000000, 4.000000, 4.000000, 4.000000, 4.000000
31.000000, 0.000000, 4192.307617, 4214.871582, 4222.051270, 4151.794922, 4157.948730, 4201.538574, 4128.205078, 4201.538574, 4169.230469, 4198.974121, 4173.846191, 4141.538574, 4156.410156, 4185.127930, 0.000000, 8141.000000, 8237.000000, 0.000000, 0.000000, 0.000000, 21951.000000, 483.076904, 4.000000, 4.000000, 4.000000, 4.000000, 4.000000, 4.000000, 4.000000, 4.000000, 4.000000, 4.000000, 4.000000, 4.000000, 4.000000, 4.000000, 4.000000, 4.000000
32.000000, 0.000000, 4192.307617, 4214.871582, 4215.384277, 4149.743652, 4160.512695, 4201.538574, 4136.922852, 4199.487305, 4170.769043, 4197.948730, 4176.922852, 4135.384277, 4148.717773, 4184.615234, 0.000000, 8141.000000, 8237.000000, 0.000000, 0.000000, 0.000000, 21951.000000, 490.769226, 4.000000, 4.000000, 4.000000, 4.000000, 4.000000, 4.000000, 4.000000, 4.000000, 4.000000, 4.000000, 4.000000, 4.000000, 4.000000, 4.000000, 4.000000, 4.000000
33.000000, 0.000000, 4196.410156, 4218.461426, 4216.922852, 4152.307617, 4167.692383, 4205.641113, 4135.897461, 4197.436035, 4171.794922, 4197.436035, 4186.666504, 4138.461426, 4154.871582, 4197.436035, 0.000000, 8100.000000, 8229.000000, 0.000000, 0.000000, 0.000000, 21951.000000, 498.461517, 4.000000, 4.000000, 4.000000, 4.000000, 4.000000, 4.000000, 4.000000, 4.000000, 4.000000, 4.000000, 4.000000, 4.000000, 4.000000, 4.000000, 4.000000, 4.000000
34.000000, 0.000000, 4197.948730, 4221.025391, 4216.410156, 4155.897461, 4171.281738, 4212.820313, 4112.307617, 4198.461426, 4167.692383, 4198.461426, 4196.410156, 4148.205078, 4157.436035, 4203.589844, 0.000000, 8100.000000, 8229.000000, 0.000000, 0.000000, 0.000000, 21951.000000, 506.666656, 4.000000, 4.000000, 4.000000, 4.000000, 4.000000, 4.000000, 4.000000, 4.000000, 4.000000, 4.000000, 4.000000, 4.000000, 4.000000, 4.000000, 4.000000, 4.000000
35.000000, 0.000000, 4193.846191, 4218.974121, 4206.666504, 4152.307617, 4168.717773, 4214.871582, 4118.461426, 4199.487305, 4173.846191, 4202.563965, 4203.076660, 4150.769043, 4153.846191, 4200.000000, 0.000000, 8022.000000, 8259.000000, 0.000000, 0.000000, 0.000000, 21951.000000, 514.358948, 4.000000, 4.000000, 4.000000, 4.000000, 4.000000, 4.000000, 4.000000, 4.000000, 4.000000, 4.000000, 4.000000, 4.000000, 4.000000, 4.000000, 4.000000, 4.000000
36.000000, 0.000000, 4194.871582, 4223.076660, 4202.563965, 4153.333008, 4168.717773, 4215.897461, 4154.871582, 4199.487305, 4186.666504, 4202.563965, 4211.794922, 4152.307617, 4153.846191, 4199.487305, 0.000000, 8022.000000, 8259.000000, 0.000000, 0.000000, 0.000000, 21951.000000, 522.051270, 4.000000, 4.000000, 4.000000, 4.000000, 4.000000, 4.000000, 4.000000, 4.000000, 4.000000, 4.000000, 4.000000, 4.000000, 4.000000, 4.000000, 4.000000, 4.000000
37.000000, 0.000000, 4196.922852, 4231.281738, 4208.205078, 4156.922852, 4171.281738, 4217.948730, 4155.384277, 4198.974121, 4183.076660, 4201.025391, 4215.897461, 4158.974121, 4152.307617, 4202.051270, 0.000000, 7992.000000, 8279.000000, 0.000000, 0.000000, 0.000000, 21951.000000, 529.743591, 4.000000, 4.000000, 4.000000, 4.000000, 4.000000, 4.000000, 4.000000, 4.000000, 4.000000, 4.000000, 4.000000, 4.000000, 4.000000, 4.000000, 4.000000, 4.000000
38.000000, 0.000000, 4189.230469, 4228.205078, 4206.666504, 4149.743652, 4165.641113, 4211.794922, 4134.871582, 4197.948730, 4178.461426, 4201.025391, 4209.230469, 4159.487305, 4150.256348, 4201.538574, 0.000000, 7992.000000, 8279.000000, 0.000000, 0.000000, 0.000000, 21951.000000, 537.435913, 4.000000, 4.000000, 4.000000, 4.000000, 4.000000, 4.000000, 4.000000, 4.000000, 4.000000, 4.000000, 4.000000, 4.000000, 4.000000, 4.000000, 4.000000, 4.000000
39.000000, 0.000000, 4187.179199, 4221.025391, 4203.589844, 4145.127930, 4160.512695, 4202.051270, 4144.615234, 4198.461426, 4181.025391, 4200.512695, 4203.076660, 4153.846191, 4152.307617, 4202.563965, 0.000000, 7936.000000, 8311.000000, 0.000000, 0.000000, 0.000000, 21951.000000, 545.640991, 4.000000, 4.000000, 4.000000, 4.000000, 4.000000, 4.000000, 4.000000, 4.000000, 4.000000, 4.000000, 4.000000, 4.000000, 4.000000, 4.000000, 4.000000, 4.000000
40.000000, 0.000000, 4194.358887, 4223.076660, 4210.769043, 4150.769043, 4165.127930, 4203.589844, 4136.922852, 4200.512695, 4186.666504, 4200.000000, 4208.205078, 4157.948730, 4158.974121, 4202.563965, 0.000000, 7936.000000, 8311.000000, 0.000000, 0.000000, 0.000000, 21951.000000, 553.333313, 4.000000, 4.000000, 4.000000, 4.000000, 4.000000, 4.000000, 4.000000, 4.000000, 4.000000, 4.000000, 4.000000, 4.000000, 4.000000, 4.000000, 4.000000, 4.000000
41.000000, 0.000000, 4193.846191, 4230.256348, 4220.512695, 4155.384277, 4171.281738, 4209.743652, 4114.358887, 4201.538574, 4193.333008, 4204.615234, 4215.897461, 4168.717773, 4166.666504, 4203.076660, 0.000000, 7915.000000, 8327.000000, 0.000000, 0.000000, 0.000000, 21951.000000, 561.025635, 4.000000, 4.000000, 4.000000, 4.000000, 4.000000, 4.000000, 4.000000, 4.000000, 4.000000, 4.000000, 4.000000, 4.000000, 4.000000, 4.000000, 4.000000, 4.000000
42.000000, 0.000000, 4191.794922, 4234.871582, 4221.538574, 4158.461426, 4169.743652, 4206.666504, 4120.512695, 4201.025391, 4194.358887, 4206.666504, 4215.897461, 4170.769043, 4170.256348, 4209.230469, 0.000000, 7915.000000, 8327.000000, 0.000000, 0.000000, 0.000000, 21951.000000, 568.717957, 4.000000, 4.000000, 4.000000, 4.000000, 4.000000, 4.000000, 4.000000, 4.000000, 4.000000, 4.000000, 4.000000, 4.000000, 4.000000, 4.000000, 4.000000, 4.000000
43.000000, 0.000000, 4194.358887, 4232.307617, 4220.000000, 4166.666504, 4166.153809, 4198.974121, 4102.563965, 4197.436035, 4184.102539, 4203.076660, 4216.410156, 4170.256348, 4170.769043, 4211.794922, 0.000000, 7901.000000, 8334.000000, 0.000000, 0.000000, 0.000000, 21951.000000, 576.923035, 4.000000, 4.000000, 4.000000, 4.000000, 4.000000, 4.000000, 4.000000, 4.000000, 4.000000, 4.000000, 4.000000, 4.000000, 4.000000, 4.000000, 4.000000, 4.000000
44.000000, 0.000000, 4195.897461, 4225.127930, 4221.538574, 4168.205078, 4168.717773, 4199.487305, 4061.538330, 4192.820313, 4172.820313, 4200.512695, 4218.974121, 4169.230469, 4173.846191, 4207.179199, 0.000000, 7901.000000, 8334.000000, 0.000000, 0.000000, 0.000000, 21951.000000, 584.615356, 4.000000, 4.000000, 4.000000, 4.000000, 4.000000, 4.000000, 4.000000, 4.000000, 4.000000, 4.000000, 4.000000, 4.000000, 4.000000, 4.000000, 4.000000, 4.000000
45.000000, 0.000000, 4194.358887, 4215.384277, 4215.897461, 4161.025391, 4169.743652, 4204.615234, 4060.512695, 4189.230469, 4161.025391, 4191.281738, 4208.205078, 4162.563965, 4170.769043, 4196.922852, 0.000000, 7894.000000, 8352.000000, 0.000000, 0.000000, 0.000000, 21951.000000, 592.307678, 4.000000, 4.000000, 4.000000, 4.000000, 4.000000, 4.000000, 4.000000, 4.000000, 4.000000, 4.000000, 4.000000, 4.000000, 4.000000, 4.000000, 4.000000, 4.000000
46.000000, 0.000000, 4190.769043, 4200.000000, 4200.000000, 4155.384277, 4162.563965, 4203.589844, 4074.871582, 4187.692383, 4149.743652, 4173.333008, 4189.230469, 4153.333008, 4160.000000, 4186.666504, 0.000000, 7894.000000, 8352.000000, 0.000000, 0.000000, 0.000000, 21951.000000, 600.512817, 4.000000, 4.000000, 4.000000, 4.000000, 4.000000, 4.000000, 4.000000, 4.000000, 4.000000, 4.000000, 4.000000, 4.000000, 4.000000, 4.000000, 4.000000, 4.000000
47.000000, 0.000000, 4191.794922, 4184.102539, 4184.615234, 4152.820313, 4153.846191, 4201.025391, 4072.307617, 4190.769043, 4154.871582, 4172.307617, 4186.153809, 4153.333008, 4160.512695, 4188.717773, 0.000000, 7895.000000, 8369.000000, 0.000000, 0.000000, 0.000000, 21951.000000, 608.205139, 4.000000, 4.000000, 4.000000, 4.000000, 4.000000, 4.000000, 4.000000, 4.000000, 4.000000, 4.000000, 4.000000, 4.000000, 4.000000, 4.000000, 4.000000, 4.000000
48.000000, 0.000000, 4196.922852, 4185.127930, 4183.076660, 4159.487305, 4158.461426, 4205.127930, 4095.897217, 4200.000000, 4174.358887, 4192.820313, 4203.589844, 4163.076660, 4172.820313, 4202.051270, 0.000000, 7895.000000, 8369.000000, 0.000000, 0.000000, 0.000000, 21951.000000, 615.897400, 4.000000, 4.000000, 4.000000, 4.000000, 4.000000, 4.000000, 4.000000, 4.000000, 4.000000, 4.000000, 4.000000, 4.000000, 4.000000, 4.000000, 4.000000, 4.000000
49.000000, 0.000000, 4200.000000, 4198.974121, 4188.205078, 4168.717773, 4163.589844, 4205.641113, 4132.820313, 4203.589844, 4184.615234, 4204.615234, 4213.333008, 4170.769043, 4181.538574, 4206.153809, 0.000000, 7902.000000, 8386.000000, 0.000000, 0.000000, 0.000000, 21951.000000, 624.102539, 4.000000, 4.000000, 4.000000, 4.000000, 4.000000, 4.000000, 4.000000, 4.000000, 4.000000, 4.000000, 4.000000, 4.000000, 4.000000, 4.000000, 4.000000, 4.000000
50.000000, 0.000000, 4196.922852, 4202.051270, 4182.051270, 4167.692383, 4157.948730, 4197.436035, 4135.897461, 4197.948730, 4179.487305, 4198.461426, 4204.615234, 4162.051270, 4182.051270, 4201.538574, 0.000000, 7902.000000, 8386.000000, 0.000000, 0.000000, 0.000000, 21951.000000, 631.794861, 4.000000, 4.000000, 4.000000, 4.000000, 4.000000, 4.000000, 4.000000, 4.000000, 4.000000, 4.000000, 4.000000, 4.000000, 4.000000, 4.000000, 4.000000, 4.000000
51.000000, 0.000000, 4194.871582, 4198.461426, 4172.307617, 4165.641113, 4159.487305, 4198.461426, 4133.333008, 4195.897461, 4186.153809, 4203.076660, 4205.127930, 4155.384277, 4184.102539, 4204.615234, 0.000000, 7908.000000, 8391.000000, 0.000000, 0.000000, 0.000000, 21951.000000, 639.487183, 4.000000, 4.000000, 4.000000, 4.000000, 4.000000, 4.000000, 4.000000, 4.000000, 4.000000, 4.000000, 4.000000, 4.000000, 4.000000, 4.000000, 4.000000, 4.000000
52.000000, 0.000000, 4198.974121, 4202.563965, 4170.769043, 4171.794922, 4170.769043, 4209.743652, 4145.641113, 4201.025391, 4198.974121, 4219.487305, 4216.922852, 4164.102539, 4186.153809, 4206.666504, 0.000000, 7908.000000, 8391.000000, 0.000000, 0.000000, 0.000000, 21951.000000, 647.179443, 4.000000, 4.000000, 4.000000, 4.000000, 4.000000, 4.000000, 4.000000, 4.000000, 4.000000, 4.000000, 4.000000, 4.000000, 4.000000, 4.000000, 4.000000, 4.000000
53.000000, 0.000000, 4198.461426, 4205.641113, 4162.051270, 4171.794922, 4171.281738, 4208.717773, 4141.538574, 4200.512695, 4191.281738, 4214.871582, 4215.384277, 4164.102539, 4177.436035, 4201.538574, 0.000000, 7918.000000, 8413.000000, 0.000000, 0.000000, 0.000000, 21951.000000, 654.871765, 4.000000, 4.000000, 4.000000, 4.000000, 4.000000, 4.000000, 4.000000, 4.000000, 4.000000, 4.000000, 4.000000, 4.000000, 4.000000, 4.000000, 4.000000, 4.000000
54.000000, 0.000000, 4195.384277, 4201.025391, 4143.076660, 4166.153809, 4163.076660, 4199.487305, 4115.384277, 4197.948730, 4178.461426, 4203.589844, 4207.692383, 4155.384277, 4169.230469, 4201.025391, 0.000000, 7918.000000, 8413.000000, 0.000000, 0.000000, 0.000000, 21951.000000, 663.076904, 4.000000, 4.000000, 4.000000, 4.000000, 4.000000, 4.000000, 4.000000, 4.000000, 4.000000, 4.000000, 4.000000, 4.000000, 4.000000, 4.000000, 4.000000, 4.000000
55.000000, 0.000000, 4198.461426, 4195.897461, 4133.333008, 4165.127930, 4157.436035, 4199.487305, 4108.205078, 4198.974121, 4182.051270, 4209.743652, 4211.794922, 4161.538574, 4172.820313, 4201.538574, 0.000000, 7920.000000, 8425.000000, 0.000000, 0.000000, 0.000000, 21951.000000, 670.769226, 4.000000, 4.000000, 4.000000, 4.000000, 4.000000, 4.000000, 4.000000, 4.000000, 4.000000, 4.000000, 4.000000, 4.000000, 4.000000, 4.000000, 4.000000, 4.000000
56.000000, 0.000000, 4202.051270, 4201.025391, 4132.307617, 4168.717773, 4156.410156, 4203.076660, 4122.051270, 4198.461426, 4186.153809, 4216.922852, 4220.512695, 4169.743652, 4181.025391, 4200.512695, 0.000000, 7920.000000, 8425.000000, 0.000000, 0.000000, 0.000000, 21951.000000, 678.461548, 4.000000, 4.000000, 4.000000, 4.000000, 4.000000, 4.000000, 4.000000, 4.000000, 4.000000, 4.000000, 4.000000, 4.000000, 4.000000, 4.000000, 4.000000, 4.000000
57.000000, 0.000000, 4207.179199, 4210.256348, 4128.205078, 4171.794922, 4162.051270, 4201.538574, 4121.025391, 4196.410156, 4184.102539, 4218.461426, 4226.153809, 4170.256348, 4182.563965, 4206.153809, 0.000000, 7921.000000, 8421.000000, 0.000000, 0.000000, 0.000000, 21951.000000, 686.153809, 4.000000, 4.000000, 4.000000, 4.000000, 4.000000, 4.000000, 4.000000, 4.000000, 4.000000, 4.000000, 4.000000, 4.000000, 4.000000, 4.000000, 4.000000, 4.000000
58.000000, 0.000000, 4210.256348, 4214.358887, 4125.641113, 4175.384277, 4170.256348, 4203.076660, 4099.487305, 4197.948730, 4193.846191, 4227.692383, 4235.384277, 4177.436035, 4184.615234, 4215.897461, 0.000000, 7921.000000, 8421.000000, 0.000000, 0.000000, 0.000000, 21951.000000, 693.846130, 4.000000, 4.000000, 4.000000, 4.000000, 4.000000, 4.000000, 4.000000, 4.000000, 4.000000, 4.000000, 4.000000, 4.000000, 4.000000, 4.000000, 4.000000, 4.000000
59.000000, 0.000000, 4199.487305, 4216.922852, 4120.512695, 4179.487305, 4172.307617, 4205.127930, 4074.358887, 4201.538574, 4205.641113, 4236.410156, 4241.025391, 4183.589844, 4187.692383, 4214.358887, 0.000000, 7938.000000, 8416.000000, 0.000000, 0.000000, 0.000000, 21951.000000, 702.051270, 4.000000, 4.000000, 4.000000, 4.000000, 4.000000, 4.000000, 4.000000, 4.000000, 4.000000, 4.000000, 4.000000, 4.000000, 4.000000, 4.000000, 4.000000, 4.000000
60.000000, 0.000000, 4186.666504, 4212.820313, 4105.641113, 4176.922852, 4170.256348, 4203.589844, 4061.538330, 4201.538574, 4202.051270, 4231.281738, 4237.436035, 4170.769043, 4181.025391, 4203.589844, 0.000000, 7938.000000, 8416.000000, 0.000000, 0.000000, 0.000000, 21951.000000, 709.743591, 4.000000, 4.000000, 4.000000, 4.000000, 4.000000, 4.000000, 4.000000, 4.000000, 4.000000, 4.000000, 4.000000, 4.000000, 4.000000, 4.000000, 4.000000, 4.000000
61.000000, 0.000000, 4190.769043, 4205.127930, 4089.743408, 4170.256348, 4168.717773, 4206.666504, 4086.153809, 4200.512695, 4197.436035, 4225.641113, 4231.794922, 4155.897461, 4175.384277, 4197.436035, 0.000000, 7948.000000, 8404.000000, 0.000000, 0.000000, 0.000000, 21951.000000, 717.435852, 4.000000, 4.000000, 4.000000, 4.000000, 4.000000, 4.000000, 4.000000, 4.000000, 4.000000, 4.000000, 4.000000, 4.000000, 4.000000, 4.000000, 4.000000, 4.000000
62.000000, 0.000000, 4205.127930, 4209.743652, 4082.563965, 4168.717773, 4172.307617, 4213.846191, 4135.897461, 4201.538574, 4207.179199, 4229.743652, 4231.281738, 4155.384277, 4179.487305, 4195.897461, 0.000000, 7948.000000, 8404.000000, 0.000000, 0.000000, 0.000000, 21951.000000, 725.640991, 4.000000, 4.000000, 4.000000, 4.000000, 4.000000, 4.000000, 4.000000, 4.000000, 4.000000, 4.000000, 4.000000, 4.000000, 4.000000, 4.000000, 4.000000, 4.000000
63.000000, 0.000000, 4207.179199, 4218.461426, 4080.000000, 4174.358887, 4176.410156, 4214.871582, 4134.871582, 4202.051270, 4213.846191, 4242.051270, 4234.358887, 4160.000000, 4185.127930, 4197.948730, 0.000000, 7993.000000, 8347.000000, 0.000000, 0.000000, 0.000000, 21951.000000, 733.333313, 4.000000, 4.000000, 4.000000, 4.000000, 4.000000, 4.000000, 4.000000, 4.000000, 4.000000, 4.000000, 4.000000, 4.000000, 4.000000, 4.000000, 4.000000, 4.000000
64.000000, 0.000000, 4199.487305, 4216.922852, 4074.871582, 4173.846191, 4172.820313, 4210.769043, 4081.538330, 4200.512695, 4206.153809, 4246.666504, 4233.846191, 4157.436035, 4183.076660, 4200.000000, 3533.000000, 7993.000000, 8347.000000, 0.000000, 0.000000, 0.000000, 21951.000000, 741.538452, 4.000000, 4.000000, 4.000000, 4.000000, 4.000000, 4.000000, 4.000000, 4.000000, 4.000000, 4.000000, 4.000000, 4.000000, 4.000000, 4.000000, 4.000000, 4.000000
65.000000, 0.000000, 4197.436035, 4210.769043, 4072.820313, 4170.256348, 4167.692383, 4206.666504, 4072.307617, 4200.000000, 4197.436035, 4235.897461, 4231.281738, 4154.358887, 4177.436035, 4195.384277, 3540.000000, 8023.000000, 8321.000000, 0.000000, 0.000000, 0.000000, 21951.000000, 749.743591, 4.000000, 4.000000, 4.000000, 4.000000, 4.000000, 4.000000, 4.000000, 4.000000, 4.000000, 4.000000, 4.000000, 4.000000, 4.000000, 4.000000, 4.000000, 4.000000
66.000000, 0.000000, 4201.025391, 4208.717773, 4070.769043, 4175.384277, 4167.692383, 4203.589844, 4117.436035, 4199.487305, 4193.333008, 4230.256348, 4231.281738, 4155.897461, 4178.974121, 4193.846191, 2251.000000, 8023.000000, 8321.000000, 0.000000, 0.000000, 0.000000, 21951.000000, 757.435852, 4.000000, 4.000000, 4.000000, 4.000000, 4.000000, 4.000000, 4.000000, 4.000000, 4.000000, 4.000000, 4.000000, 4.000000, 4.000000, 4.000000, 4.000000, 4.000000
67.000000, 0.000000, 4205.127930, 4206.153809, 4066.666504, 4183.589844, 4168.205078, 4202.563965, 4143.076660, 4198.974121, 4189.743652, 4237.436035, 4229.230469, 4155.384277, 4185.641113, 4197.436035, 3563.000000, 8067.000000, 8305.000000, 0.000000, 0.000000, 0.000000, 21951.000000, 765.128174, 4.000000, 4.000000, 4.000000, 4.000000, 4.000000, 4.000000, 4.000000, 4.000000, 4.000000, 4.000000, 4.000000, 4.000000, 4.000000, 4.000000, 4.000000, 4.000000
68.000000, 0.000000, 4202.563965, 4202.563965, 4069.230713, 4184.102539, 4167.692383, 4202.563965, 4117.436035, 4197.948730, 4189.743652, 4240.512695, 4223.589844, 4154.871582, 4189.743652, 4199.487305, 3479.000000, 8067.000000, 8305.000000, 0.000000, 0.000000, 0.000000, 21951.000000, 773.333313, 4.000000, 4.000000, 4.000000, 4.000000, 4.000000, 4.000000, 4.000000, 4.000000, 4.000000, 4.000000, 4.000000, 4.000000, 4.000000, 4.000000, 4.000000, 4.000000
69.000000, 0.000000, 4197.436035, 4195.384277, 4073.845947, 4182.051270, 4169.743652, 4201.538574, 4078.461426, 4194.358887, 4189.230469, 4234.358887, 4214.871582, 4157.436035, 4191.281738, 4200.000000, 3580.000000, 8158.000000, 8270.000000, 0.000000, 0.000000, 0.000000, 21951.000000, 781.538452, 4.000000, 4.000000, 4.000000, 4.000000, 4.000000, 4.000000, 4.000000, 4.000000, 4.000000, 4.000000, 4.000000, 4.000000, 4.000000, 4.000000, 4.000000, 4.000000
70.000000, 0.000000, 4195.897461, 4180.512695, 4066.153809, 4182.051270, 4165.641113, 4202.563965, 4081.025635, 4189.230469, 4178.461426, 4227.692383, 4203.589844, 4154.358887, 4191.281738, 4195.897461, 2219.000000, 8158.000000, 8270.000000, 0.000000, 0.000000, 0.000000, 21951.000000, 789.230774, 4.000000, 4.000000, 4.000000, 4.000000, 4.000000, 4.000000, 4.000000, 4.000000, 4.000000, 4.000000, 4.000000, 4.000000, 4.000000, 4.000000, 4.000000, 4.000000
71.000000, 0.000000, 4196.410156, 4170.769043, 4061.538330, 4179.487305, 4160.000000, 4203.589844, 4122.051270, 4188.717773, 4173.333008, 4228.205078, 4195.897461, 4152.820313, 4189.743652, 4191.794922, 1165.000000, 8208.000000, 8238.000000, 0.000000, 0.000000, 0.000000, 21951.000000, 797.435852, 4.000000, 4.000000, 4.000000, 4.000000, 4.000000, 4.000000, 4.000000, 4.000000, 4.000000, 4.000000, 4.000000, 4.000000, 4.000000, 4.000000, 4.000000, 4.000000
72.000000, 0.000000, 4201.025391, 4175.384277, 4071.281982, 4186.666504, 4165.641113, 4207.179199, 4147.179199, 4194.358887, 4181.538574, 4238.974121, 4199.487305, 4162.563965, 4192.820313, 4198.461426, 3530.000000, 8208.000000, 8238.000000, 0.000000, 0.000000, 0.000000, 21951.000000, 805.128174, 4.000000, 4.000000, 4.000000, 4.000000, 4.000000, 4.000000, 4.000000, 4.000000, 4.000000, 4.000000, 4.000000, 4.000000, 4.000000, 4.000000, 4.000000, 4.000000
73.000000, 0.000000, 4204.615234, 4188.717773, 4080.000000, 4200.512695, 4172.820313, 4214.358887, 4142.051270, 4199.487305, 4185.641113, 4247.692383, 4210.256348, 4171.794922, 4200.000000, 4210.256348, 3538.000000, 8282.000000, 8229.000000, 0.000000, 0.000000, 0.000000, 21951.000000, 813.333313, 4.000000, 4.000000, 4.000000, 4.000000, 4.000000, 4.000000, 4.000000, 4.000000, 4.000000, 4.000000, 4.000000, 4.000000, 4.000000, 4.000000, 4.000000, 4.000000
74.000000, 0.000000, 4197.436035, 4182.051270, 4082.563965, 4202.563965, 4171.281738, 4219.487305, 4151.794922, 4202.563965, 4187.179199, 4249.230469, 4218.461426, 4177.436035, 4201.538574, 4209.743652, 2799.000000, 8282.000000, 8229.000000, 0.000000, 0.000000, 0.000000, 21951.000000, 821.025635, 4.000000, 4.000000, 4.000000, 4.000000, 4.000000, 4.000000, 4.000000, 4.000000, 4.000000, 4.000000, 4.000000, 4.000000, 4.000000, 4.000000, 4.000000, 4.000000
75.000000, 0.000000, 4193.846191, 4164.615234, 4087.179443, 4198.974121, 4171.281738, 4215.897461, 4164.102539, 4202.051270, 4197.948730, 4250.256348, 4215.897461, 4181.538574, 4200.000000, 4205.127930, 3142.000000, 8317.000000, 8252.000000, 0.000000, 0.000000, 0.000000, 21951.000000, 829.230774, 4.000000, 4.000000, 4.000000, 4.000000, 4.000000, 4.000000, 4.000000, 4.000000, 4.000000, 4.000000, 4.000000, 4.000000, 4.000000, 4.000000, 4.000000, 4.000000
76.000000, 0.000000, 4196.410156, 4173.846191, 4084.102539, 4200.000000, 4174.358887, 4206.666504, 4150.769043, 4198.974121, 4201.538574, 4250.256348, 4205.641113, 4176.410156, 4201.025391, 4204.102539, 3510.000000, 8317.000000, 8252.000000, 0.000000, 0.000000, 0.000000, 21951.000000, 836.923035, 4.000000, 4.000000, 4.000000, 4.000000, 4.000000, 4.000000, 4.000000, 4.000000, 4.000000, 4.000000, 4.000000, 4.000000, 4.000000, 4.000000, 4.000000, 4.000000
77.000000, 0.000000, 4193.846191, 4190.256348, 4074.358887, 4202.563965, 4172.820313, 4202.563965, 4142.051270, 4198.974121, 4198.461426, 4248.717773, 4198.974121, 4167.179199, 4197.948730, 4204.102539, 3530.000000, 8340.000000, 8277.000000, 0.000000, 0.000000, 0.000000, 21951.000000, 845.128174, 4.000000, 4.000000, 4.000000, 4.000000, 4.000000, 4.000000, 4.000000, 4.000000, 4.000000, 4.000000, 4.000000, 4.000000, 4.000000, 4.000000, 4.000000, 4.000000
78.000000, 0.000000, 4192.820313, 4188.717773, 4078.461426, 4202.051270, 4171.794922, 4208.205078, 4136.410156, 4201.538574, 4211.281738, 4250.256348, 4199.487305, 4168.717773, 4192.307617, 4206.153809, 2799.000000, 8340.000000, 8277.000000, 0.000000, 0.000000, 0.000000, 21951.000000, 852.820496, 4.000000, 4.000000, 4.000000, 4.000000, 4.000000, 4.000000, 4.000000, 4.000000, 4.000000, 4.000000, 4.000000, 4.000000, 4.000000, 4.000000, 4.000000, 4.000000
79.000000, 0.000000, 4194.358887, 4186.153809, 4089.743408, 4200.000000, 4173.333008, 4211.281738, 4123.589844, 4201.538574, 4217.436035, 4248.205078, 4198.974121, 4169.230469, 4186.153809, 4202.051270, 3142.000000, 8378.000000, 8304.000000, 0.000000, 0.000000, 0.000000, 21951.000000, 861.025635, 4.000000, 4.000000, 4.000000, 4.000000, 4.000000, 4.000000, 4.000000, 4.000000, 4.000000, 4.000000, 4.000000, 4.000000, 4.000000, 4.000000, 4.000000, 4.000000
80.000000, 0.000000, 4192.307617, 4192.307617, 4090.256348, 4198.974121, 4172.820313, 4203.076660, 4132.307617, 4199.487305, 4211.281738, 4242.563965, 4196.410156, 4166.153809, 4181.538574, 4198.974121, 3510.000000, 8378.000000, 8304.000000, 0.000000, 0.000000, 0.000000, 21951.000000, 868.717957, 4.000000, 4.000000, 4.000000, 4.000000, 4.000000, 4.000000, 4.000000, 4.000000, 4.000000, 4.000000, 4.000000, 4.000000, 4.000000, 4.000000, 4.000000, 4.000000
81.000000, 0.000000, 4192.307617, 4191.794922, 4093.845947, 4198.974121, 4171.281738, 4200.512695, 4145.641113, 4200.512695, 4216.922852, 4247.179199, 4198.974121, 4170.256348, 4183.589844, 4208.205078, 3530.000000, 8390.000000, 8297.000000, 0.000000, 0.000000, 0.000000, 21951.000000, 876.923035, 4.000000, 4.000000, 4.000000, 4.000000, 4.000000, 4.000000, 4.000000, 4.000000, 4.000000, 4.000000, 4.000000, 4.000000, 4.000000, 4.000000, 4.000000, 4.000000
82.000000, 0.000000, 4191.794922, 4187.179199, 4101.025391, 4193.846191, 4170.256348, 4205.127930, 4135.384277, 4201.538574, 4219.487305, 4247.692383, 4207.692383, 4170.769043, 4188.717773, 4213.333008, 2799.000000, 8390.000000, 8297.000000, 0.000000, 0.000000, 0.000000, 21951.000000, 885.128174, 4.000000, 4.000000, 4.000000, 4.000000, 4.000000, 4.000000, 4.000000, 4.000000, 4.000000, 4.000000, 4.000000, 4.000000, 4.000000, 4.000000, 4.000000, 4.000000
