title:neutral-8, recorded:15.05.18 09.29.36, timestamp started:2018-05-12T20:28:52.032863+02:00            , sampling:128, subject:Noé, labels:COUNTER INTERPOLATED AF3 F7 F3 FC5 T7 P7 O1 O2 P8 T8 FC6 F4 F8 AF4 RAW_CQ GYROX GYROY MARKER MARKER_HARDWARE SYNC TIME_STAMP_s TIME_STAMP_ms CQ_AF3 CQ_F7 CQ_F3 CQ_FC5 CQ_T7 CQ_P7 CQ_O1 CQ_O2 CQ_P8 CQ_T8 CQ_FC6 CQ_F4 CQ_F8 CQ_AF4 CQ_CMS CQ_DRL, chan:40, samples:7392, units:emotiv
65.000000, 0.000000, 4199.487305, 4240.000000, 4190.256348, 4197.436035, 4209.743652, 4189.743652, 4204.102539, 4202.563965, 4186.153809, 4209.743652, 4167.179199, 4169.743652, 4240.000000, 4216.922852, 3541.000000, 8258.000000, 8324.000000, 0.000000, 0.000000, 0.000000, 23037.000000, 116.410255, 4.000000, 4.000000, 4.000000, 4.000000, 4.000000, 4.000000, 4.000000, 4.000000, 4.000000, 4.000000, 4.000000, 4.000000, 4.000000, 4.000000, 4.000000, 4.000000
66.000000, 0.000000, 4202.563965, 4254.358887, 4196.922852, 4205.641113, 4216.410156, 4195.384277, 4204.615234, 4201.538574, 4194.358887, 4218.974121, 4183.076660, 4173.333008, 4252.307617, 4206.153809, 1956.000000, 8258.000000, 8324.000000, 0.000000, 0.000000, 0.000000, 23037.000000, 124.102562, 4.000000, 4.000000, 4.000000, 4.000000, 4.000000, 4.000000, 4.000000, 4.000000, 4.000000, 4.000000, 4.000000, 4.000000, 4.000000, 4.000000, 4.000000, 4.000000
67.000000, 0.000000, 4202.051270, 4251.794922, 4198.461426, 4203.589844, 4221.538574, 4193.333008, 4212.820313, 4202.051270, 4200.512695, 4218.461426, 4190.256348, 4181.538574, 4254.358887, 4185.641113, 3568.000000, 8177.000000, 8280.000000, 0.000000, 0.000000, 0.000000, 23037.000000, 131.794876, 4.000000, 4.000000, 4.000000, 4.000000, 4.000000, 4.000000, 4.000000, 4.000000, 4.000000, 4.000000, 4.000000, 4.000000, 4.000000, 4.000000, 4.000000, 4.000000
68.000000, 0.000000, 4197.948730, 4237.948730, 4196.922852, 4198.974121, 4213.333008, 4188.205078, 4214.358887, 4202.051270, 4202.051270, 4220.000000, 4196.410156, 4187.179199, 4249.743652, 4200.512695, 3474.000000, 8177.000000, 8280.000000, 0.000000, 0.000000, 0.000000, 23037.000000, 140.000000, 4.000000, 4.000000, 4.000000, 4.000000, 4.000000, 4.000000, 4.000000, 4.000000, 4.000000, 4.000000, 4.000000, 4.000000, 4.000000, 4.000000, 4.000000, 4.000000
69.000000, 0.000000, 4196.922852, 4237.948730, 4193.333008, 4202.051270, 4203.589844, 4184.615234, 4205.641113, 4201.538574, 4203.589844, 4221.025391, 4207.179199, 4178.974121, 4250.256348, 4232.307617, 3574.000000, 8145.000000, 8241.000000, 0.000000, 0.000000, 0.000000, 23037.000000, 147.692307, 4.000000, 4.000000, 4.000000, 4.000000, 4.000000, 4.000000, 4.000000, 4.000000, 4.000000, 4.000000, 4.000000, 4.000000, 4.000000, 4.000000, 4.000000, 4.000000
70.000000, 0.000000, 4198.461426, 4246.153809, 4187.179199, 4202.563965, 4209.743652, 4191.794922, 4202.051270, 4201.025391, 4208.717773, 4225.127930, 4216.410156, 4170.769043, 4258.974121, 4238.974121, 2994.000000, 8145.000000, 8241.000000, 0.000000, 0.000000, 0.000000, 23037.000000, 155.897430, 4.000000, 4.000000, 4.000000, 4.000000, 4.000000, 4.000000, 4.000000, 4.000000, 4.000000, 4.000000, 4.000000, 4.000000, 4.000000, 4.000000, 4.000000, 4.000000
71.000000, 0.000000, 4201.025391, 4252.307617, 4187.179199, 4202.563965, 4221.538574, 4199.487305, 4207.179199, 4201.538574, 4209.743652, 4230.769043, 4214.871582, 4172.307617, 4263.589844, 4226.153809, 615.000000, 8093.000000, 8168.000000, 0.000000, 0.000000, 0.000000, 23037.000000, 163.589737, 4.000000, 4.000000, 4.000000, 4.000000, 4.000000, 4.000000, 4.000000, 4.000000, 4.000000, 4.000000, 4.000000, 4.000000, 4.000000, 4.000000, 4.000000, 4.000000
72.000000, 0.000000, 4198.461426, 4248.717773, 4188.205078, 4203.589844, 4221.538574, 4194.871582, 4208.717773, 4203.076660, 4200.000000, 4218.461426, 4206.666504, 4167.179199, 4254.871582, 4224.102539, 3532.000000, 8093.000000, 8168.000000, 0.000000, 0.000000, 0.000000, 23037.000000, 171.282043, 4.000000, 4.000000, 4.000000, 4.000000, 4.000000, 4.000000, 4.000000, 4.000000, 4.000000, 4.000000, 4.000000, 4.000000, 4.000000, 4.000000, 4.000000, 4.000000
73.000000, 0.000000, 4189.743652, 4234.871582, 4177.436035, 4203.076660, 4208.717773, 4185.641113, 4203.076660, 4200.512695, 4186.153809, 4200.512695, 4202.051270, 4157.436035, 4246.153809, 4226.666504, 3541.000000, 8078.000000, 8128.000000, 0.000000, 0.000000, 0.000000, 23037.000000, 179.487183, 4.000000, 4.000000, 4.000000, 4.000000, 4.000000, 4.000000, 4.000000, 4.000000, 4.000000, 4.000000, 4.000000, 4.000000, 4.000000, 4.000000, 4.000000, 4.000000
74.000000, 0.000000, 4191.794922, 4228.205078, 4168.717773, 4200.000000, 4207.692383, 4189.230469, 4204.102539, 4203.076660, 4186.666504, 4198.461426, 4203.076660, 4162.563965, 4247.692383, 4212.820313, 2468.000000, 8078.000000, 8128.000000, 0.000000, 0.000000, 0.000000, 23037.000000, 187.179489, 4.000000, 4.000000, 4.000000, 4.000000, 4.000000, 4.000000, 4.000000, 4.000000, 4.000000, 4.000000, 4.000000, 4.000000, 4.000000, 4.000000, 4.000000, 4.000000
75.000000, 0.000000, 4196.922852, 4240.000000, 4175.384277, 4201.025391, 4218.461426, 4195.897461, 4213.333008, 4210.769043, 4200.000000, 4201.538574, 4207.179199, 4174.871582, 4255.897461, 4205.127930, 3053.000000, 8074.000000, 8044.000000, 0.000000, 0.000000, 0.000000, 23037.000000, 194.871796, 4.000000, 4.000000, 4.000000, 4.000000, 4.000000, 4.000000, 4.000000, 4.000000, 4.000000, 4.000000, 4.000000, 4.000000, 4.000000, 4.000000, 4.000000, 4.000000
76.000000, 0.000000, 4199.487305, 4247.179199, 4186.666504, 4202.563965, 4218.461426, 4195.897461, 4218.461426, 4209.230469, 4205.127930, 4207.179199, 4213.846191, 4175.897461, 4263.589844, 4221.025391, 3503.000000, 8074.000000, 8044.000000, 0.000000, 0.000000, 0.000000, 23037.000000, 203.076920, 4.000000, 4.000000, 4.000000, 4.000000, 4.000000, 4.000000, 4.000000, 4.000000, 4.000000, 4.000000, 4.000000, 4.000000, 4.000000, 4.000000, 4.000000, 4.000000
77.000000, 0.000000, 4197.948730, 4240.512695, 4184.102539, 4202.051270, 4210.769043, 4197.948730, 4216.410156, 4202.051270, 4204.615234, 4218.974121, 4215.384277, 4172.307617, 4262.563965, 4238.974121, 3279.000000, 8082.000000, 8008.000000, 0.000000, 0.000000, 0.000000, 23037.000000, 210.769226, 4.000000, 4.000000, 4.000000, 4.000000, 4.000000, 4.000000, 4.000000, 4.000000, 4.000000, 4.000000, 4.000000, 4.000000, 4.000000, 4.000000, 4.000000, 4.000000
78.000000, 0.000000, 4191.281738, 4230.769043, 4172.820313, 4200.512695, 4212.820313, 4198.461426, 4211.794922, 4201.538574, 4205.641113, 4216.922852, 4208.205078, 4169.743652, 4255.897461, 4239.487305, 2468.000000, 8082.000000, 8008.000000, 0.000000, 0.000000, 0.000000, 23037.000000, 218.461533, 4.000000, 4.000000, 4.000000, 4.000000, 4.000000, 4.000000, 4.000000, 4.000000, 4.000000, 4.000000, 4.000000, 4.000000, 4.000000, 4.000000, 4.000000, 4.000000
79.000000, 0.000000, 4190.769043, 4219.487305, 4167.179199, 4194.871582, 4217.436035, 4190.769043, 4204.615234, 4202.051270, 4198.461426, 4203.076660, 4199.487305, 4159.487305, 4249.230469, 4229.743652, 3053.000000, 8089.000000, 7970.000000, 0.000000, 0.000000, 0.000000, 23037.000000, 226.666656, 4.000000, 4.000000, 4.000000, 4.000000, 4.000000, 4.000000, 4.000000, 4.000000, 4.000000, 4.000000, 4.000000, 4.000000, 4.000000, 4.000000, 4.000000, 4.000000
80.000000, 0.000000, 4191.281738, 4219.487305, 4167.179199, 4188.717773, 4204.102539, 4181.538574, 4197.948730, 4200.000000, 4184.102539, 4192.820313, 4187.179199, 4151.281738, 4238.461426, 4225.127930, 3503.000000, 8089.000000, 7970.000000, 0.000000, 0.000000, 0.000000, 23037.000000, 234.358963, 4.000000, 4.000000, 4.000000, 4.000000, 4.000000, 4.000000, 4.000000, 4.000000, 4.000000, 4.000000, 4.000000, 4.000000, 4.000000, 4.000000, 4.000000, 4.000000
81.000000, 0.000000, 4191.281738, 4226.666504, 4167.692383, 4187.692383, 4196.410156, 4183.076660, 4202.051270, 4202.051270, 4184.615234, 4191.794922, 4183.589844, 4158.974121, 4236.922852, 4230.256348, 3279.000000, 8109.000000, 7915.000000, 0.000000, 0.000000, 0.000000, 23037.000000, 242.564102, 4.000000, 4.000000, 4.000000, 4.000000, 4.000000, 4.000000, 4.000000, 4.000000, 4.000000, 4.000000, 4.000000, 4.000000, 4.000000, 4.000000, 4.000000, 4.000000
82.000000, 0.000000, 4197.436035, 4226.153809, 4170.769043, 4188.717773, 4202.563965, 4188.205078, 4204.615234, 4203.589844, 4191.281738, 4196.922852, 4194.358887, 4171.794922, 4247.692383, 4223.589844, 2468.000000, 8109.000000, 7915.000000, 0.000000, 0.000000, 0.000000, 23037.000000, 250.256409, 4.000000, 4.000000, 4.000000, 4.000000, 4.000000, 4.000000, 4.000000, 4.000000, 4.000000, 4.000000, 4.000000, 4.000000, 4.000000, 4.000000, 4.000000, 4.000000
83.000000, 0.000000, 4196.410156, 4225.641113, 4176.410156, 4191.794922, 4203.076660, 4187.692383, 4198.461426, 4200.512695, 4188.717773, 4200.512695, 4192.307617, 4173.333008, 4248.717773, 4194.871582, 3053.000000, 8123.000000, 7901.000000, 0.000000, 0.000000, 0.000000, 23037.000000, 257.948700, 4.000000, 4.000000, 4.000000, 4.000000, 4.000000, 4.000000, 4.000000, 4.000000, 4.000000, 4.000000, 4.000000, 4.000000, 4.000000, 4.000000, 4.000000, 4.000000
84.000000, 0.000000, 4194.871582, 4228.205078, 4181.025391, 4196.410156, 4203.589844, 4189.743652, 4198.461426, 4201.538574, 4188.205078, 4200.000000, 4182.051270, 4166.153809, 4245.641113, 4182.051270, 3503.000000, 8123.000000, 7901.000000, 0.000000, 0.000000, 0.000000, 23037.000000, 266.153839, 4.000000, 4.000000, 4.000000, 4.000000, 4.000000, 4.000000, 4.000000, 4.000000, 4.000000, 4.000000, 4.000000, 4.000000, 4.000000, 4.000000, 4.000000, 4.000000
85.000000, 0.000000, 4198.974121, 4226.153809, 4186.153809, 4204.102539, 4214.358887, 4197.436035, 4203.589844, 4202.051270, 4197.948730, 4207.692383, 4191.281738, 4168.205078, 4250.769043, 4194.871582, 3279.000000, 8149.000000, 7887.000000, 0.000000, 0.000000, 0.000000, 23037.000000, 273.846161, 4.000000, 4.000000, 4.000000, 4.000000, 4.000000, 4.000000, 4.000000, 4.000000, 4.000000, 4.000000, 4.000000, 4.000000, 4.000000, 4.000000, 4.000000, 4.000000
86.000000, 0.000000, 4198.461426, 4228.205078, 4191.281738, 4210.256348, 4217.948730, 4202.563965, 4202.563965, 4201.538574, 4201.538574, 4220.512695, 4205.127930, 4181.025391, 4251.794922, 4197.948730, 2468.000000, 8149.000000, 7887.000000, 0.000000, 0.000000, 0.000000, 23037.000000, 281.538452, 4.000000, 4.000000, 4.000000, 4.000000, 4.000000, 4.000000, 4.000000, 4.000000, 4.000000, 4.000000, 4.000000, 4.000000, 4.000000, 4.000000, 4.000000, 4.000000
87.000000, 0.000000, 4195.384277, 4233.846191, 4191.794922, 4205.641113, 4212.307617, 4202.563965, 4204.102539, 4201.025391, 4190.769043, 4216.922852, 4196.410156, 4186.666504, 4246.153809, 4198.974121, 3053.000000, 8158.000000, 7890.000000, 0.000000, 0.000000, 0.000000, 23037.000000, 289.230774, 4.000000, 4.000000, 4.000000, 4.000000, 4.000000, 4.000000, 4.000000, 4.000000, 4.000000, 4.000000, 4.000000, 4.000000, 4.000000, 4.000000, 4.000000, 4.000000
88.000000, 0.000000, 4196.410156, 4238.461426, 4192.820313, 4200.512695, 4221.025391, 4203.076660, 4210.769043, 4201.538574, 4186.153809, 4204.615234, 4189.743652, 4187.692383, 4246.153809, 4219.487305, 3503.000000, 8158.000000, 7890.000000, 0.000000, 0.000000, 0.000000, 23037.000000, 297.435883, 4.000000, 4.000000, 4.000000, 4.000000, 4.000000, 4.000000, 4.000000, 4.000000, 4.000000, 4.000000, 4.000000, 4.000000, 4.000000, 4.000000, 4.000000, 4.000000
89.000000, 0.000000, 4196.410156, 4235.897461, 4192.820313, 4206.666504, 4233.846191, 4203.589844, 4211.281738, 4202.051270, 4194.871582, 4203.076660, 4190.769043, 4187.179199, 4240.512695, 4238.461426, 3279.000000, 8165.000000, 7888.000000, 0.000000, 0.000000, 0.000000, 23037.000000, 305.641022, 4.000000, 4.000000, 4.000000, 4.000000, 4.000000, 4.000000, 4.000000, 4.000000, 4.000000, 4.000000, 4.000000, 4.000000, 4.000000, 4.000000, 4.000000, 4.000000
90.000000, 0.000000, 4190.256348, 4212.307617, 4186.153809, 4206.153809, 4224.615234, 4200.512695, 4203.589844, 4201.025391, 4194.358887, 4202.563965, 4176.922852, 4176.410156, 4229.743652, 4232.820313, 2468.000000, 8165.000000, 7888.000000, 0.000000, 0.000000, 0.000000, 23037.000000, 313.333313, 4.000000, 4.000000, 4.000000, 4.000000, 4.000000, 4.000000, 4.000000, 4.000000, 4.000000, 4.000000, 4.000000, 4.000000, 4.000000, 4.000000, 4.000000, 4.000000
91.000000, 0.000000, 4190.769043, 4202.563965, 4182.051270, 4196.922852, 4212.820313, 4199.487305, 4199.487305, 4201.538574, 4184.615234, 4200.512695, 4169.743652, 4166.153809, 4230.256348, 4225.127930, 3053.000000, 8169.000000, 7876.000000, 0.000000, 0.000000, 0.000000, 23037.000000, 321.025635, 4.000000, 4.000000, 4.000000, 4.000000, 4.000000, 4.000000, 4.000000, 4.000000, 4.000000, 4.000000, 4.000000, 4.000000, 4.000000, 4.000000, 4.000000, 4.000000
92.000000, 0.000000, 4198.974121, 4222.051270, 4187.692383, 4200.000000, 4215.897461, 4201.025391, 4202.563965, 4202.563965, 4184.102539, 4200.000000, 4181.025391, 4170.256348, 4237.436035, 4240.512695, 3503.000000, 8169.000000, 7876.000000, 0.000000, 0.000000, 0.000000, 23037.000000, 329.230774, 4.000000, 4.000000, 4.000000, 4.000000, 4.000000, 4.000000, 4.000000, 4.000000, 4.000000, 4.000000, 4.000000, 4.000000, 4.000000, 4.000000, 4.000000, 4.000000
93.000000, 0.000000, 4195.897461, 4223.589844, 4189.743652, 4204.615234, 4217.436035, 4200.000000, 4202.563965, 4201.538574, 4187.179199, 4200.512695, 4178.974121, 4175.384277, 4235.897461, 4249.230469, 3279.000000, 8169.000000, 7870.000000, 0.000000, 0.000000, 0.000000, 23037.000000, 336.923065, 4.000000, 4.000000, 4.000000, 4.000000, 4.000000, 4.000000, 4.000000, 4.000000, 4.000000, 4.000000, 4.000000, 4.000000, 4.000000, 4.000000, 4.000000, 4.000000
94.000000, 0.000000, 4192.307617, 4202.563965, 4186.153809, 4199.487305, 4215.897461, 4199.487305, 4203.589844, 4200.000000, 4184.102539, 4196.410156, 4164.615234, 4174.871582, 4226.153809, 4233.333008, 2468.000000, 8169.000000, 7870.000000, 0.000000, 0.000000, 0.000000, 23037.000000, 344.615387, 4.000000, 4.000000, 4.000000, 4.000000, 4.000000, 4.000000, 4.000000, 4.000000, 4.000000, 4.000000, 4.000000, 4.000000, 4.000000, 4.000000, 4.000000, 4.000000
95.000000, 0.000000, 4196.922852, 4202.051270, 4189.230469, 4195.897461, 4219.487305, 4203.076660, 4213.333008, 4201.538574, 4184.102539, 4188.717773, 4170.769043, 4175.897461, 4220.512695, 4210.256348, 3053.000000, 8165.000000, 7868.000000, 0.000000, 0.000000, 0.000000, 23037.000000, 352.307678, 4.000000, 4.000000, 4.000000, 4.000000, 4.000000, 4.000000, 4.000000, 4.000000, 4.000000, 4.000000, 4.000000, 4.000000, 4.000000, 4.000000, 4.000000, 4.000000
96.000000, 0.000000, 4192.307617, 4205.641113, 4188.717773, 4190.769043, 4212.820313, 4204.615234, 4216.922852, 4202.051270, 4182.563965, 4184.102539, 4174.358887, 4173.333008, 4219.487305, 4195.384277, 3503.000000, 8165.000000, 7868.000000, 0.000000, 0.000000, 0.000000, 23037.000000, 360.512817, 4.000000, 4.000000, 4.000000, 4.000000, 4.000000, 4.000000, 4.000000, 4.000000, 4.000000, 4.000000, 4.000000, 4.000000, 4.000000, 4.000000, 4.000000, 4.000000
97.000000, 0.000000, 4186.666504, 4186.153809, 4176.410156, 4184.615234, 4200.000000, 4195.384277, 4208.205078, 4201.025391, 4170.769043, 4178.974121, 4155.384277, 4165.127930, 4212.307617, 4185.127930, 3279.000000, 8156.000000, 7867.000000, 0.000000, 0.000000, 0.000000, 23037.000000, 368.205109, 4.000000, 4.000000, 4.000000, 4.000000, 4.000000, 4.000000, 4.000000, 4.000000, 4.000000, 4.000000, 4.000000, 4.000000, 4.000000, 4.000000, 4.000000, 4.000000
98.000000, 0.000000, 4191.281738, 4175.384277, 4172.820313, 4181.538574, 4203.589844, 4186.153809, 4200.000000, 4201.538574, 4165.127930, 4174.358887, 4150.256348, 4165.127930, 4202.563965, 4187.179199, 2468.000000, 8156.000000, 7867.000000, 0.000000, 0.000000, 0.000000, 23037.000000, 375.897430, 4.000000, 4.000000, 4.000000, 4.000000, 4.000000, 4.000000, 4.000000, 4.000000, 4.000000, 4.000000, 4.000000, 4.000000, 4.000000, 4.000000, 4.000000, 4.000000
99.000000, 0.000000, 4197.948730, 4185.641113, 4182.563965, 4182.051270, 4214.358887, 4186.153809, 4202.051270, 4202.051270, 4173.846191, 4178.974121, 4165.127930, 4176.922852, 4202.051270, 4200.512695, 3053.000000, 8141.000000, 7894.000000, 0.000000, 0.000000, 0.000000, 23037.000000, 384.102570, 4.000000, 4.000000, 4.000000, 4.000000, 4.000000, 4.000000, 4.000000, 4.000000, 4.000000, 4.000000, 4.000000, 4.000000, 4.000000, 4.000000, 4.000000, 4.000000
100.000000, 0.000000, 4197.948730, 4193.846191, 4186.153809, 4181.025391, 4213.846191, 4188.717773, 4206.666504, 4201.538574, 4184.615234, 4188.205078, 4172.307617, 4181.025391, 4204.615234, 4201.538574, 3503.000000, 8141.000000, 7894.000000, 0.000000, 0.000000, 0.000000, 23037.000000, 391.794861, 4.000000, 4.000000, 4.000000, 4.000000, 4.000000, 4.000000, 4.000000, 4.000000, 4.000000, 4.000000, 4.000000, 4.000000, 4.000000, 4.000000, 4.000000, 4.000000
101.000000, 0.000000, 4194.871582, 4196.922852, 4183.076660, 4184.102539, 4212.307617, 4193.846191, 4210.769043, 4202.051270, 4185.641113, 4187.692383, 4167.179199, 4171.794922, 4202.563965, 4196.922852, 3279.000000, 8113.000000, 7914.000000, 0.000000, 0.000000, 0.000000, 23037.000000, 400.000000, 4.000000, 4.000000, 4.000000, 4.000000, 4.000000, 4.000000, 4.000000, 4.000000, 4.000000, 4.000000, 4.000000, 4.000000, 4.000000, 4.000000, 4.000000, 4.000000
102.000000, 0.000000, 4200.512695, 4205.641113, 4186.666504, 4191.281738, 4220.000000, 4201.538574, 4216.922852, 4203.589844, 4185.127930, 4183.589844, 4168.205078, 4173.333008, 4203.589844, 4202.563965, 2468.000000, 8113.000000, 7914.000000, 0.000000, 0.000000, 0.000000, 23037.000000, 407.692291, 4.000000, 4.000000, 4.000000, 4.000000, 4.000000, 4.000000, 4.000000, 4.000000, 4.000000, 4.000000, 4.000000, 4.000000, 4.000000, 4.000000, 4.000000, 4.000000
103.000000, 0.000000, 4200.000000, 4197.948730, 4187.179199, 4190.769043, 4221.025391, 4198.974121, 4214.871582, 4203.076660, 4185.127930, 4184.615234, 4170.769043, 4180.000000, 4203.589844, 4205.641113, 3053.000000, 8112.000000, 7929.000000, 0.000000, 0.000000, 0.000000, 23037.000000, 415.897430, 4.000000, 4.000000, 4.000000, 4.000000, 4.000000, 4.000000, 4.000000, 4.000000, 4.000000, 4.000000, 4.000000, 4.000000, 4.000000, 4.000000, 4.000000, 4.000000
104.000000, 0.000000, 4194.871582, 4185.127930, 4184.615234, 4189.230469, 4217.948730, 4191.794922, 4209.230469, 4202.051270, 4185.127930, 4185.641113, 4172.307617, 4181.538574, 4200.000000, 4212.307617, 3503.000000, 8112.000000, 7929.000000, 0.000000, 0.000000, 0.000000, 23037.000000, 423.589722, 4.000000, 4.000000, 4.000000, 4.000000, 4.000000, 4.000000, 4.000000, 4.000000, 4.000000, 4.000000, 4.000000, 4.000000, 4.000000, 4.000000, 4.000000, 4.000000
105.000000, 0.000000, 4200.512695, 4191.794922, 4193.846191, 4195.384277, 4217.948730, 4191.794922, 4211.794922, 4202.051270, 4185.641113, 4187.692383, 4183.076660, 4188.205078, 4200.512695, 4235.384277, 3279.000000, 8124.000000, 7945.000000, 0.000000, 0.000000, 0.000000, 23037.000000, 431.794861, 4.000000, 4.000000, 4.000000, 4.000000, 4.000000, 4.000000, 4.000000, 4.000000, 4.000000, 4.000000, 4.000000, 4.000000, 4.000000, 4.000000, 4.000000, 4.000000
106.000000, 0.000000, 4202.051270, 4192.307617, 4203.589844, 4200.512695, 4214.358887, 4191.281738, 4214.358887, 4201.538574, 4187.179199, 4191.794922, 4188.717773, 4191.794922, 4198.974121, 4251.794922, 2468.000000, 8124.000000, 7945.000000, 0.000000, 0.000000, 0.000000, 23037.000000, 439.487183, 4.000000, 4.000000, 4.000000, 4.000000, 4.000000, 4.000000, 4.000000, 4.000000, 4.000000, 4.000000, 4.000000, 4.000000, 4.000000, 4.000000, 4.000000, 4.000000
107.000000, 0.000000, 4198.461426, 4188.717773, 4202.051270, 4199.487305, 4213.333008, 4192.820313, 4212.820313, 4202.051270, 4190.256348, 4196.922852, 4182.563965, 4188.717773, 4191.794922, 4252.307617, 3053.000000, 8134.000000, 7946.000000, 0.000000, 0.000000, 0.000000, 23037.000000, 447.179474, 4.000000, 4.000000, 4.000000, 4.000000, 4.000000, 4.000000, 4.000000, 4.000000, 4.000000, 4.000000, 4.000000, 4.000000, 4.000000, 4.000000, 4.000000, 4.000000
108.000000, 0.000000, 4198.974121, 4195.384277, 4199.487305, 4203.589844, 4221.025391, 4200.512695, 4215.384277, 4203.076660, 4192.307617, 4204.615234, 4183.589844, 4197.948730, 4188.717773, 4245.641113, 3503.000000, 8134.000000, 7946.000000, 0.000000, 0.000000, 0.000000, 23037.000000, 455.384613, 4.000000, 4.000000, 4.000000, 4.000000, 4.000000, 4.000000, 4.000000, 4.000000, 4.000000, 4.000000, 4.000000, 4.000000, 4.000000, 4.000000, 4.000000, 4.000000
109.000000, 0.000000, 4200.512695, 4192.820313, 4203.076660, 4205.641113, 4221.538574, 4198.461426, 4214.358887, 4202.563965, 4187.179199, 4202.051270, 4186.153809, 4202.051270, 4186.666504, 4235.897461, 3279.000000, 8161.000000, 7932.000000, 0.000000, 0.000000, 0.000000, 23037.000000, 463.076904, 4.000000, 4.000000, 4.000000, 4.000000, 4.000000, 4.000000, 4.000000, 4.000000, 4.000000, 4.000000, 4.000000, 4.000000, 4.000000, 4.000000, 4.000000, 4.000000
110.000000, 0.000000, 4200.512695, 4181.025391, 4200.512695, 4199.487305, 4209.743652, 4186.666504, 4207.692383, 4200.512695, 4180.512695, 4186.153809, 4172.820313, 4188.205078, 4176.410156, 4231.281738, 2468.000000, 8161.000000, 7932.000000, 0.000000, 0.000000, 0.000000, 23037.000000, 470.769226, 4.000000, 4.000000, 4.000000, 4.000000, 4.000000, 4.000000, 4.000000, 4.000000, 4.000000, 4.000000, 4.000000, 4.000000, 4.000000, 4.000000, 4.000000, 4.000000
111.000000, 0.000000, 4197.948730, 4186.153809, 4192.307617, 4197.948730, 4208.717773, 4189.743652, 4211.281738, 4200.512695, 4183.589844, 4188.205078, 4164.615234, 4186.153809, 4169.743652, 4232.820313, 3053.000000, 8177.000000, 7938.000000, 0.000000, 0.000000, 0.000000, 23037.000000, 478.974335, 4.000000, 4.000000, 4.000000, 4.000000, 4.000000, 4.000000, 4.000000, 4.000000, 4.000000, 4.000000, 4.000000, 4.000000, 4.000000, 4.000000, 4.000000, 4.000000
112.000000, 0.000000, 4198.461426, 4192.307617, 4188.205078, 4198.974121, 4213.846191, 4196.410156, 4218.974121, 4202.051270, 4184.102539, 4200.512695, 4171.281738, 4185.641113, 4167.179199, 4233.333008, 3503.000000, 8177.000000, 7938.000000, 0.000000, 0.000000, 0.000000, 23037.000000, 486.666656, 4.000000, 4.000000, 4.000000, 4.000000, 4.000000, 4.000000, 4.000000, 4.000000, 4.000000, 4.000000, 4.000000, 4.000000, 4.000000, 4.000000, 4.000000, 4.000000
113.000000, 0.000000, 4200.000000, 4183.076660, 4187.692383, 4196.410156, 4201.538574, 4191.281738, 4214.358887, 4201.538574, 4175.897461, 4192.820313, 4166.666504, 4172.307617, 4160.000000, 4236.410156, 3279.000000, 8186.000000, 7954.000000, 0.000000, 0.000000, 0.000000, 23037.000000, 494.871796, 4.000000, 4.000000, 4.000000, 4.000000, 4.000000, 4.000000, 4.000000, 4.000000, 4.000000, 4.000000, 4.000000, 4.000000, 4.000000, 4.000000, 4.000000, 4.000000
114.000000, 0.000000, 4200.000000, 4183.076660, 4191.281738, 4197.436035, 4194.871582, 4191.281738, 4211.794922, 4201.025391, 4174.358887, 4182.051270, 4155.897461, 4172.820313, 4154.871582, 4248.205078, 2468.000000, 8186.000000, 7954.000000, 0.000000, 0.000000, 0.000000, 23037.000000, 502.564087, 4.000000, 4.000000, 4.000000, 4.000000, 4.000000, 4.000000, 4.000000, 4.000000, 4.000000, 4.000000, 4.000000, 4.000000, 4.000000, 4.000000, 4.000000, 4.000000
115.000000, 0.000000, 4201.025391, 4195.384277, 4195.897461, 4202.563965, 4206.666504, 4200.512695, 4216.922852, 4202.051270, 4181.025391, 4187.692383, 4162.563965, 4183.076660, 4157.948730, 4257.948730, 3053.000000, 8184.000000, 8033.000000, 0.000000, 0.000000, 0.000000, 23037.000000, 510.256409, 4.000000, 4.000000, 4.000000, 4.000000, 4.000000, 4.000000, 4.000000, 4.000000, 4.000000, 4.000000, 4.000000, 4.000000, 4.000000, 4.000000, 4.000000, 4.000000
116.000000, 0.000000, 4197.436035, 4201.538574, 4193.846191, 4202.051270, 4201.538574, 4198.461426, 4216.922852, 4202.051270, 4183.076660, 4190.769043, 4168.717773, 4178.974121, 4154.871582, 4255.897461, 3503.000000, 8184.000000, 8033.000000, 0.000000, 0.000000, 0.000000, 23037.000000, 518.461548, 4.000000, 4.000000, 4.000000, 4.000000, 4.000000, 4.000000, 4.000000, 4.000000, 4.000000, 4.000000, 4.000000, 4.000000, 4.000000, 4.000000, 4.000000, 4.000000
117.000000, 0.000000, 4195.897461, 4197.436035, 4186.153809, 4197.436035, 4186.666504, 4188.205078, 4217.436035, 4201.025391, 4182.563965, 4186.153809, 4157.436035, 4169.230469, 4143.076660, 4249.230469, 3279.000000, 8187.000000, 8078.000000, 0.000000, 0.000000, 0.000000, 23037.000000, 526.153809, 4.000000, 4.000000, 4.000000, 4.000000, 4.000000, 4.000000, 4.000000, 4.000000, 4.000000, 4.000000, 4.000000, 4.000000, 4.000000, 4.000000, 4.000000, 4.000000
118.000000, 0.000000, 4198.974121, 4195.897461, 4186.666504, 4197.948730, 4196.410156, 4193.846191, 4221.025391, 4201.025391, 4187.179199, 4187.179199, 4149.743652, 4171.794922, 4137.948730, 4245.127930, 2468.000000, 8187.000000, 8078.000000, 0.000000, 0.000000, 0.000000, 23037.000000, 533.846130, 4.000000, 4.000000, 4.000000, 4.000000, 4.000000, 4.000000, 4.000000, 4.000000, 4.000000, 4.000000, 4.000000, 4.000000, 4.000000, 4.000000, 4.000000, 4.000000
119.000000, 0.000000, 4198.461426, 4194.871582, 4190.769043, 4200.512695, 4211.794922, 4204.102539, 4220.512695, 4201.538574, 4186.153809, 4187.179199, 4152.820313, 4180.512695, 4140.512695, 4246.153809, 3053.000000, 8204.000000, 8154.000000, 0.000000, 0.000000, 0.000000, 23037.000000, 541.538452, 4.000000, 4.000000, 4.000000, 4.000000, 4.000000, 4.000000, 4.000000, 4.000000, 4.000000, 4.000000, 4.000000, 4.000000, 4.000000, 4.000000, 4.000000, 4.000000
120.000000, 0.000000, 4197.436035, 4185.641113, 4188.205078, 4200.512695, 4203.076660, 4197.436035, 4214.871582, 4200.512695, 4174.871582, 4185.641113, 4153.846191, 4184.615234, 4142.051270, 4247.179199, 3503.000000, 8204.000000, 8154.000000, 0.000000, 0.000000, 0.000000, 23037.000000, 549.743591, 4.000000, 4.000000, 4.000000, 4.000000, 4.000000, 4.000000, 4.000000, 4.000000, 4.000000, 4.000000, 4.000000, 4.000000, 4.000000, 4.000000, 4.000000, 4.000000
121.000000, 0.000000, 4198.974121, 4185.127930, 4185.127930, 4201.025391, 4197.436035, 4190.256348, 4210.256348, 4199.487305, 4169.230469, 4183.076660, 4154.358887, 4181.025391, 4140.000000, 4247.179199, 3279.000000, 8225.000000, 8182.000000, 0.000000, 0.000000, 0.000000, 23037.000000, 557.948730, 4.000000, 4.000000, 4.000000, 4.000000, 4.000000, 4.000000, 4.000000, 4.000000, 4.000000, 4.000000, 4.000000, 4.000000, 4.000000, 4.000000, 4.000000, 4.000000
122.000000, 0.000000, 4203.589844, 4189.230469, 4186.666504, 4202.563965, 4206.153809, 4194.358887, 4207.179199, 4199.487305, 4171.281738, 4182.051270, 4155.384277, 4173.846191, 4138.974121, 4244.102539, 2468.000000, 8225.000000, 8182.000000, 0.000000, 0.000000, 0.000000, 23037.000000, 565.640991, 4.000000, 4.000000, 4.000000, 4.000000, 4.000000, 4.000000, 4.000000, 4.000000, 4.000000, 4.000000, 4.000000, 4.000000, 4.000000, 4.000000, 4.000000, 4.000000
123.000000, 0.000000, 4203.589844, 4182.563965, 4187.179199, 4202.051270, 4194.871582, 4191.281738, 4202.051270, 4200.512695, 4172.820313, 4185.127930, 4147.179199, 4171.281738, 4137.948730, 4239.487305, 3053.000000, 8252.000000, 8203.000000, 0.000000, 0.000000, 0.000000, 23037.000000, 573.333313, 4.000000, 4.000000, 4.000000, 4.000000, 4.000000, 4.000000, 4.000000, 4.000000, 4.000000, 4.000000, 4.000000, 4.000000, 4.000000, 4.000000, 4.000000, 4.000000
124.000000, 0.000000, 4201.025391, 4184.615234, 4186.153809, 4201.538574, 4181.025391, 4182.563965, 4199.487305, 4202.051270, 4171.794922, 4188.717773, 4144.102539, 4170.769043, 4139.487305, 4243.076660, 3503.000000, 8252.000000, 8203.000000, 0.000000, 0.000000, 0.000000, 23037.000000, 581.025635, 4.000000, 4.000000, 4.000000, 4.000000, 4.000000, 4.000000, 4.000000, 4.000000, 4.000000, 4.000000, 4.000000, 4.000000, 4.000000, 4.000000, 4.000000, 4.000000
125.000000, 0.000000, 4203.589844, 4193.333008, 4185.641113, 4203.076660, 4193.846191, 4184.615234, 4202.051270, 4203.076660, 4171.281738, 4188.717773, 4150.769043, 4169.743652, 4138.461426, 4249.743652, 3279.000000, 8306.000000, 8228.000000, 0.000000, 0.000000, 0.000000, 23037.000000, 589.230774, 4.000000, 4.000000, 4.000000, 4.000000, 4.000000, 4.000000, 4.000000, 4.000000, 4.000000, 4.000000, 4.000000, 4.000000, 4.000000, 4.000000, 4.000000, 4.000000
126.000000, 0.000000, 4198.461426, 4188.717773, 4183.076660, 4203.076660, 4204.615234, 4188.205078, 4203.589844, 4200.512695, 4170.256348, 4186.153809, 4151.794922, 4168.717773, 4133.846191, 4249.743652, 2468.000000, 8306.000000, 8228.000000, 0.000000, 0.000000, 0.000000, 23037.000000, 596.923035, 4.000000, 4.000000, 4.000000, 4.000000, 4.000000, 4.000000, 4.000000, 4.000000, 4.000000, 4.000000, 4.000000, 4.000000, 4.000000, 4.000000, 4.000000, 4.000000
127.000000, 0.000000, 4196.410156, 4188.205078, 4184.102539, 4204.615234, 4197.948730, 4187.179199, 4203.589844, 4200.000000, 4170.769043, 4185.641113, 4150.769043, 4173.846191, 4135.384277, 4245.127930, 56.000000, 8330.000000, 8253.000000, 0.000000, 0.000000, 0.000000, 23037.000000, 605.128174, 4.000000, 4.000000, 4.000000, 4.000000, 4.000000, 4.000000, 4.000000, 4.000000, 4.000000, 4.000000, 4.000000, 4.000000, 4.000000, 4.000000, 4.000000, 4.000000
0.000000, 0.000000, 4204.102539, 4202.563965, 4190.256348, 4210.256348, 4196.922852, 4185.641113, 4201.025391, 4201.538574, 4170.769043, 4187.692383, 4156.922852, 4184.615234, 4136.922852, 4246.153809, 3544.000000, 8330.000000, 8253.000000, 0.000000, 0.000000, 0.000000, 23037.000000, 612.820496, 4.000000, 4.000000, 4.000000, 4.000000, 4.000000, 4.000000, 4.000000, 4.000000, 4.000000, 4.000000, 4.000000, 4.000000, 4.000000, 4.000000, 4.000000, 4.000000
1.000000, 0.000000, 4202.051270, 4201.538574, 4192.307617, 4212.307617, 4207.179199, 4188.205078, 4203.076660, 4201.025391, 4168.717773, 4185.127930, 4156.922852, 4186.666504, 4127.179199, 4248.205078, 3541.000000, 8371.000000, 8295.000000, 0.000000, 0.000000, 0.000000, 23037.000000, 621.025635, 4.000000, 4.000000, 4.000000, 4.000000, 4.000000, 4.000000, 4.000000, 4.000000, 4.000000, 4.000000, 4.000000, 4.000000, 4.000000, 4.000000, 4.000000, 4.000000
2.000000, 0.000000, 4198.974121, 4193.333008, 4191.281738, 4211.794922, 4206.666504, 4197.436035, 4212.307617, 4202.563965, 4174.358887, 4182.051270, 4150.769043, 4183.589844, 4120.000000, 4247.692383, 1954.000000, 8371.000000, 8295.000000, 0.000000, 0.000000, 0.000000, 23037.000000, 628.717957, 4.000000, 4.000000, 4.000000, 4.000000, 4.000000, 4.000000, 4.000000, 4.000000, 4.000000, 4.000000, 4.000000, 4.000000, 4.000000, 4.000000, 4.000000, 4.000000
3.000000, 0.000000, 4201.025391, 4203.076660, 4198.461426, 4215.897461, 4205.641113, 4204.102539, 4217.436035, 4204.615234, 4188.205078, 4191.794922, 4153.846191, 4187.692383, 4129.743652, 4254.871582, 3564.000000, 8394.000000, 8303.000000, 0.000000, 0.000000, 0.000000, 23037.000000, 636.410217, 4.000000, 4.000000, 4.000000, 4.000000, 4.000000, 4.000000, 4.000000, 4.000000, 4.000000, 4.000000, 4.000000, 4.000000, 4.000000, 4.000000, 4.000000, 4.000000
4.000000, 0.000000, 4201.538574, 4201.538574, 4203.589844, 4217.948730, 4206.153809, 4194.358887, 4211.794922, 4202.563965, 4195.384277, 4199.487305, 4160.512695, 4189.230469, 4141.538574, 4265.127930, 3470.000000, 8394.000000, 8303.000000, 0.000000, 0.000000, 0.000000, 23037.000000, 644.615356, 4.000000, 4.000000, 4.000000, 4.000000, 4.000000, 4.000000, 4.000000, 4.000000, 4.000000, 4.000000, 4.000000, 4.000000, 4.000000, 4.000000, 4.000000, 4.000000
5.000000, 0.000000, 4198.974121, 4189.743652, 4194.358887, 4212.307617, 4188.205078, 4174.871582, 4198.461426, 4199.487305, 4183.589844, 4190.256348, 4156.922852, 4183.589844, 4132.307617, 4265.127930, 3578.000000, 8414.000000, 8310.000000, 0.000000, 0.000000, 0.000000, 23037.000000, 652.307678, 4.000000, 4.000000, 4.000000, 4.000000, 4.000000, 4.000000, 4.000000, 4.000000, 4.000000, 4.000000, 4.000000, 4.000000, 4.000000, 4.000000, 4.000000, 4.000000
6.000000, 0.000000, 4197.948730, 4193.333008, 4184.102539, 4210.769043, 4174.871582, 4166.153809, 4187.692383, 4199.487305, 4167.692383, 4180.512695, 4148.205078, 4182.051270, 4122.563965, 4267.692383, 2994.000000, 8414.000000, 8310.000000, 0.000000, 0.000000, 0.000000, 23037.000000, 660.000000, 4.000000, 4.000000, 4.000000, 4.000000, 4.000000, 4.000000, 4.000000, 4.000000, 4.000000, 4.000000, 4.000000, 4.000000, 4.000000, 4.000000, 4.000000, 4.000000
7.000000, 0.000000, 4202.051270, 4203.076660, 4190.769043, 4217.436035, 4193.846191, 4168.717773, 4187.179199, 4199.487305, 4166.153809, 4183.589844, 4155.384277, 4184.615234, 4132.820313, 4287.692383, 620.000000, 8409.000000, 8307.000000, 0.000000, 0.000000, 0.000000, 23037.000000, 667.692322, 4.000000, 4.000000, 4.000000, 4.000000, 4.000000, 4.000000, 4.000000, 4.000000, 4.000000, 4.000000, 4.000000, 4.000000, 4.000000, 4.000000, 4.000000, 4.000000
8.000000, 0.000000, 4201.538574, 4209.230469, 4196.922852, 4217.948730, 4201.538574, 4171.281738, 4192.307617, 4199.487305, 4168.717773, 4188.205078, 4168.205078, 4185.127930, 4143.589844, 4300.000000, 3532.000000, 8409.000000, 8307.000000, 0.000000, 0.000000, 0.000000, 23037.000000, 675.897400, 4.000000, 4.000000, 4.000000, 4.000000, 4.000000, 4.000000, 4.000000, 4.000000, 4.000000, 4.000000, 4.000000, 4.000000, 4.000000, 4.000000, 4.000000, 4.000000
9.000000, 0.000000, 4201.538574, 4213.333008, 4191.794922, 4213.333008, 4188.717773, 4175.897461, 4197.436035, 4201.538574, 4169.743652, 4192.820313, 4172.820313, 4182.563965, 4141.025391, 4296.410156, 3542.000000, 8385.000000, 8296.000000, 0.000000, 0.000000, 0.000000, 23037.000000, 684.102539, 4.000000, 4.000000, 4.000000, 4.000000, 4.000000, 4.000000, 4.000000, 4.000000, 4.000000, 4.000000, 4.000000, 4.000000, 4.000000, 4.000000, 4.000000, 4.000000
10.000000, 0.000000, 4204.102539, 4215.897461, 4188.717773, 4215.897461, 4197.436035, 4184.615234, 4201.538574, 4203.076660, 4178.461426, 4200.512695, 4177.948730, 4184.102539, 4136.922852, 4302.563965, 2467.000000, 8385.000000, 8296.000000, 0.000000, 0.000000, 0.000000, 23037.000000, 691.794861, 4.000000, 4.000000, 4.000000, 4.000000, 4.000000, 4.000000, 4.000000, 4.000000, 4.000000, 4.000000, 4.000000, 4.000000, 4.000000, 4.000000, 4.000000, 4.000000
11.000000, 0.000000, 4202.051270, 4218.461426, 4189.743652, 4220.512695, 4204.102539, 4188.717773, 4201.538574, 4202.563965, 4189.743652, 4204.102539, 4186.666504, 4187.692383, 4140.000000, 4321.025391, 3047.000000, 8328.000000, 8290.000000, 0.000000, 0.000000, 0.000000, 23037.000000, 699.487183, 4.000000, 4.000000, 4.000000, 4.000000, 4.000000, 4.000000, 4.000000, 4.000000, 4.000000, 4.000000, 4.000000, 4.000000, 4.000000, 4.000000, 4.000000, 4.000000
12.000000, 0.000000, 4201.538574, 4220.000000, 4187.179199, 4216.922852, 4189.230469, 4185.127930, 4201.025391, 4201.538574, 4191.281738, 4203.589844, 4192.307617, 4184.102539, 4140.000000, 4321.025391, 3506.000000, 8328.000000, 8290.000000, 0.000000, 0.000000, 0.000000, 23037.000000, 707.179443, 4.000000, 4.000000, 4.000000, 4.000000, 4.000000, 4.000000, 4.000000, 4.000000, 4.000000, 4.000000, 4.000000, 4.000000, 4.000000, 4.000000, 4.000000, 4.000000
13.000000, 0.000000, 4202.051270, 4223.076660, 4189.743652, 4214.871582, 4196.410156, 4185.641113, 4204.102539, 4200.512695, 4189.230469, 4202.051270, 4196.410156, 4179.487305, 4139.487305, 4310.256348, 3479.000000, 8295.000000, 8285.000000, 0.000000, 0.000000, 0.000000, 23037.000000, 715.384583, 4.000000, 4.000000, 4.000000, 4.000000, 4.000000, 4.000000, 4.000000, 4.000000, 4.000000, 4.000000, 4.000000, 4.000000, 4.000000, 4.000000, 4.000000, 4.000000
14.000000, 0.000000, 4204.102539, 4231.794922, 4199.487305, 4222.563965, 4211.281738, 4189.230469, 4206.666504, 4201.538574, 4189.230469, 4201.025391, 4204.102539, 4184.615234, 4144.102539, 4319.487305, 2467.000000, 8295.000000, 8285.000000, 0.000000, 0.000000, 0.000000, 23037.000000, 723.076904, 4.000000, 4.000000, 4.000000, 4.000000, 4.000000, 4.000000, 4.000000, 4.000000, 4.000000, 4.000000, 4.000000, 4.000000, 4.000000, 4.000000, 4.000000, 4.000000
15.000000, 0.000000, 4208.205078, 4229.743652, 4204.102539, 4228.205078, 4204.615234, 4188.717773, 4208.205078, 4203.076660, 4188.717773, 4202.051270, 4208.717773, 4190.769043, 4144.615234, 4331.281738, 3047.000000, 8252.000000, 8278.000000, 0.000000, 0.000000, 0.000000, 23037.000000, 730.769226, 4.000000, 4.000000, 4.000000, 4.000000, 4.000000, 4.000000, 4.000000, 4.000000, 4.000000, 4.000000, 4.000000, 4.000000, 4.000000, 4.000000, 4.000000, 4.000000
16.000000, 0.000000, 4204.615234, 4213.846191, 4197.948730, 4223.076660, 4201.025391, 4186.153809, 4208.717773, 4203.076660, 4187.179199, 4202.051270, 4207.179199, 4187.692383, 4137.436035, 4329.230469, 0.000000, 8252.000000, 8278.000000, 0.000000, 0.000000, 0.000000, 23037.000000, 738.974365, 4.000000, 4.000000, 4.000000, 4.000000, 4.000000, 4.000000, 4.000000, 4.000000, 4.000000, 4.000000, 4.000000, 4.000000, 4.000000, 4.000000, 4.000000, 4.000000
17.000000, 0.000000, 4203.076660, 4212.820313, 4191.281738, 4217.436035, 4196.410156, 4182.051270, 4203.076660, 4202.051270, 4187.179199, 4199.487305, 4206.153809, 4182.051270, 4136.410156, 4329.743652, 0.000000, 8238.000000, 8270.000000, 0.000000, 0.000000, 0.000000, 23037.000000, 746.666626, 4.000000, 4.000000, 4.000000, 4.000000, 4.000000, 4.000000, 4.000000, 4.000000, 4.000000, 4.000000, 4.000000, 4.000000, 4.000000, 4.000000, 4.000000, 4.000000
18.000000, 0.000000, 4203.589844, 4218.974121, 4191.794922, 4216.922852, 4190.769043, 4182.051270, 4196.922852, 4202.563965, 4192.307617, 4200.512695, 4205.641113, 4176.410156, 4136.922852, 4328.717773, 0.000000, 8238.000000, 8270.000000, 0.000000, 0.000000, 0.000000, 23037.000000, 754.358948, 4.000000, 4.000000, 4.000000, 4.000000, 4.000000, 4.000000, 4.000000, 4.000000, 4.000000, 4.000000, 4.000000, 4.000000, 4.000000, 4.000000, 4.000000, 4.000000
19.000000, 0.000000, 4201.538574, 4210.256348, 4192.307617, 4216.922852, 4195.384277, 4184.102539, 4197.948730, 4202.563965, 4194.871582, 4203.076660, 4199.487305, 4169.743652, 4127.179199, 4315.897461, 0.000000, 8230.000000, 8254.000000, 0.000000, 0.000000, 0.000000, 23037.000000, 762.564087, 4.000000, 4.000000, 4.000000, 4.000000, 4.000000, 4.000000, 4.000000, 4.000000, 4.000000, 4.000000, 4.000000, 4.000000, 4.000000, 4.000000, 4.000000, 4.000000
20.000000, 0.000000, 4203.076660, 4200.000000, 4186.666504, 4215.897461, 4192.820313, 4183.589844, 4201.538574, 4201.538574, 4183.589844, 4196.922852, 4189.230469, 4163.076660, 4118.974121, 4304.615234, 0.000000, 8230.000000, 8254.000000, 0.000000, 0.000000, 0.000000, 23037.000000, 770.769226, 4.000000, 4.000000, 4.000000, 4.000000, 4.000000, 4.000000, 4.000000, 4.000000, 4.000000, 4.000000, 4.000000, 4.000000, 4.000000, 4.000000, 4.000000, 4.000000
21.000000, 0.000000, 4203.076660, 4204.615234, 4184.615234, 4215.384277, 4181.538574, 4182.051270, 4201.538574, 4202.051270, 4171.281738, 4185.641113, 4186.666504, 4157.436035, 4119.487305, 4293.846191, 0.000000, 8211.000000, 8237.000000, 0.000000, 0.000000, 0.000000, 23037.000000, 778.461548, 4.000000, 4.000000, 4.000000, 4.000000, 4.000000, 4.000000, 4.000000, 4.000000, 4.000000, 4.000000, 4.000000, 4.000000, 4.000000, 4.000000, 4.000000, 4.000000
22.000000, 0.000000, 4202.563965, 4204.102539, 4185.641113, 4215.897461, 4184.615234, 4183.589844, 4202.051270, 4201.538574, 4165.127930, 4181.538574, 4183.589844, 4155.897461, 4113.333008, 4273.846191, 0.000000, 8211.000000, 8237.000000, 0.000000, 0.000000, 0.000000, 23037.000000, 786.153809, 4.000000, 4.000000, 4.000000, 4.000000, 4.000000, 4.000000, 4.000000, 4.000000, 4.000000, 4.000000, 4.000000, 4.000000, 4.000000, 4.000000, 4.000000, 4.000000
23.000000, 0.000000, 4201.025391, 4194.871582, 4181.538574, 4214.871582, 4196.922852, 4185.641113, 4206.153809, 4200.000000, 4164.615234, 4181.025391, 4177.948730, 4161.025391, 4104.615234, 4258.974121, 0.000000, 8195.000000, 8237.000000, 0.000000, 0.000000, 0.000000, 23037.000000, 793.846130, 4.000000, 4.000000, 4.000000, 4.000000, 4.000000, 4.000000, 4.000000, 4.000000, 4.000000, 4.000000, 4.000000, 4.000000, 4.000000, 4.000000, 4.000000, 4.000000
24.000000, 0.000000, 4203.076660, 4204.102539, 4183.076660, 4216.922852, 4202.563965, 4191.281738, 4213.846191, 4202.563965, 4175.384277, 4183.589844, 4185.127930, 4166.666504, 4111.281738, 4255.384277, 0.000000, 8195.000000, 8237.000000, 0.000000, 0.000000, 0.000000, 23037.000000, 802.051270, 4.000000, 4.000000, 4.000000, 4.000000, 4.000000, 4.000000, 4.000000, 4.000000, 4.000000, 4.000000, 4.000000, 4.000000, 4.000000, 4.000000, 4.000000, 4.000000
25.000000, 0.000000, 4209.230469, 4214.358887, 4191.281738, 4225.641113, 4204.102539, 4198.974121, 4216.410156, 4202.563965, 4185.127930, 4196.410156, 4199.487305, 4168.717773, 4117.948730, 4268.205078, 0.000000, 8176.000000, 8233.000000, 0.000000, 0.000000, 0.000000, 23037.000000, 809.743591, 4.000000, 4.000000, 4.000000, 4.000000, 4.000000, 4.000000, 4.000000, 4.000000, 4.000000, 4.000000, 4.000000, 4.000000, 4.000000, 4.000000, 4.000000, 4.000000
26.000000, 0.000000, 4206.153809, 4208.717773, 4194.358887, 4228.205078, 4203.589844, 4201.538574, 4216.410156, 4199.487305, 4191.794922, 4208.205078, 4199.487305, 4173.333008, 4106.153809, 4283.589844, 0.000000, 8176.000000, 8233.000000, 0.000000, 0.000000, 0.000000, 23037.000000, 817.435852, 4.000000, 4.000000, 4.000000, 4.000000, 4.000000, 4.000000, 4.000000, 4.000000, 4.000000, 4.000000, 4.000000, 4.000000, 4.000000, 4.000000, 4.000000, 4.000000
27.000000, 0.000000, 4201.025391, 4203.589844, 4192.307617, 4225.127930, 4202.051270, 4198.974121, 4218.461426, 4200.000000, 4196.922852, 4203.076660, 4188.205078, 4171.794922, 4095.897217, 4273.846191, 0.000000, 8169.000000, 8220.000000, 0.000000, 0.000000, 0.000000, 23037.000000, 825.640991, 4.000000, 4.000000, 4.000000, 4.000000, 4.000000, 4.000000, 4.000000, 4.000000, 4.000000, 4.000000, 4.000000, 4.000000, 4.000000, 4.000000, 4.000000, 4.000000
28.000000, 0.000000, 4202.563965, 4203.589844, 4187.179199, 4226.666504, 4203.589844, 4199.487305, 4215.897461, 4200.000000, 4192.820313, 4195.384277, 4185.127930, 4165.127930, 4101.025391, 4257.948730, 0.000000, 8169.000000, 8220.000000, 0.000000, 0.000000, 0.000000, 23037.000000, 833.333313, 4.000000, 4.000000, 4.000000, 4.000000, 4.000000, 4.000000, 4.000000, 4.000000, 4.000000, 4.000000, 4.000000, 4.000000, 4.000000, 4.000000, 4.000000, 4.000000
29.000000, 0.000000, 4205.641113, 4208.205078, 4185.641113, 4225.127930, 4201.025391, 4203.589844, 4216.922852, 4200.512695, 4189.743652, 4200.000000, 4188.717773, 4172.307617, 4107.692383, 4260.512695, 0.000000, 8161.000000, 8183.000000, 0.000000, 0.000000, 0.000000, 23037.000000, 841.538452, 4.000000, 4.000000, 4.000000, 4.000000, 4.000000, 4.000000, 4.000000, 4.000000, 4.000000, 4.000000, 4.000000, 4.000000, 4.000000, 4.000000, 4.000000, 4.000000
30.000000, 0.000000, 4205.127930, 4210.256348, 4191.794922, 4218.974121, 4192.820313, 4203.076660, 4222.051270, 4201.025391, 4191.794922, 4201.538574, 4188.205078, 4186.153809, 4105.127930, 4262.563965, 0.000000, 8161.000000, 8183.000000, 0.000000, 0.000000, 0.000000, 23037.000000, 849.230774, 4.000000, 4.000000, 4.000000, 4.000000, 4.000000, 4.000000, 4.000000, 4.000000, 4.000000, 4.000000, 4.000000, 4.000000, 4.000000, 4.000000, 4.000000, 4.000000
31.000000, 0.000000, 4200.000000, 4206.666504, 4196.922852, 4223.076660, 4191.794922, 4195.897461, 4216.410156, 4201.025391, 4186.666504, 4189.743652, 4184.102539, 4183.589844, 4098.974121, 4257.436035, 0.000000, 8167.000000, 8167.000000, 0.000000, 0.000000, 0.000000, 23037.000000, 856.923035, 4.000000, 4.000000, 4.000000, 4.000000, 4.000000, 4.000000, 4.000000, 4.000000, 4.000000, 4.000000, 4.000000, 4.000000, 4.000000, 4.000000, 4.000000, 4.000000
32.000000, 0.000000, 4198.974121, 4204.102539, 4192.820313, 4230.769043, 4200.512695, 4189.743652, 4211.281738, 4201.025391, 4182.051270, 4184.102539, 4176.410156, 4170.256348, 4098.974121, 4260.512695, 0.000000, 8167.000000, 8167.000000, 0.000000, 0.000000, 0.000000, 23037.000000, 865.128174, 4.000000, 4.000000, 4.000000, 4.000000, 4.000000, 4.000000, 4.000000, 4.000000, 4.000000, 4.000000, 4.000000, 4.000000, 4.000000, 4.000000, 4.000000, 4.000000
33.000000, 0.000000, 4200.000000, 4204.615234, 4187.179199, 4224.615234, 4203.076660, 4191.794922, 4214.871582, 4201.025391, 4187.179199, 4193.333008, 4169.230469, 4167.179199, 4104.615234, 4261.025391, 0.000000, 8170.000000, 8155.000000, 0.000000, 0.000000, 0.000000, 23037.000000, 872.820496, 4.000000, 4.000000, 4.000000, 4.000000, 4.000000, 4.000000, 4.000000, 4.000000, 4.000000, 4.000000, 4.000000, 4.000000, 4.000000, 4.000000, 4.000000, 4.000000
34.000000, 0.000000, 4198.974121, 4208.205078, 4187.692383, 4220.000000, 4200.000000, 4193.333008, 4212.307617, 4201.025391, 4190.769043, 4200.512695, 4174.358887, 4175.384277, 4098.461426, 4261.025391, 0.000000, 8170.000000, 8155.000000, 0.000000, 0.000000, 0.000000, 23037.000000, 880.512817, 4.000000, 4.000000, 4.000000, 4.000000, 4.000000, 4.000000, 4.000000, 4.000000, 4.000000, 4.000000, 4.000000, 4.000000, 4.000000, 4.000000, 4.000000, 4.000000
35.000000, 0.000000, 4202.051270, 4215.384277, 4190.256348, 4222.563965, 4196.922852, 4189.743652, 4211.281738, 4201.025391, 4195.897461, 4201.538574, 4184.615234, 4185.641113, 4091.794678, 4282.563965, 0.000000, 8164.000000, 8142.000000, 0.000000, 0.000000, 0.000000, 23037.000000, 888.717957, 4.000000, 4.000000, 4.000000, 4.000000, 4.000000, 4.000000, 4.000000, 4.000000, 4.000000, 4.000000, 4.000000, 4.000000, 4.000000, 4.000000, 4.000000, 4.000000
36.000000, 0.000000, 4201.538574, 4216.410156, 4191.794922, 4222.051270, 4191.794922, 4188.717773, 4214.358887, 4200.512695, 4201.538574, 4204.615234, 4185.641113, 4187.692383, 4100.000000, 4307.179199, 0.000000, 8164.000000, 8142.000000, 0.000000, 0.000000, 0.000000, 23037.000000, 896.410217, 4.000000, 4.000000, 4.000000, 4.000000, 4.000000, 4.000000, 4.000000, 4.000000, 4.000000, 4.000000, 4.000000, 4.000000, 4.000000, 4.000000, 4.000000, 4.000000
37.000000, 0.000000, 4201.538574, 4213.333008, 4194.871582, 4223.076660, 4191.794922, 4188.717773, 4209.230469, 4201.025391, 4196.922852, 4204.102539, 4186.666504, 4185.641113, 4106.153809, 4313.846191, 0.000000, 8158.000000, 8158.000000, 0.000000, 0.000000, 0.000000, 23037.000000, 904.615356, 4.000000, 4.000000, 4.000000, 4.000000, 4.000000, 4.000000, 4.000000, 4.000000, 4.000000, 4.000000, 4.000000, 4.000000, 4.000000, 4.000000, 4.000000, 4.000000
38.000000, 0.000000, 4205.127930, 4215.384277, 4202.563965, 4232.820313, 4191.794922, 4186.666504, 4205.127930, 4201.538574, 4195.384277, 4200.512695, 4189.743652, 4187.692383, 4102.051270, 4315.384277, 0.000000, 8158.000000, 8158.000000, 0.000000, 0.000000, 0.000000, 23037.000000, 912.307678, 4.000000, 4.000000, 4.000000, 4.000000, 4.000000, 4.000000, 4.000000, 4.000000, 4.000000, 4.000000, 4.000000, 4.000000, 4.000000, 4.000000, 4.000000, 4.000000
39.000000, 0.000000, 4198.461426, 4205.127930, 4200.512695, 4230.256348, 4179.487305, 4185.641113, 4212.307617, 4200.000000, 4197.948730, 4205.127930, 4178.461426, 4185.127930, 4088.717773, 4306.153809, 0.000000, 8154.000000, 8195.000000, 0.000000, 0.000000, 0.000000, 23037.000000, 920.000000, 4.000000, 4.000000, 4.000000, 4.000000, 4.000000, 4.000000, 4.000000, 4.000000, 4.000000, 4.000000, 4.000000, 4.000000, 4.000000, 4.000000, 4.000000, 4.000000
40.000000, 0.000000, 4195.897461, 4198.461426, 4190.256348, 4216.922852, 4182.051270, 4185.127930, 4216.410156, 4202.051270, 4198.974121, 4213.846191, 4172.307617, 4181.025391, 4086.153809, 4302.051270, 0.000000, 8154.000000, 8195.000000, 0.000000, 0.000000, 0.000000, 23037.000000, 928.205078, 4.000000, 4.000000, 4.000000, 4.000000, 4.000000, 4.000000, 4.000000, 4.000000, 4.000000, 4.000000, 4.000000, 4.000000, 4.000000, 4.000000, 4.000000, 4.000000
41.000000, 0.000000, 4202.563965, 4216.922852, 4192.307617, 4221.025391, 4200.000000, 4183.589844, 4213.333008, 4204.615234, 4205.641113, 4222.051270, 4192.307617, 4190.256348, 4104.615234, 4321.025391, 0.000000, 8157.000000, 8203.000000, 0.000000, 0.000000, 0.000000, 23037.000000, 935.897400, 4.000000, 4.000000, 4.000000, 4.000000, 4.000000, 4.000000, 4.000000, 4.000000, 4.000000, 4.000000, 4.000000, 4.000000, 4.000000, 4.000000, 4.000000, 4.000000
42.000000, 0.000000, 4204.615234, 4220.000000, 4201.538574, 4233.846191, 4201.538574, 4183.076660, 4214.871582, 4203.076660, 4217.948730, 4229.743652, 4208.205078, 4202.563965, 4107.692383, 4322.563965, 0.000000, 8157.000000, 8203.000000, 0.000000, 0.000000, 0.000000, 23037.000000, 944.102539, 4.000000, 4.000000, 4.000000, 4.000000, 4.000000, 4.000000, 4.000000, 4.000000, 4.000000, 4.000000, 4.000000, 4.000000, 4.000000, 4.000000, 4.000000, 4.000000
43.000000, 0.000000, 4201.025391, 4202.563965, 4203.076660, 4227.179199, 4193.333008, 4181.538574, 4216.922852, 4204.615234, 4221.538574, 4231.794922, 4203.589844, 4203.076660, 4095.384521, 4300.512695, 0.000000, 8158.000000, 8205.000000, 0.000000, 0.000000, 0.000000, 23037.000000, 951.794861, 4.000000, 4.000000, 4.000000, 4.000000, 4.000000, 4.000000, 4.000000, 4.000000, 4.000000, 4.000000, 4.000000, 4.000000, 4.000000, 4.000000, 4.000000, 4.000000
44.000000, 0.000000, 4200.512695, 4204.102539, 4202.051270, 4220.512695, 4198.461426, 4183.589844, 4217.948730, 4205.641113, 4220.512695, 4231.794922, 4204.102539, 4202.051270, 4102.051270, 4313.333008, 0.000000, 8158.000000, 8205.000000, 0.000000, 0.000000, 0.000000, 23037.000000, 959.487183, 4.000000, 4.000000, 4.000000, 4.000000, 4.000000, 4.000000, 4.000000, 4.000000, 4.000000, 4.000000, 4.000000, 4.000000, 4.000000, 4.000000, 4.000000, 4.000000
45.000000, 0.000000, 4205.641113, 4218.974121, 4203.076660, 4226.153809, 4204.102539, 4191.281738, 4218.461426, 4201.538574, 4220.512695, 4234.358887, 4211.794922, 4199.487305, 4114.358887, 4341.025391, 0.000000, 8193.000000, 8180.000000, 0.000000, 0.000000, 0.000000, 23037.000000, 967.692261, 4.000000, 4.000000, 4.000000, 4.000000, 4.000000, 4.000000, 4.000000, 4.000000, 4.000000, 4.000000, 4.000000, 4.000000, 4.000000, 4.000000, 4.000000, 4.000000
46.000000, 0.000000, 4203.589844, 4217.436035, 4202.563965, 4223.589844, 4201.025391, 4194.358887, 4215.897461, 4200.512695, 4216.410156, 4229.230469, 4210.256348, 4188.717773, 4102.051270, 4336.410156, 0.000000, 8193.000000, 8180.000000, 0.000000, 0.000000, 0.000000, 23037.000000, 975.384583, 4.000000, 4.000000, 4.000000, 4.000000, 4.000000, 4.000000, 4.000000, 4.000000, 4.000000, 4.000000, 4.000000, 4.000000, 4.000000, 4.000000, 4.000000, 4.000000
47.000000, 0.000000, 4198.974121, 4204.615234, 4197.948730, 4215.897461, 4203.589844, 4189.743652, 4217.436035, 4203.589844, 4208.717773, 4217.948730, 4203.076660, 4183.076660, 4089.743408, 4336.410156, 0.000000, 8218.000000, 8157.000000, 0.000000, 0.000000, 0.000000, 23037.000000, 983.076904, 4.000000, 4.000000, 4.000000, 4.000000, 4.000000, 4.000000, 4.000000, 4.000000, 4.000000, 4.000000, 4.000000, 4.000000, 4.000000, 4.000000, 4.000000, 4.000000
48.000000, 0.000000, 4200.000000, 4203.076660, 4191.794922, 4217.436035, 4202.051270, 4189.743652, 4215.897461, 4203.076660, 4205.127930, 4214.871582, 4192.820313, 4182.051270, 4090.769043, 4342.051270, 0.000000, 8218.000000, 8157.000000, 0.000000, 0.000000, 0.000000, 23037.000000, 991.282043, 4.000000, 4.000000, 4.000000, 4.000000, 4.000000, 4.000000, 4.000000, 4.000000, 4.000000, 4.000000, 4.000000, 4.000000, 4.000000, 4.000000, 4.000000, 4.000000
49.000000, 0.000000, 4199.487305, 4204.615234, 4187.179199, 4215.897461, 4188.717773, 4191.794922, 4206.666504, 4200.000000, 4196.922852, 4214.871582, 4185.127930, 4174.358887, 4092.820313, 4308.205078, 0.000000, 8299.000000, 8166.000000, 0.000000, 0.000000, 0.000000, 23037.000000, 998.974304, 4.000000, 4.000000, 4.000000, 4.000000, 4.000000, 4.000000, 4.000000, 4.000000, 4.000000, 4.000000, 4.000000, 4.000000, 4.000000, 4.000000, 4.000000, 4.000000
50.000000, 0.000000, 4200.000000, 4202.563965, 4185.641113, 4208.717773, 4186.153809, 4181.538574, 4198.461426, 4198.974121, 4184.102539, 4210.256348, 4184.615234, 4171.794922, 4100.512695, 4272.307617, 0.000000, 8299.000000, 8166.000000, 0.000000, 0.000000, 0.000000, 23038.000000, 6.666667, 4.000000, 4.000000, 4.000000, 4.000000, 4.000000, 4.000000, 4.000000, 4.000000, 4.000000, 4.000000, 4.000000, 4.000000, 4.000000, 4.000000, 4.000000, 4.000000
51.000000, 0.000000, 4198.974121, 4208.717773, 4188.205078, 4213.333008, 4200.512695, 4174.358887, 4196.922852, 4200.000000, 4186.153809, 4210.769043, 4183.589844, 4178.974121, 4101.538574, 4276.922852, 0.000000, 8336.000000, 8176.000000, 0.000000, 0.000000, 0.000000, 23038.000000, 14.358974, 4.000000, 4.000000, 4.000000, 4.000000, 4.000000, 4.000000, 4.000000, 4.000000, 4.000000, 4.000000, 4.000000, 4.000000, 4.000000, 4.000000, 4.000000, 4.000000
52.000000, 0.000000, 4202.051270, 4218.461426, 4196.410156, 4227.179199, 4208.717773, 4181.025391, 4199.487305, 4201.538574, 4199.487305, 4215.897461, 4182.563965, 4185.641113, 4098.461426, 4295.897461, 0.000000, 8336.000000, 8176.000000, 0.000000, 0.000000, 0.000000, 23038.000000, 22.564102, 4.000000, 4.000000, 4.000000, 4.000000, 4.000000, 4.000000, 4.000000, 4.000000, 4.000000, 4.000000, 4.000000, 4.000000, 4.000000, 4.000000, 4.000000, 4.000000
53.000000, 0.000000, 4206.666504, 4220.000000, 4203.076660, 4233.333008, 4204.102539, 4185.641113, 4199.487305, 4201.538574, 4201.538574, 4217.948730, 4178.461426, 4183.076660, 4095.897217, 4303.589844, 0.000000, 8361.000000, 8187.000000, 0.000000, 0.000000, 0.000000, 23038.000000, 30.769230, 4.000000, 4.000000, 4.000000, 4.000000, 4.000000, 4.000000, 4.000000, 4.000000, 4.000000, 4.000000, 4.000000, 4.000000, 4.000000, 4.000000, 4.000000, 4.000000
54.000000, 0.000000, 4200.512695, 4210.769043, 4201.538574, 4233.333008, 4202.051270, 4184.615234, 4197.436035, 4200.000000, 4195.897461, 4215.897461, 4172.820313, 4175.384277, 4094.871582, 4305.641113, 0.000000, 8361.000000, 8187.000000, 0.000000, 0.000000, 0.000000, 23038.000000, 38.461536, 4.000000, 4.000000, 4.000000, 4.000000, 4.000000, 4.000000, 4.000000, 4.000000, 4.000000, 4.000000, 4.000000, 4.000000, 4.000000, 4.000000, 4.000000, 4.000000
55.000000, 0.000000, 4195.897461, 4204.615234, 4194.358887, 4231.281738, 4202.563965, 4186.666504, 4200.000000, 4200.000000, 4190.256348, 4207.692383, 4168.205078, 4169.743652, 4091.794678, 4306.666504, 0.000000, 8403.000000, 8230.000000, 0.000000, 0.000000, 0.000000, 23038.000000, 46.153847, 4.000000, 4.000000, 4.000000, 4.000000, 4.000000, 4.000000, 4.000000, 4.000000, 4.000000, 4.000000, 4.000000, 4.000000, 4.000000, 4.000000, 4.000000, 4.000000
56.000000, 0.000000, 4201.025391, 4214.871582, 4186.666504, 4229.230469, 4198.461426, 4188.205078, 4205.127930, 4200.512695, 4187.692383, 4202.563965, 4166.666504, 4174.358887, 4089.743408, 4310.256348, 0.000000, 8403.000000, 8230.000000, 0.000000, 0.000000, 0.000000, 23038.000000, 53.846153, 4.000000, 4.000000, 4.000000, 4.000000, 4.000000, 4.000000, 4.000000, 4.000000, 4.000000, 4.000000, 4.000000, 4.000000, 4.000000, 4.000000, 4.000000, 4.000000
57.000000, 0.000000, 4204.102539, 4220.000000, 4188.205078, 4229.230469, 4196.922852, 4184.615234, 4206.153809, 4200.512695, 4193.333008, 4212.820313, 4177.436035, 4188.205078, 4097.948730, 4308.205078, 0.000000, 8416.000000, 8248.000000, 0.000000, 0.000000, 0.000000, 23038.000000, 62.051281, 4.000000, 4.000000, 4.000000, 4.000000, 4.000000, 4.000000, 4.000000, 4.000000, 4.000000, 4.000000, 4.000000, 4.000000, 4.000000, 4.000000, 4.000000, 4.000000
58.000000, 0.000000, 4202.051270, 4204.102539, 4198.974121, 4230.256348, 4201.538574, 4186.153809, 4205.641113, 4201.538574, 4205.127930, 4222.051270, 4196.410156, 4199.487305, 4102.563965, 4298.974121, 0.000000, 8416.000000, 8248.000000, 0.000000, 0.000000, 0.000000, 23038.000000, 69.743591, 4.000000, 4.000000, 4.000000, 4.000000, 4.000000, 4.000000, 4.000000, 4.000000, 4.000000, 4.000000, 4.000000, 4.000000, 4.000000, 4.000000, 4.000000, 4.000000
59.000000, 0.000000, 4197.436035, 4204.102539, 4200.512695, 4230.769043, 4198.461426, 4188.717773, 4203.076660, 4201.538574, 4202.563965, 4210.256348, 4195.897461, 4194.358887, 4095.384521, 4292.307617, 0.000000, 8393.000000, 8249.000000, 0.000000, 0.000000, 0.000000, 23038.000000, 77.435898, 4.000000, 4.000000, 4.000000, 4.000000, 4.000000, 4.000000, 4.000000, 4.000000, 4.000000, 4.000000, 4.000000, 4.000000, 4.000000, 4.000000, 4.000000, 4.000000
60.000000, 0.000000, 4197.948730, 4214.871582, 4188.717773, 4228.717773, 4184.615234, 4185.127930, 4198.974121, 4200.000000, 4185.641113, 4195.897461, 4182.051270, 4176.410156, 4086.666504, 4286.153809, 0.000000, 8393.000000, 8249.000000, 0.000000, 0.000000, 0.000000, 23038.000000, 85.641022, 4.000000, 4.000000, 4.000000, 4.000000, 4.000000, 4.000000, 4.000000, 4.000000, 4.000000, 4.000000, 4.000000, 4.000000, 4.000000, 4.000000, 4.000000, 4.000000
61.000000, 0.000000, 4200.512695, 4205.127930, 4183.076660, 4228.717773, 4186.153809, 4190.769043, 4201.538574, 4199.487305, 4179.487305, 4198.461426, 4184.615234, 4171.794922, 4088.205078, 4282.051270, 0.000000, 8361.000000, 8209.000000, 0.000000, 0.000000, 0.000000, 23038.000000, 93.333328, 4.000000, 4.000000, 4.000000, 4.000000, 4.000000, 4.000000, 4.000000, 4.000000, 4.000000, 4.000000, 4.000000, 4.000000, 4.000000, 4.000000, 4.000000, 4.000000
62.000000, 0.000000, 4204.615234, 4206.666504, 4191.281738, 4231.794922, 4203.076660, 4200.512695, 4205.127930, 4200.000000, 4183.076660, 4199.487305, 4200.512695, 4182.563965, 4095.384521, 4280.512695, 0.000000, 8361.000000, 8209.000000, 0.000000, 0.000000, 0.000000, 23038.000000, 101.025635, 4.000000, 4.000000, 4.000000, 4.000000, 4.000000, 4.000000, 4.000000, 4.000000, 4.000000, 4.000000, 4.000000, 4.000000, 4.000000, 4.000000, 4.000000, 4.000000
63.000000, 0.000000, 4212.820313, 4230.256348, 4201.538574, 4236.410156, 4207.179199, 4193.846191, 4202.051270, 4202.563965, 4186.153809, 4200.512695, 4222.563965, 4192.820313, 4104.615234, 4281.538574, 0.000000, 8292.000000, 8110.000000, 0.000000, 0.000000, 0.000000, 23038.000000, 109.230766, 4.000000, 4.000000, 4.000000, 4.000000, 4.000000, 4.000000, 4.000000, 4.000000, 4.000000, 4.000000, 4.000000, 4.000000, 4.000000, 4.000000, 4.000000, 4.000000
64.000000, 0.000000, 4211.281738, 4241.538574, 4206.153809, 4241.025391, 4202.563965, 4185.127930, 4198.461426, 4200.512695, 4192.820313, 4211.794922, 4247.692383, 4200.000000, 4113.333008, 4284.102539, 3544.000000, 8292.000000, 8110.000000, 0.000000, 0.000000, 0.000000, 23038.000000, 116.923073, 4.000000, 4.000000, 4.000000, 4.000000, 4.000000, 4.000000, 4.000000, 4.000000, 4.000000, 4.000000, 4.000000, 4.000000, 4.000000, 4.000000, 4.000000, 4.000000
65.000000, 0.000000, 4207.179199, 4226.153809, 4211.281738, 4242.563965, 4204.102539, 4193.333008, 4202.563965, 4202.051270, 4206.666504, 4222.051270, 4261.025391, 4202.051270, 4112.307617, 4283.589844, 3537.000000, 8265.000000, 8092.000000, 0.000000, 0.000000, 0.000000, 23038.000000, 125.128204, 4.000000, 4.000000, 4.000000, 4.000000, 4.000000, 4.000000, 4.000000, 4.000000, 4.000000, 4.000000, 4.000000, 4.000000, 4.000000, 4.000000, 4.000000, 4.000000
66.000000, 0.000000, 4208.205078, 4216.410156, 4216.922852, 4247.179199, 4210.256348, 4204.615234, 4212.307617, 4209.743652, 4220.000000, 4225.127930, 4269.230469, 4204.615234, 4115.384277, 4274.358887, 1953.000000, 8265.000000, 8092.000000, 0.000000, 0.000000, 0.000000, 23038.000000, 132.820511, 4.000000, 4.000000, 4.000000, 4.000000, 4.000000, 4.000000, 4.000000, 4.000000, 4.000000, 4.000000, 4.000000, 4.000000, 4.000000, 4.000000, 4.000000, 4.000000
67.000000, 0.000000, 4202.051270, 4227.179199, 4215.897461, 4248.205078, 4213.333008, 4204.102539, 4214.871582, 4208.205078, 4217.436035, 4227.692383, 4271.281738, 4203.076660, 4118.974121, 4266.153809, 3560.000000, 8242.000000, 8080.000000, 0.000000, 0.000000, 0.000000, 23038.000000, 140.512817, 4.000000, 4.000000, 4.000000, 4.000000, 4.000000, 4.000000, 4.000000, 4.000000, 4.000000, 4.000000, 4.000000, 4.000000, 4.000000, 4.000000, 4.000000, 4.000000
68.000000, 0.000000, 4197.948730, 4232.307617, 4204.615234, 4238.974121, 4201.538574, 4196.922852, 4205.641113, 4200.512695, 4195.897461, 4214.871582, 4256.922852, 4190.769043, 4109.230469, 4262.051270, 3463.000000, 8242.000000, 8080.000000, 0.000000, 0.000000, 0.000000, 23038.000000, 148.717941, 4.000000, 4.000000, 4.000000, 4.000000, 4.000000, 4.000000, 4.000000, 4.000000, 4.000000, 4.000000, 4.000000, 4.000000, 4.000000, 4.000000, 4.000000, 4.000000
69.000000, 0.000000, 4201.025391, 4216.410156, 4198.974121, 4237.436035, 4191.281738, 4195.384277, 4198.461426, 4201.025391, 4180.000000, 4200.000000, 4244.102539, 4187.692383, 4101.538574, 4262.563965, 3578.000000, 8203.000000, 8040.000000, 0.000000, 0.000000, 0.000000, 23038.000000, 156.923080, 4.000000, 4.000000, 4.000000, 4.000000, 4.000000, 4.000000, 4.000000, 4.000000, 4.000000, 4.000000, 4.000000, 4.000000, 4.000000, 4.000000, 4.000000, 4.000000
70.000000, 0.000000, 4206.153809, 4204.615234, 4208.717773, 4249.230469, 4209.230469, 4200.512695, 4202.563965, 4203.589844, 4185.641113, 4203.589844, 4245.641113, 4199.487305, 4105.127930, 4275.384277, 2996.000000, 8203.000000, 8040.000000, 0.000000, 0.000000, 0.000000, 23038.000000, 164.615387, 4.000000, 4.000000, 4.000000, 4.000000, 4.000000, 4.000000, 4.000000, 4.000000, 4.000000, 4.000000, 4.000000, 4.000000, 4.000000, 4.000000, 4.000000, 4.000000
71.000000, 0.000000, 4202.563965, 4205.641113, 4215.897461, 4249.230469, 4221.025391, 4201.025391, 4205.127930, 4201.538574, 4190.256348, 4207.692383, 4249.743652, 4203.076660, 4106.666504, 4284.615234, 620.000000, 8196.000000, 8042.000000, 0.000000, 0.000000, 0.000000, 23038.000000, 172.307693, 4.000000, 4.000000, 4.000000, 4.000000, 4.000000, 4.000000, 4.000000, 4.000000, 4.000000, 4.000000, 4.000000, 4.000000, 4.000000, 4.000000, 4.000000, 4.000000
72.000000, 0.000000, 4194.358887, 4197.436035, 4211.281738, 4235.897461, 4206.153809, 4197.948730, 4202.563965, 4202.051270, 4189.743652, 4204.615234, 4246.666504, 4197.436035, 4097.948730, 4269.743652, 3530.000000, 8196.000000, 8042.000000, 0.000000, 0.000000, 0.000000, 23038.000000, 180.000000, 4.000000, 4.000000, 4.000000, 4.000000, 4.000000, 4.000000, 4.000000, 4.000000, 4.000000, 4.000000, 4.000000, 4.000000, 4.000000, 4.000000, 4.000000, 4.000000
73.000000, 0.000000, 4195.897461, 4185.641113, 4210.256348, 4232.820313, 4196.922852, 4198.974121, 4206.666504, 4204.102539, 4201.538574, 4207.692383, 4237.948730, 4197.948730, 4090.769043, 4248.205078, 3542.000000, 8207.000000, 8092.000000, 0.000000, 0.000000, 0.000000, 23038.000000, 188.205124, 4.000000, 4.000000, 4.000000, 4.000000, 4.000000, 4.000000, 4.000000, 4.000000, 4.000000, 4.000000, 4.000000, 4.000000, 4.000000, 4.000000, 4.000000, 4.000000
74.000000, 0.000000, 4199.487305, 4176.922852, 4209.743652, 4237.948730, 4205.641113, 4203.589844, 4215.384277, 4202.563965, 4218.461426, 4218.974121, 4233.846191, 4201.538574, 4090.256348, 4247.179199, 2474.000000, 8207.000000, 8092.000000, 0.000000, 0.000000, 0.000000, 23038.000000, 195.897430, 4.000000, 4.000000, 4.000000, 4.000000, 4.000000, 4.000000, 4.000000, 4.000000, 4.000000, 4.000000, 4.000000, 4.000000, 4.000000, 4.000000, 4.000000, 4.000000
75.000000, 0.000000, 4195.384277, 4169.743652, 4203.589844, 4230.256348, 4202.051270, 4204.102539, 4218.461426, 4202.563965, 4217.436035, 4216.922852, 4232.820313, 4201.538574, 4085.128174, 4249.230469, 3043.000000, 8226.000000, 8102.000000, 0.000000, 0.000000, 0.000000, 23038.000000, 203.589737, 4.000000, 4.000000, 4.000000, 4.000000, 4.000000, 4.000000, 4.000000, 4.000000, 4.000000, 4.000000, 4.000000, 4.000000, 4.000000, 4.000000, 4.000000, 4.000000
76.000000, 0.000000, 4195.897461, 4169.230469, 4198.974121, 4215.897461, 4186.666504, 4195.384277, 4212.820313, 4202.563965, 4201.538574, 4197.436035, 4218.974121, 4198.461426, 4072.820313, 4236.410156, 3507.000000, 8226.000000, 8102.000000, 0.000000, 0.000000, 0.000000, 23038.000000, 211.282043, 4.000000, 4.000000, 4.000000, 4.000000, 4.000000, 4.000000, 4.000000, 4.000000, 4.000000, 4.000000, 4.000000, 4.000000, 4.000000, 4.000000, 4.000000, 4.000000
77.000000, 0.000000, 4202.563965, 4168.717773, 4200.512695, 4218.974121, 4188.717773, 4188.205078, 4204.615234, 4202.051270, 4195.897461, 4198.974121, 4212.307617, 4200.512695, 4079.487061, 4237.948730, 3526.000000, 8246.000000, 8105.000000, 0.000000, 0.000000, 0.000000, 23038.000000, 219.487167, 4.000000, 4.000000, 4.000000, 4.000000, 4.000000, 4.000000, 4.000000, 4.000000, 4.000000, 4.000000, 4.000000, 4.000000, 4.000000, 4.000000, 4.000000, 4.000000
78.000000, 0.000000, 4204.615234, 4168.717773, 4203.589844, 4228.205078, 4193.333008, 4188.205078, 4202.563965, 4201.538574, 4201.538574, 4213.333008, 4224.615234, 4202.563965, 4093.845947, 4253.846191, 2474.000000, 8246.000000, 8105.000000, 0.000000, 0.000000, 0.000000, 23038.000000, 227.179489, 4.000000, 4.000000, 4.000000, 4.000000, 4.000000, 4.000000, 4.000000, 4.000000, 4.000000, 4.000000, 4.000000, 4.000000, 4.000000, 4.000000, 4.000000, 4.000000
79.000000, 0.000000, 4199.487305, 4166.666504, 4197.436035, 4222.051270, 4187.692383, 4186.666504, 4197.436035, 4200.000000, 4200.000000, 4208.717773, 4221.025391, 4189.743652, 4084.102539, 4253.846191, 3043.000000, 8306.000000, 8107.000000, 0.000000, 0.000000, 0.000000, 23038.000000, 234.871796, 4.000000, 4.000000, 4.000000, 4.000000, 4.000000, 4.000000, 4.000000, 4.000000, 4.000000, 4.000000, 4.000000, 4.000000, 4.000000, 4.000000, 4.000000, 4.000000
80.000000, 0.000000, 4197.948730, 4166.153809, 4187.179199, 4219.487305, 4188.717773, 4183.076660, 4188.717773, 4200.512695, 4195.897461, 4201.538574, 4201.025391, 4177.948730, 4069.743408, 4243.589844, 3507.000000, 8306.000000, 8107.000000, 0.000000, 0.000000, 0.000000, 23038.000000, 243.076920, 4.000000, 4.000000, 4.000000, 4.000000, 4.000000, 4.000000, 4.000000, 4.000000, 4.000000, 4.000000, 4.000000, 4.000000, 4.000000, 4.000000, 4.000000, 4.000000
81.000000, 0.000000, 4200.512695, 4173.333008, 4190.256348, 4230.769043, 4195.384277, 4185.641113, 4185.127930, 4201.538574, 4199.487305, 4211.281738, 4197.948730, 4182.051270, 4076.410156, 4244.615234, 3526.000000, 8333.000000, 8100.000000, 0.000000, 0.000000, 0.000000, 23038.000000, 250.769226, 4.000000, 4.000000, 4.000000, 4.000000, 4.000000, 4.000000, 4.000000, 4.000000, 4.000000, 4.000000, 4.000000, 4.000000, 4.000000, 4.000000, 4.000000, 4.000000
82.000000, 0.000000, 4197.948730, 4163.589844, 4201.025391, 4230.256348, 4186.153809, 4189.743652, 4187.179199, 4200.512695, 4201.538574, 4216.922852, 4204.102539, 4188.717773, 4086.666504, 4246.666504, 2474.000000, 8333.000000, 8100.000000, 0.000000, 0.000000, 0.000000, 23038.000000, 258.461517, 4.000000, 4.000000, 4.000000, 4.000000, 4.000000, 4.000000, 4.000000, 4.000000, 4.000000, 4.000000, 4.000000, 4.000000, 4.000000, 4.000000, 4.000000, 4.000000
83.000000, 0.000000, 4197.948730, 4148.205078, 4200.512695, 4221.538574, 4177.948730, 4186.153809, 4185.641113, 4200.512695, 4198.974121, 4213.846191, 4203.076660, 4186.153809, 4090.256348, 4246.153809, 3043.000000, 8364.000000, 8101.000000, 0.000000, 0.000000, 0.000000, 23038.000000, 266.153839, 4.000000, 4.000000, 4.000000, 4.000000, 4.000000, 4.000000, 4.000000, 4.000000, 4.000000, 4.000000, 4.000000, 4.000000, 4.000000, 4.000000, 4.000000, 4.000000
84.000000, 0.000000, 4204.102539, 4175.384277, 4198.974121, 4229.230469, 4191.281738, 4184.102539, 4182.051270, 4200.512695, 4200.000000, 4217.436035, 4207.179199, 4190.256348, 4095.384521, 4242.051270, 3507.000000, 8364.000000, 8101.000000, 0.000000, 0.000000, 0.000000, 23038.000000, 274.358978, 4.000000, 4.000000, 4.000000, 4.000000, 4.000000, 4.000000, 4.000000, 4.000000, 4.000000, 4.000000, 4.000000, 4.000000, 4.000000, 4.000000, 4.000000, 4.000000
85.000000, 0.000000, 4207.179199, 4212.820313, 4210.769043, 4238.461426, 4201.538574, 4190.769043, 4189.230469, 4200.000000, 4200.000000, 4220.000000, 4218.461426, 4201.025391, 4096.922852, 4231.794922, 3526.000000, 8376.000000, 8118.000000, 0.000000, 0.000000, 0.000000, 23038.000000, 282.051270, 4.000000, 4.000000, 4.000000, 4.000000, 4.000000, 4.000000, 4.000000, 4.000000, 4.000000, 4.000000, 4.000000, 4.000000, 4.000000, 4.000000, 4.000000, 4.000000
86.000000, 0.000000, 4206.153809, 4202.563965, 4214.358887, 4236.410156, 4194.358887, 4194.358887, 4201.025391, 4200.512695, 4198.974121, 4219.487305, 4221.025391, 4198.461426, 4091.794678, 4230.256348, 2474.000000, 8376.000000, 8118.000000, 0.000000, 0.000000, 0.000000, 23038.000000, 289.743591, 4.000000, 4.000000, 4.000000, 4.000000, 4.000000, 4.000000, 4.000000, 4.000000, 4.000000, 4.000000, 4.000000, 4.000000, 4.000000, 4.000000, 4.000000, 4.000000
87.000000, 0.000000, 4200.000000, 4185.127930, 4203.076660, 4233.846191, 4187.692383, 4189.743652, 4204.102539, 4201.025391, 4201.538574, 4219.487305, 4213.846191, 4185.127930, 4089.230713, 4229.230469, 3043.000000, 8385.000000, 8177.000000, 0.000000, 0.000000, 0.000000, 23038.000000, 297.435883, 4.000000, 4.000000, 4.000000, 4.000000, 4.000000, 4.000000, 4.000000, 4.000000, 4.000000, 4.000000, 4.000000, 4.000000, 4.000000, 4.000000, 4.000000, 4.000000
88.000000, 0.000000, 4198.974121, 4189.230469, 4198.461426, 4231.281738, 4188.717773, 4190.769043, 4203.076660, 4200.000000, 4202.051270, 4214.358887, 4212.820313, 4181.025391, 4089.743408, 4216.922852, 3507.000000, 8385.000000, 8177.000000, 0.000000, 0.000000, 0.000000, 23038.000000, 305.641022, 4.000000, 4.000000, 4.000000, 4.000000, 4.000000, 4.000000, 4.000000, 4.000000, 4.000000, 4.000000, 4.000000, 4.000000, 4.000000, 4.000000, 4.000000, 4.000000
89.000000, 0.000000, 4200.000000, 4177.948730, 4197.948730, 4221.025391, 4186.153809, 4197.948730, 4203.589844, 4202.563965, 4202.051270, 4207.692383, 4214.358887, 4185.127930, 4086.666504, 4214.871582, 3526.000000, 8388.000000, 8227.000000, 0.000000, 0.000000, 0.000000, 23038.000000, 313.333313, 4.000000, 4.000000, 4.000000, 4.000000, 4.000000, 4.000000, 4.000000, 4.000000, 4.000000, 4.000000, 4.000000, 4.000000, 4.000000, 4.000000, 4.000000, 4.000000
90.000000, 0.000000, 4199.487305, 4163.589844, 4191.281738, 4214.358887, 4184.102539, 4200.512695, 4205.127930, 4205.127930, 4208.717773, 4208.717773, 4206.666504, 4185.127930, 4077.948730, 4228.205078, 2474.000000, 8388.000000, 8227.000000, 0.000000, 0.000000, 0.000000, 23038.000000, 321.025635, 4.000000, 4.000000, 4.000000, 4.000000, 4.000000, 4.000000, 4.000000, 4.000000, 4.000000, 4.000000, 4.000000, 4.000000, 4.000000, 4.000000, 4.000000, 4.000000
91.000000, 0.000000, 4197.436035, 4172.307617, 4188.205078, 4217.436035, 4188.205078, 4200.512695, 4210.769043, 4202.563965, 4216.410156, 4216.410156, 4201.538574, 4181.025391, 4078.974365, 4234.871582, 3043.000000, 8379.000000, 8281.000000, 0.000000, 0.000000, 0.000000, 23038.000000, 328.717926, 4.000000, 4.000000, 4.000000, 4.000000, 4.000000, 4.000000, 4.000000, 4.000000, 4.000000, 4.000000, 4.000000, 4.000000, 4.000000, 4.000000, 4.000000, 4.000000
92.000000, 0.000000, 4188.717773, 4175.897461, 4187.179199, 4215.384277, 4182.563965, 4201.538574, 4212.820313, 4200.512695, 4216.410156, 4218.974121, 4202.563965, 4173.333008, 4086.666504, 4237.436035, 3507.000000, 8379.000000, 8281.000000, 0.000000, 0.000000, 0.000000, 23038.000000, 336.923065, 4.000000, 4.000000, 4.000000, 4.000000, 4.000000, 4.000000, 4.000000, 4.000000, 4.000000, 4.000000, 4.000000, 4.000000, 4.000000, 4.000000, 4.000000, 4.000000
93.000000, 0.000000, 4191.281738, 4165.641113, 4184.102539, 4209.230469, 4178.974121, 4200.000000, 4205.641113, 4201.025391, 4214.871582, 4216.922852, 4205.127930, 4172.820313, 4094.871582, 4245.127930, 3526.000000, 8348.000000, 8357.000000, 0.000000, 0.000000, 0.000000, 23038.000000, 344.615387, 4.000000, 4.000000, 4.000000, 4.000000, 4.000000, 4.000000, 4.000000, 4.000000, 4.000000, 4.000000, 4.000000, 4.000000, 4.000000, 4.000000, 4.000000, 4.000000
94.000000, 0.000000, 4200.512695, 4164.615234, 4192.307617, 4213.846191, 4195.384277, 4201.025391, 4201.025391, 4200.512695, 4216.410156, 4220.000000, 4212.307617, 4185.127930, 4103.076660, 4244.102539, 2474.000000, 8348.000000, 8357.000000, 0.000000, 0.000000, 0.000000, 23038.000000, 352.307678, 4.000000, 4.000000, 4.000000, 4.000000, 4.000000, 4.000000, 4.000000, 4.000000, 4.000000, 4.000000, 4.000000, 4.000000, 4.000000, 4.000000, 4.000000, 4.000000
95.000000, 0.000000, 4198.461426, 4175.384277, 4201.025391, 4218.461426, 4204.102539, 4201.025391, 4196.410156, 4198.974121, 4209.230469, 4220.000000, 4216.922852, 4188.205078, 4100.512695, 4234.871582, 3043.000000, 8335.000000, 8368.000000, 1.000000, 2.000000, 0.000000, 23038.000000, 360.512817, 4.000000, 4.000000, 4.000000, 4.000000, 4.000000, 4.000000, 4.000000, 4.000000, 4.000000, 4.000000, 4.000000, 4.000000, 4.000000, 4.000000, 4.000000, 4.000000
96.000000, 0.000000, 4195.897461, 4183.076660, 4198.461426, 4216.410156, 4192.307617, 4192.307617, 4188.717773, 4199.487305, 4199.487305, 4216.410156, 4217.436035, 4183.076660, 4096.410156, 4241.538574, 3507.000000, 8335.000000, 8368.000000, 0.000000, 0.000000, 0.000000, 23038.000000, 368.205109, 4.000000, 4.000000, 4.000000, 4.000000, 4.000000, 4.000000, 4.000000, 4.000000, 4.000000, 4.000000, 4.000000, 4.000000, 4.000000, 4.000000, 4.000000, 4.000000
97.000000, 0.000000, 4200.000000, 4184.102539, 4197.948730, 4216.922852, 4184.102539, 4181.025391, 4182.051270, 4200.512695, 4202.051270, 4216.922852, 4225.127930, 4188.717773, 4102.051270, 4250.769043, 3526.000000, 8275.000000, 8376.000000, 0.000000, 0.000000, 0.000000, 23038.000000, 376.410248, 4.000000, 4.000000, 4.000000, 4.000000, 4.000000, 4.000000, 4.000000, 4.000000, 4.000000, 4.000000, 4.000000, 4.000000, 4.000000, 4.000000, 4.000000, 4.000000
98.000000, 0.000000, 4206.153809, 4186.666504, 4199.487305, 4215.897461, 4189.743652, 4177.948730, 4181.025391, 4201.538574, 4197.436035, 4209.743652, 4224.615234, 4186.666504, 4099.487305, 4244.102539, 2474.000000, 8275.000000, 8376.000000, 0.000000, 0.000000, 0.000000, 23038.000000, 384.102570, 4.000000, 4.000000, 4.000000, 4.000000, 4.000000, 4.000000, 4.000000, 4.000000, 4.000000, 4.000000, 4.000000, 4.000000, 4.000000, 4.000000, 4.000000, 4.000000
99.000000, 0.000000, 4207.692383, 4189.230469, 4195.897461, 4210.256348, 4194.358887, 4185.641113, 4190.256348, 4200.512695, 4180.512695, 4193.333008, 4215.897461, 4173.333008, 4089.743408, 4240.000000, 3043.000000, 8247.000000, 8385.000000, 0.000000, 0.000000, 0.000000, 23038.000000, 391.794861, 4.000000, 4.000000, 4.000000, 4.000000, 4.000000, 4.000000, 4.000000, 4.000000, 4.000000, 4.000000, 4.000000, 4.000000, 4.000000, 4.000000, 4.000000, 4.000000
100.000000, 0.000000, 4201.538574, 4176.410156, 4191.281738, 4204.102539, 4178.974121, 4189.743652, 4200.000000, 4201.025391, 4183.589844, 4185.641113, 4219.487305, 4167.179199, 4092.307617, 4238.461426, 3507.000000, 8247.000000, 8385.000000, 0.000000, 0.000000, 0.000000, 23038.000000, 400.000000, 4.000000, 4.000000, 4.000000, 4.000000, 4.000000, 4.000000, 4.000000, 4.000000, 4.000000, 4.000000, 4.000000, 4.000000, 4.000000, 4.000000, 4.000000, 4.000000
101.000000, 0.000000, 4201.025391, 4162.051270, 4184.102539, 4195.384277, 4165.641113, 4186.666504, 4202.563965, 4203.589844, 4201.025391, 4195.384277, 4226.666504, 4166.666504, 4100.512695, 4236.410156, 3526.000000, 8208.000000, 8409.000000, 0.000000, 0.000000, 0.000000, 23038.000000, 407.692291, 4.000000, 4.000000, 4.000000, 4.000000, 4.000000, 4.000000, 4.000000, 4.000000, 4.000000, 4.000000, 4.000000, 4.000000, 4.000000, 4.000000, 4.000000, 4.000000
102.000000, 0.000000, 4206.666504, 4173.333008, 4181.025391, 4192.307617, 4178.974121, 4187.692383, 4207.179199, 4204.102539, 4207.179199, 4211.281738, 4229.743652, 4168.205078, 4097.948730, 4256.410156, 2474.000000, 8208.000000, 8409.000000, 0.000000, 0.000000, 0.000000, 23038.000000, 415.384613, 4.000000, 4.000000, 4.000000, 4.000000, 4.000000, 4.000000, 4.000000, 4.000000, 4.000000, 4.000000, 4.000000, 4.000000, 4.000000, 4.000000, 4.000000, 4.000000
103.000000, 0.000000, 4213.333008, 4189.743652, 4186.666504, 4198.974121, 4191.281738, 4188.717773, 4212.820313, 4202.563965, 4204.102539, 4215.897461, 4233.333008, 4171.794922, 4095.897217, 4285.127930, 3043.000000, 8135.000000, 8488.000000, 0.000000, 0.000000, 0.000000, 23038.000000, 423.589722, 4.000000, 4.000000, 4.000000, 4.000000, 4.000000, 4.000000, 4.000000, 4.000000, 4.000000, 4.000000, 4.000000, 4.000000, 4.000000, 4.000000, 4.000000, 4.000000
104.000000, 0.000000, 4214.358887, 4190.769043, 4188.717773, 4203.589844, 4184.102539, 4183.076660, 4200.512695, 4201.538574, 4202.563965, 4205.641113, 4234.358887, 4170.769043, 4094.871582, 4284.102539, 3507.000000, 8135.000000, 8488.000000, 0.000000, 0.000000, 0.000000, 23038.000000, 431.282043, 4.000000, 4.000000, 4.000000, 4.000000, 4.000000, 4.000000, 4.000000, 4.000000, 4.000000, 4.000000, 4.000000, 4.000000, 4.000000, 4.000000, 4.000000, 4.000000
105.000000, 0.000000, 4214.358887, 4188.717773, 4190.769043, 4203.589844, 4178.974121, 4175.897461, 4186.666504, 4201.538574, 4202.563965, 4203.589844, 4237.948730, 4172.820313, 4096.410156, 4280.512695, 3526.000000, 8107.000000, 8488.000000, 0.000000, 0.000000, 0.000000, 23038.000000, 439.487183, 4.000000, 4.000000, 4.000000, 4.000000, 4.000000, 4.000000, 4.000000, 4.000000, 4.000000, 4.000000, 4.000000, 4.000000, 4.000000, 4.000000, 4.000000, 4.000000
106.000000, 0.000000, 4219.487305, 4186.666504, 4197.948730, 4208.717773, 4176.922852, 4170.256348, 4186.153809, 4201.538574, 4205.641113, 4213.846191, 4247.179199, 4183.076660, 4100.000000, 4294.871582, 2474.000000, 8107.000000, 8488.000000, 0.000000, 0.000000, 0.000000, 23038.000000, 447.179474, 4.000000, 4.000000, 4.000000, 4.000000, 4.000000, 4.000000, 4.000000, 4.000000, 4.000000, 4.000000, 4.000000, 4.000000, 4.000000, 4.000000, 4.000000, 4.000000
107.000000, 0.000000, 4216.922852, 4183.076660, 4198.974121, 4211.794922, 4170.769043, 4168.205078, 4184.102539, 4200.512695, 4202.563965, 4211.794922, 4247.179199, 4187.692383, 4092.307617, 4295.384277, 3043.000000, 8055.000000, 8399.000000, 0.000000, 0.000000, 0.000000, 23038.000000, 454.871796, 4.000000, 4.000000, 4.000000, 4.000000, 4.000000, 4.000000, 4.000000, 4.000000, 4.000000, 4.000000, 4.000000, 4.000000, 4.000000, 4.000000, 4.000000, 4.000000
108.000000, 0.000000, 4215.897461, 4191.794922, 4196.410156, 4215.897461, 4178.461426, 4177.436035, 4185.127930, 4200.512695, 4198.461426, 4200.512695, 4250.769043, 4185.127930, 4089.743408, 4292.820313, 3507.000000, 8055.000000, 8399.000000, 0.000000, 0.000000, 0.000000, 23038.000000, 463.076904, 4.000000, 4.000000, 4.000000, 4.000000, 4.000000, 4.000000, 4.000000, 4.000000, 4.000000, 4.000000, 4.000000, 4.000000, 4.000000, 4.000000, 4.000000, 4.000000
109.000000, 0.000000, 4222.563965, 4206.666504, 4201.538574, 4226.153809, 4191.281738, 4186.153809, 4192.307617, 4200.512695, 4197.948730, 4200.512695, 4263.076660, 4187.692383, 4100.512695, 4309.230469, 3526.000000, 8046.000000, 8334.000000, 0.000000, 0.000000, 0.000000, 23038.000000, 470.769226, 4.000000, 4.000000, 4.000000, 4.000000, 4.000000, 4.000000, 4.000000, 4.000000, 4.000000, 4.000000, 4.000000, 4.000000, 4.000000, 4.000000, 4.000000, 4.000000
110.000000, 0.000000, 4221.538574, 4217.948730, 4211.794922, 4230.769043, 4194.871582, 4185.127930, 4193.333008, 4201.538574, 4189.230469, 4200.512695, 4266.153809, 4192.820313, 4107.692383, 4327.692383, 2474.000000, 8046.000000, 8334.000000, 0.000000, 0.000000, 0.000000, 23038.000000, 478.461517, 4.000000, 4.000000, 4.000000, 4.000000, 4.000000, 4.000000, 4.000000, 4.000000, 4.000000, 4.000000, 4.000000, 4.000000, 4.000000, 4.000000, 4.000000, 4.000000
111.000000, 0.000000, 4220.000000, 4231.794922, 4218.461426, 4236.410156, 4198.461426, 4184.615234, 4189.743652, 4203.589844, 4189.230469, 4201.538574, 4270.769043, 4203.076660, 4107.692383, 4332.820313, 3043.000000, 8045.000000, 8276.000000, 0.000000, 0.000000, 0.000000, 23038.000000, 486.666656, 4.000000, 4.000000, 4.000000, 4.000000, 4.000000, 4.000000, 4.000000, 4.000000, 4.000000, 4.000000, 4.000000, 4.000000, 4.000000, 4.000000, 4.000000, 4.000000
112.000000, 0.000000, 4215.384277, 4235.897461, 4219.487305, 4245.127930, 4201.538574, 4182.563965, 4188.717773, 4200.000000, 4200.000000, 4215.384277, 4282.051270, 4211.281738, 4109.743652, 4328.205078, 3507.000000, 8045.000000, 8276.000000, 0.000000, 0.000000, 0.000000, 23038.000000, 494.358948, 4.000000, 4.000000, 4.000000, 4.000000, 4.000000, 4.000000, 4.000000, 4.000000, 4.000000, 4.000000, 4.000000, 4.000000, 4.000000, 4.000000, 4.000000, 4.000000
113.000000, 0.000000, 4208.717773, 4234.358887, 4218.461426, 4241.538574, 4200.512695, 4174.358887, 4186.666504, 4195.384277, 4201.538574, 4222.051270, 4283.076660, 4208.717773, 4110.256348, 4324.615234, 3526.000000, 8040.000000, 8183.000000, 0.000000, 0.000000, 0.000000, 23038.000000, 502.564087, 4.000000, 4.000000, 4.000000, 4.000000, 4.000000, 4.000000, 4.000000, 4.000000, 4.000000, 4.000000, 4.000000, 4.000000, 4.000000, 4.000000, 4.000000, 4.000000
114.000000, 0.000000, 4207.692383, 4241.538574, 4215.384277, 4232.820313, 4197.436035, 4174.358887, 4182.051270, 4198.461426, 4196.922852, 4216.410156, 4278.974121, 4204.615234, 4107.179199, 4330.769043, 2474.000000, 8040.000000, 8183.000000, 0.000000, 0.000000, 0.000000, 23038.000000, 510.256409, 4.000000, 4.000000, 4.000000, 4.000000, 4.000000, 4.000000, 4.000000, 4.000000, 4.000000, 4.000000, 4.000000, 4.000000, 4.000000, 4.000000, 4.000000, 4.000000
115.000000, 0.000000, 4206.153809, 4239.487305, 4208.205078, 4231.281738, 4194.358887, 4183.076660, 4184.102539, 4202.051270, 4199.487305, 4214.871582, 4274.358887, 4200.512695, 4109.743652, 4333.333008, 3043.000000, 8046.000000, 8161.000000, 0.000000, 0.000000, 0.000000, 23038.000000, 517.948730, 4.000000, 4.000000, 4.000000, 4.000000, 4.000000, 4.000000, 4.000000, 4.000000, 4.000000, 4.000000, 4.000000, 4.000000, 4.000000, 4.000000, 4.000000, 4.000000
116.000000, 0.000000, 4205.127930, 4227.179199, 4203.076660, 4223.076660, 4186.666504, 4184.615234, 4194.358887, 4201.025391, 4200.512695, 4213.846191, 4266.666504, 4192.820313, 4106.666504, 4326.666504, 3507.000000, 8046.000000, 8161.000000, 0.000000, 0.000000, 0.000000, 23038.000000, 526.153809, 4.000000, 4.000000, 4.000000, 4.000000, 4.000000, 4.000000, 4.000000, 4.000000, 4.000000, 4.000000, 4.000000, 4.000000, 4.000000, 4.000000, 4.000000, 4.000000
117.000000, 0.000000, 4206.153809, 4218.974121, 4201.025391, 4211.794922, 4180.000000, 4184.102539, 4199.487305, 4200.000000, 4200.000000, 4204.615234, 4260.000000, 4186.666504, 4092.820313, 4325.641113, 3526.000000, 8073.000000, 8092.000000, 0.000000, 0.000000, 0.000000, 23038.000000, 533.846130, 4.000000, 4.000000, 4.000000, 4.000000, 4.000000, 4.000000, 4.000000, 4.000000, 4.000000, 4.000000, 4.000000, 4.000000, 4.000000, 4.000000, 4.000000, 4.000000
118.000000, 0.000000, 4204.102539, 4209.743652, 4198.974121, 4211.794922, 4189.743652, 4192.820313, 4200.512695, 4202.563965, 4202.051270, 4199.487305, 4253.333008, 4185.641113, 4086.666504, 4327.692383, 2474.000000, 8073.000000, 8092.000000, 0.000000, 0.000000, 0.000000, 23038.000000, 541.538452, 4.000000, 4.000000, 4.000000, 4.000000, 4.000000, 4.000000, 4.000000, 4.000000, 4.000000, 4.000000, 4.000000, 4.000000, 4.000000, 4.000000, 4.000000, 4.000000
119.000000, 0.000000, 4203.076660, 4201.538574, 4193.333008, 4210.256348, 4201.538574, 4202.051270, 4201.025391, 4202.051270, 4201.538574, 4203.076660, 4243.076660, 4184.102539, 4083.589600, 4322.051270, 3043.000000, 8085.000000, 8056.000000, 0.000000, 0.000000, 0.000000, 23038.000000, 549.743591, 4.000000, 4.000000, 4.000000, 4.000000, 4.000000, 4.000000, 4.000000, 4.000000, 4.000000, 4.000000, 4.000000, 4.000000, 4.000000, 4.000000, 4.000000, 4.000000
120.000000, 0.000000, 4206.153809, 4200.000000, 4188.205078, 4207.692383, 4201.538574, 4202.051270, 4201.025391, 4200.512695, 4201.538574, 4205.127930, 4238.461426, 4185.127930, 4075.384521, 4320.512695, 3507.000000, 8085.000000, 8056.000000, 0.000000, 0.000000, 0.000000, 23038.000000, 557.435913, 4.000000, 4.000000, 4.000000, 4.000000, 4.000000, 4.000000, 4.000000, 4.000000, 4.000000, 4.000000, 4.000000, 4.000000, 4.000000, 4.000000, 4.000000, 4.000000
121.000000, 0.000000, 4209.230469, 4197.948730, 4186.666504, 4213.333008, 4200.000000, 4200.512695, 4201.538574, 4201.025391, 4200.000000, 4204.102539, 4237.948730, 4183.589844, 4071.794678, 4324.102539, 3526.000000, 8149.000000, 7985.000000, 0.000000, 0.000000, 0.000000, 23038.000000, 565.640991, 4.000000, 4.000000, 4.000000, 4.000000, 4.000000, 4.000000, 4.000000, 4.000000, 4.000000, 4.000000, 4.000000, 4.000000, 4.000000, 4.000000, 4.000000, 4.000000
122.000000, 0.000000, 4206.153809, 4201.025391, 4186.153809, 4214.358887, 4203.589844, 4200.512695, 4196.410156, 4201.025391, 4197.436035, 4202.563965, 4228.205078, 4172.307617, 4072.307617, 4320.512695, 2474.000000, 8149.000000, 7985.000000, 0.000000, 0.000000, 0.000000, 23038.000000, 573.333313, 4.000000, 4.000000, 4.000000, 4.000000, 4.000000, 4.000000, 4.000000, 4.000000, 4.000000, 4.000000, 4.000000, 4.000000, 4.000000, 4.000000, 4.000000, 4.000000
123.000000, 0.000000, 4206.666504, 4203.589844, 4183.076660, 4209.743652, 4203.589844, 4199.487305, 4188.205078, 4201.025391, 4200.512695, 4203.076660, 4222.051270, 4170.769043, 4068.717773, 4321.025391, 3043.000000, 8185.000000, 7957.000000, 0.000000, 0.000000, 0.000000, 23038.000000, 581.538452, 4.000000, 4.000000, 4.000000, 4.000000, 4.000000, 4.000000, 4.000000, 4.000000, 4.000000, 4.000000, 4.000000, 4.000000, 4.000000, 4.000000, 4.000000, 4.000000
124.000000, 0.000000, 4211.281738, 4192.307617, 4185.641113, 4212.820313, 4201.538574, 4195.384277, 4190.769043, 4201.025391, 4196.922852, 4202.051270, 4225.127930, 4183.076660, 4064.102539, 4331.794922, 3507.000000, 8185.000000, 7957.000000, 0.000000, 0.000000, 0.000000, 23038.000000, 589.230774, 4.000000, 4.000000, 4.000000, 4.000000, 4.000000, 4.000000, 4.000000, 4.000000, 4.000000, 4.000000, 4.000000, 4.000000, 4.000000, 4.000000, 4.000000, 4.000000
125.000000, 0.000000, 4206.153809, 4183.589844, 4194.871582, 4216.410156, 4197.436035, 4189.743652, 4195.897461, 4200.512695, 4188.717773, 4203.076660, 4225.641113, 4187.692383, 4062.051270, 4333.333008, 3526.000000, 8211.000000, 7949.000000, 0.000000, 0.000000, 0.000000, 23038.000000, 597.435913, 4.000000, 4.000000, 4.000000, 4.000000, 4.000000, 4.000000, 4.000000, 4.000000, 4.000000, 4.000000, 4.000000, 4.000000, 4.000000, 4.000000, 4.000000, 4.000000
126.000000, 0.000000, 4205.127930, 4189.230469, 4195.897461, 4209.230469, 4192.820313, 4184.615234, 4190.769043, 4201.025391, 4190.256348, 4208.205078, 4218.974121, 4184.615234, 4061.025635, 4317.436035, 2474.000000, 8211.000000, 7949.000000, 0.000000, 0.000000, 0.000000, 23038.000000, 605.128174, 4.000000, 4.000000, 4.000000, 4.000000, 4.000000, 4.000000, 4.000000, 4.000000, 4.000000, 4.000000, 4.000000, 4.000000, 4.000000, 4.000000, 4.000000, 4.000000
127.000000, 0.000000, 4207.179199, 4190.256348, 4190.769043, 4201.538574, 4190.769043, 4185.641113, 4184.615234, 4201.538574, 4193.846191, 4209.230469, 4211.281738, 4186.666504, 4057.435791, 4298.974121, 56.000000, 8212.000000, 7969.000000, 0.000000, 0.000000, 0.000000, 23038.000000, 613.333313, 4.000000, 4.000000, 4.000000, 4.000000, 4.000000, 4.000000, 4.000000, 4.000000, 4.000000, 4.000000, 4.000000, 4.000000, 4.000000, 4.000000, 4.000000, 4.000000
0.000000, 0.000000, 4198.974121, 4173.333008, 4186.153809, 4198.974121, 4177.948730, 4183.076660, 4184.102539, 4200.512695, 4188.717773, 4203.076660, 4200.512695, 4183.589844, 4048.205078, 4291.281738, 3544.000000, 8212.000000, 7969.000000, 0.000000, 0.000000, 0.000000, 23038.000000, 621.025635, 4.000000, 4.000000, 4.000000, 4.000000, 4.000000, 4.000000, 4.000000, 4.000000, 4.000000, 4.000000, 4.000000, 4.000000, 4.000000, 4.000000, 4.000000, 4.000000
1.000000, 0.000000, 4195.897461, 4161.538574, 4185.127930, 4196.922852, 4172.307617, 4178.974121, 4190.256348, 4201.025391, 4183.589844, 4193.333008, 4187.179199, 4171.794922, 4042.051270, 4294.358887, 3537.000000, 8194.000000, 7971.000000, 0.000000, 0.000000, 0.000000, 23038.000000, 629.230774, 4.000000, 4.000000, 4.000000, 4.000000, 4.000000, 4.000000, 4.000000, 4.000000, 4.000000, 4.000000, 4.000000, 4.000000, 4.000000, 4.000000, 4.000000, 4.000000
2.000000, 0.000000, 4202.051270, 4173.333008, 4183.589844, 4197.436035, 4190.256348, 4190.769043, 4201.538574, 4201.538574, 4188.205078, 4191.281738, 4183.589844, 4167.692383, 4040.512695, 4300.512695, 1954.000000, 8194.000000, 7971.000000, 0.000000, 0.000000, 0.000000, 23038.000000, 636.923035, 4.000000, 4.000000, 4.000000, 4.000000, 4.000000, 4.000000, 4.000000, 4.000000, 4.000000, 4.000000, 4.000000, 4.000000, 4.000000, 4.000000, 4.000000, 4.000000
3.000000, 0.000000, 4206.153809, 4184.102539, 4183.076660, 4200.512695, 4204.615234, 4204.102539, 4208.205078, 4201.538574, 4197.436035, 4198.461426, 4185.641113, 4174.358887, 4035.384521, 4306.666504, 3566.000000, 8166.000000, 7938.000000, 0.000000, 0.000000, 0.000000, 23038.000000, 645.128174, 4.000000, 4.000000, 4.000000, 4.000000, 4.000000, 4.000000, 4.000000, 4.000000, 4.000000, 4.000000, 4.000000, 4.000000, 4.000000, 4.000000, 4.000000, 4.000000
4.000000, 0.000000, 4204.615234, 4175.897461, 4190.769043, 4199.487305, 4203.076660, 4202.563965, 4207.692383, 4202.051270, 4201.538574, 4197.436035, 4190.769043, 4181.025391, 4033.845947, 4308.717773, 3468.000000, 8166.000000, 7938.000000, 0.000000, 0.000000, 0.000000, 23038.000000, 652.820496, 4.000000, 4.000000, 4.000000, 4.000000, 4.000000, 4.000000, 4.000000, 4.000000, 4.000000, 4.000000, 4.000000, 4.000000, 4.000000, 4.000000, 4.000000, 4.000000
5.000000, 0.000000, 4201.025391, 4164.615234, 4191.794922, 4193.846191, 4198.974121, 4201.025391, 4206.153809, 4201.538574, 4203.589844, 4192.820313, 4198.974121, 4182.051270, 4032.307617, 4309.230469, 3578.000000, 8169.000000, 7906.000000, 0.000000, 0.000000, 0.000000, 23038.000000, 661.025635, 4.000000, 4.000000, 4.000000, 4.000000, 4.000000, 4.000000, 4.000000, 4.000000, 4.000000, 4.000000, 4.000000, 4.000000, 4.000000, 4.000000, 4.000000, 4.000000
6.000000, 0.000000, 4204.102539, 4164.102539, 4187.692383, 4186.666504, 4190.769043, 4197.948730, 4203.076660, 4202.563965, 4204.102539, 4196.922852, 4198.461426, 4180.512695, 4030.769043, 4312.820313, 2998.000000, 8169.000000, 7906.000000, 0.000000, 0.000000, 0.000000, 23038.000000, 668.717957, 4.000000, 4.000000, 4.000000, 4.000000, 4.000000, 4.000000, 4.000000, 4.000000, 4.000000, 4.000000, 4.000000, 4.000000, 4.000000, 4.000000, 4.000000, 4.000000
7.000000, 0.000000, 4205.641113, 4166.153809, 4192.820313, 4186.153809, 4185.641113, 4189.230469, 4199.487305, 4202.563965, 4203.076660, 4202.051270, 4195.384277, 4181.538574, 4041.025635, 4313.846191, 619.000000, 8175.000000, 7891.000000, 0.000000, 0.000000, 0.000000, 23038.000000, 676.923035, 4.000000, 4.000000, 4.000000, 4.000000, 4.000000, 4.000000, 4.000000, 4.000000, 4.000000, 4.000000, 4.000000, 4.000000, 4.000000, 4.000000, 4.000000, 4.000000
8.000000, 0.000000, 4204.102539, 4170.256348, 4203.076660, 4197.436035, 4194.871582, 4194.358887, 4202.563965, 4202.051270, 4206.153809, 4206.153809, 4205.127930, 4193.333008, 4054.871582, 4313.333008, 3535.000000, 8175.000000, 7891.000000, 0.000000, 0.000000, 0.000000, 23038.000000, 684.615356, 4.000000, 4.000000, 4.000000, 4.000000, 4.000000, 4.000000, 4.000000, 4.000000, 4.000000, 4.000000, 4.000000, 4.000000, 4.000000, 4.000000, 4.000000, 4.000000
9.000000, 0.000000, 4203.076660, 4172.820313, 4206.666504, 4202.051270, 4196.410156, 4202.563965, 4205.127930, 4205.641113, 4214.871582, 4217.948730, 4216.410156, 4206.153809, 4055.897217, 4315.384277, 3543.000000, 8195.000000, 7861.000000, 0.000000, 0.000000, 0.000000, 23038.000000, 692.820496, 4.000000, 4.000000, 4.000000, 4.000000, 4.000000, 4.000000, 4.000000, 4.000000, 4.000000, 4.000000, 4.000000, 4.000000, 4.000000, 4.000000, 4.000000, 4.000000
10.000000, 0.000000, 4197.948730, 4162.563965, 4202.051270, 4191.794922, 4187.692383, 4193.333008, 4203.076660, 4207.179199, 4219.487305, 4224.615234, 4210.256348, 4202.563965, 4050.769043, 4309.230469, 2479.000000, 8195.000000, 7861.000000, 0.000000, 0.000000, 0.000000, 23038.000000, 700.512817, 4.000000, 4.000000, 4.000000, 4.000000, 4.000000, 4.000000, 4.000000, 4.000000, 4.000000, 4.000000, 4.000000, 4.000000, 4.000000, 4.000000, 4.000000, 4.000000
11.000000, 0.000000, 4195.897461, 4147.692383, 4191.281738, 4182.051270, 4180.512695, 4189.743652, 4205.127930, 4203.076660, 4217.436035, 4217.436035, 4193.846191, 4188.205078, 4046.153809, 4299.487305, 3043.000000, 8207.000000, 7836.000000, 0.000000, 0.000000, 0.000000, 23038.000000, 708.717957, 4.000000, 4.000000, 4.000000, 4.000000, 4.000000, 4.000000, 4.000000, 4.000000, 4.000000, 4.000000, 4.000000, 4.000000, 4.000000, 4.000000, 4.000000, 4.000000
12.000000, 0.000000, 4198.974121, 4152.307617, 4184.615234, 4186.153809, 4178.974121, 4200.000000, 4207.179199, 4200.512695, 4214.871582, 4214.871582, 4186.153809, 4181.538574, 4048.717773, 4293.333008, 3504.000000, 8207.000000, 7836.000000, 0.000000, 0.000000, 0.000000, 23038.000000, 716.410217, 4.000000, 4.000000, 4.000000, 4.000000, 4.000000, 4.000000, 4.000000, 4.000000, 4.000000, 4.000000, 4.000000, 4.000000, 4.000000, 4.000000, 4.000000, 4.000000
13.000000, 0.000000, 4202.051270, 4170.769043, 4189.743652, 4192.820313, 4192.307617, 4202.563965, 4207.692383, 4203.589844, 4214.871582, 4222.563965, 4188.717773, 4185.127930, 4057.435791, 4286.153809, 3537.000000, 8224.000000, 7822.000000, 0.000000, 0.000000, 0.000000, 23038.000000, 724.615356, 4.000000, 4.000000, 4.000000, 4.000000, 4.000000, 4.000000, 4.000000, 4.000000, 4.000000, 4.000000, 4.000000, 4.000000, 4.000000, 4.000000, 4.000000, 4.000000
14.000000, 0.000000, 4198.461426, 4175.384277, 4190.769043, 4190.769043, 4200.000000, 4198.974121, 4205.641113, 4203.589844, 4215.897461, 4227.692383, 4188.717773, 4186.153809, 4059.487061, 4286.153809, 2479.000000, 8224.000000, 7822.000000, 0.000000, 0.000000, 0.000000, 23038.000000, 732.307678, 4.000000, 4.000000, 4.000000, 4.000000, 4.000000, 4.000000, 4.000000, 4.000000, 4.000000, 4.000000, 4.000000, 4.000000, 4.000000, 4.000000, 4.000000, 4.000000
15.000000, 0.000000, 4194.358887, 4166.666504, 4185.641113, 4185.641113, 4189.743652, 4202.563965, 4206.666504, 4198.974121, 4217.948730, 4231.281738, 4186.153809, 4185.127930, 4057.435791, 4288.717773, 3043.000000, 8234.000000, 7828.000000, 0.000000, 0.000000, 0.000000, 23038.000000, 740.512817, 4.000000, 4.000000, 4.000000, 4.000000, 4.000000, 4.000000, 4.000000, 4.000000, 4.000000, 4.000000, 4.000000, 4.000000, 4.000000, 4.000000, 4.000000, 4.000000
16.000000, 0.000000, 4196.922852, 4157.436035, 4186.666504, 4180.512695, 4185.127930, 4202.563965, 4211.794922, 4203.589844, 4217.436035, 4230.769043, 4186.153809, 4184.102539, 4053.845947, 4283.076660, 0.000000, 8234.000000, 7828.000000, 0.000000, 0.000000, 0.000000, 23038.000000, 748.205139, 4.000000, 4.000000, 4.000000, 4.000000, 4.000000, 4.000000, 4.000000, 4.000000, 4.000000, 4.000000, 4.000000, 4.000000, 4.000000, 4.000000, 4.000000, 4.000000
17.000000, 0.000000, 4192.820313, 4149.743652, 4182.051270, 4174.871582, 4188.205078, 4201.025391, 4214.871582, 4208.717773, 4216.410156, 4226.153809, 4182.563965, 4184.615234, 4045.640869, 4283.589844, 0.000000, 8225.000000, 7902.000000, 0.000000, 0.000000, 0.000000, 23038.000000, 756.410217, 4.000000, 4.000000, 4.000000, 4.000000, 4.000000, 4.000000, 4.000000, 4.000000, 4.000000, 4.000000, 4.000000, 4.000000, 4.000000, 4.000000, 4.000000, 4.000000
18.000000, 0.000000, 4190.256348, 4137.948730, 4171.281738, 4169.230469, 4184.102539, 4204.615234, 4214.358887, 4204.102539, 4221.025391, 4224.615234, 4172.820313, 4183.589844, 4043.076904, 4295.897461, 0.000000, 8225.000000, 7902.000000, 0.000000, 0.000000, 0.000000, 23038.000000, 764.102539, 4.000000, 4.000000, 4.000000, 4.000000, 4.000000, 4.000000, 4.000000, 4.000000, 4.000000, 4.000000, 4.000000, 4.000000, 4.000000, 4.000000, 4.000000, 4.000000
19.000000, 0.000000, 4194.358887, 4132.307617, 4169.743652, 4166.666504, 4189.743652, 4212.307617, 4212.307617, 4205.641113, 4228.717773, 4230.256348, 4168.717773, 4178.974121, 4052.307617, 4300.000000, 0.000000, 8212.000000, 7953.000000, 0.000000, 0.000000, 0.000000, 23038.000000, 771.794861, 4.000000, 4.000000, 4.000000, 4.000000, 4.000000, 4.000000, 4.000000, 4.000000, 4.000000, 4.000000, 4.000000, 4.000000, 4.000000, 4.000000, 4.000000, 4.000000
20.000000, 0.000000, 4193.846191, 4147.179199, 4176.922852, 4170.769043, 4202.051270, 4216.922852, 4216.410156, 4210.769043, 4233.846191, 4240.000000, 4171.281738, 4178.461426, 4063.589600, 4292.307617, 0.000000, 8212.000000, 7953.000000, 0.000000, 0.000000, 0.000000, 23038.000000, 780.000000, 4.000000, 4.000000, 4.000000, 4.000000, 4.000000, 4.000000, 4.000000, 4.000000, 4.000000, 4.000000, 4.000000, 4.000000, 4.000000, 4.000000, 4.000000, 4.000000
21.000000, 0.000000, 4192.820313, 4156.410156, 4180.000000, 4169.230469, 4192.307617, 4214.871582, 4218.461426, 4208.205078, 4233.333008, 4243.076660, 4164.615234, 4180.512695, 4062.563965, 4283.589844, 0.000000, 8206.000000, 7992.000000, 0.000000, 0.000000, 0.000000, 23038.000000, 787.692261, 4.000000, 4.000000, 4.000000, 4.000000, 4.000000, 4.000000, 4.000000, 4.000000, 4.000000, 4.000000, 4.000000, 4.000000, 4.000000, 4.000000, 4.000000, 4.000000
22.000000, 0.000000, 4190.769043, 4142.051270, 4174.358887, 4159.487305, 4177.436035, 4214.358887, 4217.948730, 4205.127930, 4230.256348, 4235.384277, 4152.307617, 4174.358887, 4056.410156, 4277.436035, 0.000000, 8206.000000, 7992.000000, 0.000000, 0.000000, 0.000000, 23038.000000, 795.384583, 4.000000, 4.000000, 4.000000, 4.000000, 4.000000, 4.000000, 4.000000, 4.000000, 4.000000, 4.000000, 4.000000, 4.000000, 4.000000, 4.000000, 4.000000, 4.000000
23.000000, 0.000000, 4189.743652, 4132.820313, 4170.256348, 4159.487305, 4187.179199, 4217.436035, 4220.000000, 4204.102539, 4228.205078, 4231.794922, 4150.256348, 4170.256348, 4062.563965, 4284.102539, 0.000000, 8185.000000, 8074.000000, 0.000000, 0.000000, 0.000000, 23038.000000, 803.589722, 4.000000, 4.000000, 4.000000, 4.000000, 4.000000, 4.000000, 4.000000, 4.000000, 4.000000, 4.000000, 4.000000, 4.000000, 4.000000, 4.000000, 4.000000, 4.000000
24.000000, 0.000000, 4193.333008, 4141.538574, 4174.358887, 4171.794922, 4206.666504, 4220.512695, 4220.512695, 4208.205078, 4233.333008, 4243.076660, 4156.410156, 4175.897461, 4079.487061, 4300.000000, 0.000000, 8185.000000, 8074.000000, 0.000000, 0.000000, 0.000000, 23038.000000, 811.794861, 4.000000, 4.000000, 4.000000, 4.000000, 4.000000, 4.000000, 4.000000, 4.000000, 4.000000, 4.000000, 4.000000, 4.000000, 4.000000, 4.000000, 4.000000, 4.000000
25.000000, 0.000000, 4190.769043, 4142.563965, 4173.333008, 4174.358887, 4202.051270, 4218.974121, 4217.948730, 4211.794922, 4235.897461, 4247.692383, 4157.436035, 4174.871582, 4083.589600, 4298.974121, 0.000000, 8176.000000, 8102.000000, 0.000000, 0.000000, 0.000000, 23038.000000, 819.487183, 4.000000, 4.000000, 4.000000, 4.000000, 4.000000, 4.000000, 4.000000, 4.000000, 4.000000, 4.000000, 4.000000, 4.000000, 4.000000, 4.000000, 4.000000, 4.000000
26.000000, 0.000000, 4190.256348, 4135.384277, 4159.487305, 4167.179199, 4187.179199, 4216.922852, 4217.948730, 4208.717773, 4228.717773, 4239.487305, 4150.256348, 4165.641113, 4082.563965, 4281.538574, 0.000000, 8176.000000, 8102.000000, 0.000000, 0.000000, 0.000000, 23038.000000, 827.692261, 4.000000, 4.000000, 4.000000, 4.000000, 4.000000, 4.000000, 4.000000, 4.000000, 4.000000, 4.000000, 4.000000, 4.000000, 4.000000, 4.000000, 4.000000, 4.000000
27.000000, 0.000000, 4198.461426, 4133.333008, 4155.384277, 4169.230469, 4185.641113, 4219.487305, 4222.051270, 4203.589844, 4229.230469, 4238.974121, 4151.281738, 4166.666504, 4096.410156, 4276.410156, 0.000000, 8175.000000, 8141.000000, 0.000000, 0.000000, 0.000000, 23038.000000, 835.384583, 4.000000, 4.000000, 4.000000, 4.000000, 4.000000, 4.000000, 4.000000, 4.000000, 4.000000, 4.000000, 4.000000, 4.000000, 4.000000, 4.000000, 4.000000, 4.000000
28.000000, 0.000000, 4198.461426, 4140.512695, 4164.102539, 4173.846191, 4187.179199, 4222.563965, 4224.102539, 4203.076660, 4234.871582, 4242.563965, 4161.025391, 4169.743652, 4108.717773, 4291.794922, 0.000000, 8175.000000, 8141.000000, 0.000000, 0.000000, 0.000000, 23038.000000, 843.589722, 4.000000, 4.000000, 4.000000, 4.000000, 4.000000, 4.000000, 4.000000, 4.000000, 4.000000, 4.000000, 4.000000, 4.000000, 4.000000, 4.000000, 4.000000, 4.000000
29.000000, 0.000000, 4197.948730, 4149.743652, 4169.230469, 4170.769043, 4189.230469, 4223.076660, 4223.589844, 4207.179199, 4232.307617, 4239.487305, 4167.692383, 4170.769043, 4111.281738, 4299.487305, 0.000000, 8180.000000, 8179.000000, 0.000000, 0.000000, 0.000000, 23038.000000, 851.282043, 4.000000, 4.000000, 4.000000, 4.000000, 4.000000, 4.000000, 4.000000, 4.000000, 4.000000, 4.000000, 4.000000, 4.000000, 4.000000, 4.000000, 4.000000, 4.000000
30.000000, 0.000000, 4200.512695, 4154.358887, 4177.436035, 4174.358887, 4199.487305, 4220.000000, 4220.000000, 4222.563965, 4229.230469, 4237.948730, 4176.922852, 4180.512695, 4121.538574, 4284.615234, 0.000000, 8180.000000, 8179.000000, 0.000000, 0.000000, 0.000000, 23038.000000, 858.974365, 4.000000, 4.000000, 4.000000, 4.000000, 4.000000, 4.000000, 4.000000, 4.000000, 4.000000, 4.000000, 4.000000, 4.000000, 4.000000, 4.000000, 4.000000, 4.000000
31.000000, 0.000000, 4201.538574, 4162.051270, 4189.230469, 4184.102539, 4196.410156, 4217.436035, 4218.974121, 4240.000000, 4228.205078, 4246.153809, 4183.076660, 4190.256348, 4130.769043, 4255.897461, 0.000000, 8164.000000, 8234.000000, 0.000000, 0.000000, 0.000000, 23038.000000, 867.179443, 4.000000, 4.000000, 4.000000, 4.000000, 4.000000, 4.000000, 4.000000, 4.000000, 4.000000, 4.000000, 4.000000, 4.000000, 4.000000, 4.000000, 4.000000, 4.000000
32.000000, 0.000000, 4201.025391, 4174.871582, 4191.281738, 4185.641113, 4179.487305, 4217.436035, 4225.641113, 4237.948730, 4231.794922, 4253.333008, 4176.410156, 4190.256348, 4127.179199, 4228.717773, 0.000000, 8164.000000, 8234.000000, 0.000000, 0.000000, 0.000000, 23038.000000, 874.871765, 4.000000, 4.000000, 4.000000, 4.000000, 4.000000, 4.000000, 4.000000, 4.000000, 4.000000, 4.000000, 4.000000, 4.000000, 4.000000, 4.000000, 4.000000, 4.000000
33.000000, 0.000000, 4198.974121, 4168.717773, 4186.153809, 4184.102539, 4178.974121, 4220.000000, 4233.333008, 4231.794922, 4240.512695, 4249.230469, 4172.307617, 4193.846191, 4130.256348, 4213.333008, 0.000000, 8115.000000, 8284.000000, 0.000000, 0.000000, 0.000000, 23038.000000, 883.076904, 4.000000, 4.000000, 4.000000, 4.000000, 4.000000, 4.000000, 4.000000, 4.000000, 4.000000, 4.000000, 4.000000, 4.000000, 4.000000, 4.000000, 4.000000, 4.000000
34.000000, 0.000000, 4196.922852, 4151.281738, 4183.589844, 4181.025391, 4187.692383, 4220.512695, 4236.410156, 4240.000000, 4241.025391, 4247.692383, 4173.846191, 4197.436035, 4138.461426, 4209.230469, 0.000000, 8115.000000, 8284.000000, 0.000000, 0.000000, 0.000000, 23038.000000, 891.282043, 4.000000, 4.000000, 4.000000, 4.000000, 4.000000, 4.000000, 4.000000, 4.000000, 4.000000, 4.000000, 4.000000, 4.000000, 4.000000, 4.000000, 4.000000, 4.000000
35.000000, 0.000000, 4192.307617, 4160.000000, 4182.051270, 4170.256348, 4189.230469, 4219.487305, 4232.307617, 4251.281738, 4232.820313, 4249.230469, 4171.794922, 4190.256348, 4135.897461, 4209.230469, 0.000000, 8090.000000, 8297.000000, 0.000000, 0.000000, 0.000000, 23038.000000, 898.974365, 4.000000, 4.000000, 4.000000, 4.000000, 4.000000, 4.000000, 4.000000, 4.000000, 4.000000, 4.000000, 4.000000, 4.000000, 4.000000, 4.000000, 4.000000, 4.000000
36.000000, 0.000000, 4191.794922, 4170.769043, 4183.589844, 4166.153809, 4180.512695, 4212.820313, 4217.948730, 4260.000000, 4224.102539, 4230.769043, 4171.794922, 4184.615234, 4133.333008, 4204.102539, 0.000000, 8090.000000, 8297.000000, 0.000000, 0.000000, 0.000000, 23038.000000, 907.179443, 4.000000, 4.000000, 4.000000, 4.000000, 4.000000, 4.000000, 4.000000, 4.000000, 4.000000, 4.000000, 4.000000, 4.000000, 4.000000, 4.000000, 4.000000, 4.000000
37.000000, 0.000000, 4191.281738, 4157.948730, 4194.358887, 4171.794922, 4170.769043, 4202.051270, 4202.563965, 4262.051270, 4211.794922, 4213.333008, 4176.922852, 4188.205078, 4134.358887, 4208.717773, 0.000000, 8035.000000, 8303.000000, 0.000000, 0.000000, 0.000000, 23038.000000, 914.871765, 4.000000, 4.000000, 4.000000, 4.000000, 4.000000, 4.000000, 4.000000, 4.000000, 4.000000, 4.000000, 4.000000, 4.000000, 4.000000, 4.000000, 4.000000, 4.000000
38.000000, 0.000000, 4190.256348, 4155.897461, 4200.000000, 4170.256348, 4183.076660, 4197.948730, 4200.000000, 4264.102539, 4202.563965, 4214.358887, 4181.538574, 4190.256348, 4133.333008, 4219.487305, 0.000000, 8035.000000, 8303.000000, 0.000000, 0.000000, 0.000000, 23038.000000, 923.076904, 4.000000, 4.000000, 4.000000, 4.000000, 4.000000, 4.000000, 4.000000, 4.000000, 4.000000, 4.000000, 4.000000, 4.000000, 4.000000, 4.000000, 4.000000, 4.000000
39.000000, 0.000000, 4198.461426, 4170.769043, 4192.820313, 4169.743652, 4202.563965, 4199.487305, 4201.025391, 4272.820313, 4203.076660, 4216.922852, 4184.102539, 4191.794922, 4141.538574, 4213.846191, 0.000000, 8025.000000, 8277.000000, 0.000000, 0.000000, 0.000000, 23038.000000, 930.769226, 4.000000, 4.000000, 4.000000, 4.000000, 4.000000, 4.000000, 4.000000, 4.000000, 4.000000, 4.000000, 4.000000, 4.000000, 4.000000, 4.000000, 4.000000, 4.000000
40.000000, 0.000000, 4199.487305, 4173.846191, 4185.641113, 4176.922852, 4196.410156, 4198.974121, 4195.897461, 4278.974121, 4202.051270, 4215.897461, 4187.179199, 4195.384277, 4153.333008, 4204.615234, 0.000000, 8025.000000, 8277.000000, 0.000000, 0.000000, 0.000000, 23038.000000, 938.974365, 4.000000, 4.000000, 4.000000, 4.000000, 4.000000, 4.000000, 4.000000, 4.000000, 4.000000, 4.000000, 4.000000, 4.000000, 4.000000, 4.000000, 4.000000, 4.000000
41.000000, 0.000000, 4197.436035, 4170.769043, 4185.641113, 4182.051270, 4180.000000, 4195.897461, 4196.922852, 4284.615234, 4202.563965, 4217.948730, 4192.820313, 4193.333008, 4153.333008, 4214.358887, 0.000000, 8027.000000, 8318.000000, 0.000000, 0.000000, 0.000000, 23038.000000, 946.666626, 4.000000, 4.000000, 4.000000, 4.000000, 4.000000, 4.000000, 4.000000, 4.000000, 4.000000, 4.000000, 4.000000, 4.000000, 4.000000, 4.000000, 4.000000, 4.000000
42.000000, 0.000000, 4200.512695, 4184.102539, 4182.051270, 4183.589844, 4190.769043, 4200.512695, 4203.589844, 4291.281738, 4210.256348, 4217.436035, 4202.051270, 4193.333008, 4159.487305, 4218.974121, 0.000000, 8027.000000, 8318.000000, 0.000000, 0.000000, 0.000000, 23038.000000, 954.358948, 4.000000, 4.000000, 4.000000, 4.000000, 4.000000, 4.000000, 4.000000, 4.000000, 4.000000, 4.000000, 4.000000, 4.000000, 4.000000, 4.000000, 4.000000, 4.000000
43.000000, 0.000000, 4198.974121, 4197.948730, 4179.487305, 4185.127930, 4207.179199, 4207.179199, 4206.153809, 4281.538574, 4222.563965, 4223.589844, 4208.205078, 4198.974121, 4171.794922, 4208.717773, 0.000000, 8076.000000, 8292.000000, 0.000000, 0.000000, 0.000000, 23038.000000, 962.564087, 4.000000, 4.000000, 4.000000, 4.000000, 4.000000, 4.000000, 4.000000, 4.000000, 4.000000, 4.000000, 4.000000, 4.000000, 4.000000, 4.000000, 4.000000, 4.000000
44.000000, 0.000000, 4200.000000, 4196.410156, 4188.717773, 4187.179199, 4200.512695, 4206.153809, 4205.641113, 4253.846191, 4234.358887, 4244.102539, 4212.820313, 4204.102539, 4172.307617, 4221.538574, 0.000000, 8076.000000, 8292.000000, 0.000000, 0.000000, 0.000000, 23038.000000, 970.769226, 4.000000, 4.000000, 4.000000, 4.000000, 4.000000, 4.000000, 4.000000, 4.000000, 4.000000, 4.000000, 4.000000, 4.000000, 4.000000, 4.000000, 4.000000, 4.000000
45.000000, 0.000000, 4201.538574, 4185.127930, 4201.538574, 4188.205078, 4187.692383, 4202.051270, 4203.076660, 4231.281738, 4232.307617, 4252.307617, 4209.230469, 4202.563965, 4166.666504, 4238.461426, 0.000000, 8114.000000, 8293.000000, 0.000000, 0.000000, 0.000000, 23038.000000, 978.461487, 4.000000, 4.000000, 4.000000, 4.000000, 4.000000, 4.000000, 4.000000, 4.000000, 4.000000, 4.000000, 4.000000, 4.000000, 4.000000, 4.000000, 4.000000, 4.000000
46.000000, 0.000000, 4202.051270, 4180.512695, 4211.281738, 4187.179199, 4180.512695, 4202.563965, 4203.589844, 4222.051270, 4226.153809, 4246.666504, 4200.000000, 4202.563965, 4169.230469, 4226.666504, 0.000000, 8114.000000, 8293.000000, 0.000000, 0.000000, 0.000000, 23038.000000, 986.153809, 4.000000, 4.000000, 4.000000, 4.000000, 4.000000, 4.000000, 4.000000, 4.000000, 4.000000, 4.000000, 4.000000, 4.000000, 4.000000, 4.000000, 4.000000, 4.000000
47.000000, 0.000000, 4207.692383, 4188.717773, 4220.000000, 4192.820313, 4176.410156, 4203.589844, 4210.256348, 4216.922852, 4229.230469, 4248.717773, 4202.051270, 4211.281738, 4175.897461, 4218.461426, 0.000000, 8193.000000, 8288.000000, 0.000000, 0.000000, 0.000000, 23038.000000, 994.358948, 4.000000, 4.000000, 4.000000, 4.000000, 4.000000, 4.000000, 4.000000, 4.000000, 4.000000, 4.000000, 4.000000, 4.000000, 4.000000, 4.000000, 4.000000, 4.000000
48.000000, 0.000000, 4204.102539, 4189.743652, 4219.487305, 4202.051270, 4175.897461, 4201.025391, 4208.717773, 4215.384277, 4228.717773, 4249.230469, 4206.153809, 4214.358887, 4172.307617, 4225.127930, 0.000000, 8193.000000, 8288.000000, 0.000000, 0.000000, 0.000000, 23039.000000, 2.051282, 4.000000, 4.000000, 4.000000, 4.000000, 4.000000, 4.000000, 4.000000, 4.000000, 4.000000, 4.000000, 4.000000, 4.000000, 4.000000, 4.000000, 4.000000, 4.000000
49.000000, 0.000000, 4196.922852, 4180.000000, 4209.743652, 4200.000000, 4182.563965, 4198.974121, 4203.589844, 4214.871582, 4211.281738, 4237.436035, 4190.769043, 4198.461426, 4160.512695, 4204.615234, 0.000000, 8221.000000, 8293.000000, 0.000000, 0.000000, 0.000000, 23039.000000, 10.256410, 4.000000, 4.000000, 4.000000, 4.000000, 4.000000, 4.000000, 4.000000, 4.000000, 4.000000, 4.000000, 4.000000, 4.000000, 4.000000, 4.000000, 4.000000, 4.000000
50.000000, 0.000000, 4195.384277, 4181.538574, 4195.897461, 4190.256348, 4196.922852, 4200.000000, 4197.436035, 4212.307617, 4196.922852, 4224.102539, 4173.333008, 4175.897461, 4152.820313, 4157.948730, 0.000000, 8221.000000, 8293.000000, 0.000000, 0.000000, 0.000000, 23039.000000, 17.948717, 4.000000, 4.000000, 4.000000, 4.000000, 4.000000, 4.000000, 4.000000, 4.000000, 4.000000, 4.000000, 4.000000, 4.000000, 4.000000, 4.000000, 4.000000, 4.000000
51.000000, 0.000000, 4199.487305, 4192.820313, 4187.179199, 4188.205078, 4198.461426, 4197.436035, 4190.769043, 4215.384277, 4196.922852, 4215.384277, 4166.153809, 4167.179199, 4152.307617, 4141.025391, 0.000000, 8242.000000, 8302.000000, 0.000000, 0.000000, 0.000000, 23039.000000, 26.153845, 4.000000, 4.000000, 4.000000, 4.000000, 4.000000, 4.000000, 4.000000, 4.000000, 4.000000, 4.000000, 4.000000, 4.000000, 4.000000, 4.000000, 4.000000, 4.000000
52.000000, 0.000000, 4202.051270, 4196.922852, 4193.846191, 4188.205078, 4184.102539, 4194.871582, 4189.743652, 4216.410156, 4196.922852, 4208.205078, 4162.563965, 4168.205078, 4155.384277, 4161.025391, 0.000000, 8242.000000, 8302.000000, 0.000000, 0.000000, 0.000000, 23039.000000, 33.846153, 4.000000, 4.000000, 4.000000, 4.000000, 4.000000, 4.000000, 4.000000, 4.000000, 4.000000, 4.000000, 4.000000, 4.000000, 4.000000, 4.000000, 4.000000, 4.000000
53.000000, 0.000000, 4200.512695, 4199.487305, 4200.512695, 4185.127930, 4188.717773, 4200.000000, 4195.897461, 4213.846191, 4196.922852, 4216.410156, 4171.281738, 4170.256348, 4165.641113, 4180.000000, 0.000000, 8246.000000, 8296.000000, 0.000000, 0.000000, 0.000000, 23039.000000, 42.051281, 4.000000, 4.000000, 4.000000, 4.000000, 4.000000, 4.000000, 4.000000, 4.000000, 4.000000, 4.000000, 4.000000, 4.000000, 4.000000, 4.000000, 4.000000, 4.000000
54.000000, 0.000000, 4201.538574, 4199.487305, 4189.230469, 4185.127930, 4199.487305, 4200.000000, 4201.025391, 4215.897461, 4198.461426, 4225.641113, 4182.051270, 4168.717773, 4171.794922, 4177.436035, 0.000000, 8246.000000, 8296.000000, 0.000000, 0.000000, 0.000000, 23039.000000, 49.743587, 4.000000, 4.000000, 4.000000, 4.000000, 4.000000, 4.000000, 4.000000, 4.000000, 4.000000, 4.000000, 4.000000, 4.000000, 4.000000, 4.000000, 4.000000, 4.000000
55.000000, 0.000000, 4203.589844, 4188.205078, 4178.461426, 4183.589844, 4188.205078, 4188.205078, 4193.846191, 4214.871582, 4197.436035, 4217.436035, 4183.076660, 4167.692383, 4169.230469, 4170.769043, 0.000000, 8243.000000, 8302.000000, 0.000000, 0.000000, 0.000000, 23039.000000, 57.948715, 4.000000, 4.000000, 4.000000, 4.000000, 4.000000, 4.000000, 4.000000, 4.000000, 4.000000, 4.000000, 4.000000, 4.000000, 4.000000, 4.000000, 4.000000, 4.000000
56.000000, 0.000000, 4205.641113, 4193.846191, 4182.563965, 4182.051270, 4188.717773, 4189.230469, 4187.692383, 4210.256348, 4198.974121, 4219.487305, 4190.256348, 4172.307617, 4175.897461, 4166.666504, 0.000000, 8243.000000, 8302.000000, 0.000000, 0.000000, 0.000000, 23039.000000, 65.641022, 4.000000, 4.000000, 4.000000, 4.000000, 4.000000, 4.000000, 4.000000, 4.000000, 4.000000, 4.000000, 4.000000, 4.000000, 4.000000, 4.000000, 4.000000, 4.000000
57.000000, 0.000000, 4205.127930, 4213.846191, 4181.025391, 4182.563965, 4202.051270, 4197.948730, 4194.358887, 4212.820313, 4203.589844, 4232.820313, 4203.589844, 4173.846191, 4185.127930, 4151.794922, 0.000000, 8233.000000, 8333.000000, 0.000000, 0.000000, 0.000000, 23039.000000, 73.333328, 4.000000, 4.000000, 4.000000, 4.000000, 4.000000, 4.000000, 4.000000, 4.000000, 4.000000, 4.000000, 4.000000, 4.000000, 4.000000, 4.000000, 4.000000, 4.000000
58.000000, 0.000000, 4204.615234, 4214.358887, 4171.794922, 4183.076660, 4191.794922, 4193.333008, 4198.974121, 4211.281738, 4203.589844, 4228.205078, 4204.615234, 4170.769043, 4183.076660, 4155.384277, 0.000000, 8233.000000, 8333.000000, 0.000000, 0.000000, 0.000000, 23039.000000, 81.538460, 4.000000, 4.000000, 4.000000, 4.000000, 4.000000, 4.000000, 4.000000, 4.000000, 4.000000, 4.000000, 4.000000, 4.000000, 4.000000, 4.000000, 4.000000, 4.000000
59.000000, 0.000000, 4208.205078, 4206.153809, 4177.436035, 4182.563965, 4184.102539, 4192.820313, 4194.358887, 4205.127930, 4203.076660, 4219.487305, 4200.512695, 4173.846191, 4184.102539, 4192.307617, 0.000000, 8233.000000, 8343.000000, 0.000000, 0.000000, 0.000000, 23039.000000, 89.230766, 4.000000, 4.000000, 4.000000, 4.000000, 4.000000, 4.000000, 4.000000, 4.000000, 4.000000, 4.000000, 4.000000, 4.000000, 4.000000, 4.000000, 4.000000, 4.000000
60.000000, 0.000000, 4207.692383, 4213.333008, 4194.871582, 4185.641113, 4196.922852, 4203.076660, 4195.897461, 4209.743652, 4213.846191, 4229.743652, 4212.307617, 4184.615234, 4188.205078, 4218.974121, 0.000000, 8233.000000, 8343.000000, 0.000000, 0.000000, 0.000000, 23039.000000, 96.923073, 4.000000, 4.000000, 4.000000, 4.000000, 4.000000, 4.000000, 4.000000, 4.000000, 4.000000, 4.000000, 4.000000, 4.000000, 4.000000, 4.000000, 4.000000, 4.000000
61.000000, 0.000000, 4208.205078, 4219.487305, 4204.615234, 4194.871582, 4200.000000, 4203.589844, 4203.076660, 4213.333008, 4221.538574, 4236.410156, 4229.230469, 4196.410156, 4188.205078, 4216.922852, 0.000000, 8240.000000, 8369.000000, 0.000000, 0.000000, 0.000000, 23039.000000, 105.128204, 4.000000, 4.000000, 4.000000, 4.000000, 4.000000, 4.000000, 4.000000, 4.000000, 4.000000, 4.000000, 4.000000, 4.000000, 4.000000, 4.000000, 4.000000, 4.000000
62.000000, 0.000000, 4214.358887, 4218.461426, 4204.102539, 4198.974121, 4198.461426, 4199.487305, 4200.000000, 4208.717773, 4221.025391, 4233.846191, 4228.205078, 4201.538574, 4186.666504, 4212.307617, 0.000000, 8240.000000, 8369.000000, 0.000000, 0.000000, 0.000000, 23039.000000, 112.820511, 4.000000, 4.000000, 4.000000, 4.000000, 4.000000, 4.000000, 4.000000, 4.000000, 4.000000, 4.000000, 4.000000, 4.000000, 4.000000, 4.000000, 4.000000, 4.000000
63.000000, 0.000000, 4214.358887, 4224.615234, 4204.615234, 4198.461426, 4202.563965, 4203.076660, 4198.974121, 4207.179199, 4217.948730, 4230.769043, 4219.487305, 4200.512695, 4185.641113, 4211.794922, 0.000000, 8254.000000, 8379.000000, 0.000000, 0.000000, 0.000000, 23039.000000, 121.025635, 4.000000, 4.000000, 4.000000, 4.000000, 4.000000, 4.000000, 4.000000, 4.000000, 4.000000, 4.000000, 4.000000, 4.000000, 4.000000, 4.000000, 4.000000, 4.000000
64.000000, 0.000000, 4213.333008, 4233.333008, 4205.641113, 4200.512695, 4201.025391, 4203.589844, 4204.102539, 4206.153809, 4207.179199, 4222.563965, 4221.025391, 4196.922852, 4184.615234, 4208.205078, 3545.000000, 8254.000000, 8379.000000, 0.000000, 0.000000, 0.000000, 23039.000000, 128.717941, 4.000000, 4.000000, 4.000000, 4.000000, 4.000000, 4.000000, 4.000000, 4.000000, 4.000000, 4.000000, 4.000000, 4.000000, 4.000000, 4.000000, 4.000000, 4.000000
65.000000, 0.000000, 4211.794922, 4232.820313, 4202.051270, 4198.974121, 4196.922852, 4198.974121, 4200.512695, 4200.000000, 4195.897461, 4220.000000, 4224.102539, 4192.307617, 4182.563965, 4198.461426, 3539.000000, 8266.000000, 8379.000000, 0.000000, 0.000000, 0.000000, 23039.000000, 136.923080, 4.000000, 4.000000, 4.000000, 4.000000, 4.000000, 4.000000, 4.000000, 4.000000, 4.000000, 4.000000, 4.000000, 4.000000, 4.000000, 4.000000, 4.000000, 4.000000
66.000000, 0.000000, 4203.589844, 4221.538574, 4201.025391, 4188.717773, 4202.051270, 4197.436035, 4195.384277, 4201.538574, 4196.410156, 4223.589844, 4216.410156, 4185.641113, 4171.281738, 4178.974121, 1955.000000, 8266.000000, 8379.000000, 0.000000, 0.000000, 0.000000, 23039.000000, 144.615387, 4.000000, 4.000000, 4.000000, 4.000000, 4.000000, 4.000000, 4.000000, 4.000000, 4.000000, 4.000000, 4.000000, 4.000000, 4.000000, 4.000000, 4.000000, 4.000000
67.000000, 0.000000, 4203.076660, 4209.743652, 4195.897461, 4182.563965, 4198.974121, 4201.538574, 4200.512695, 4203.076660, 4198.974121, 4215.384277, 4207.179199, 4180.512695, 4153.846191, 4158.974121, 3563.000000, 8276.000000, 8362.000000, 0.000000, 0.000000, 0.000000, 23039.000000, 152.307693, 4.000000, 4.000000, 4.000000, 4.000000, 4.000000, 4.000000, 4.000000, 4.000000, 4.000000, 4.000000, 4.000000, 4.000000, 4.000000, 4.000000, 4.000000, 4.000000
68.000000, 0.000000, 4204.102539, 4213.333008, 4187.692383, 4186.666504, 4187.179199, 4205.641113, 4209.743652, 4201.025391, 4200.000000, 4211.794922, 4208.205078, 4183.589844, 4151.281738, 4151.794922, 3471.000000, 8276.000000, 8362.000000, 0.000000, 0.000000, 0.000000, 23039.000000, 160.512817, 4.000000, 4.000000, 4.000000, 4.000000, 4.000000, 4.000000, 4.000000, 4.000000, 4.000000, 4.000000, 4.000000, 4.000000, 4.000000, 4.000000, 4.000000, 4.000000
69.000000, 0.000000, 4201.538574, 4218.461426, 4189.230469, 4186.666504, 4188.717773, 4203.076660, 4211.794922, 4203.589844, 4206.153809, 4221.025391, 4218.974121, 4187.179199, 4156.410156, 4151.794922, 3578.000000, 8275.000000, 8342.000000, 0.000000, 0.000000, 0.000000, 23039.000000, 168.717941, 4.000000, 4.000000, 4.000000, 4.000000, 4.000000, 4.000000, 4.000000, 4.000000, 4.000000, 4.000000, 4.000000, 4.000000, 4.000000, 4.000000, 4.000000, 4.000000
70.000000, 0.000000, 4201.538574, 4213.333008, 4196.922852, 4188.205078, 4196.410156, 4198.974121, 4204.615234, 4202.051270, 4207.179199, 4220.512695, 4223.589844, 4186.666504, 4146.666504, 4151.281738, 2998.000000, 8275.000000, 8342.000000, 0.000000, 0.000000, 0.000000, 23039.000000, 176.410248, 4.000000, 4.000000, 4.000000, 4.000000, 4.000000, 4.000000, 4.000000, 4.000000, 4.000000, 4.000000, 4.000000, 4.000000, 4.000000, 4.000000, 4.000000, 4.000000
