title:neutral-5, recorded:15.05.18 10.01.22, timestamp started:2018-05-12T20:28:52.032863+02:00            , sampling:128, subject:Noé, labels:COUNTER INTERPOLATED AF3 F7 F3 FC5 T7 P7 O1 O2 P8 T8 FC6 F4 F8 AF4 RAW_CQ GYROX GYROY MARKER MARKER_HARDWARE SYNC TIME_STAMP_s TIME_STAMP_ms CQ_AF3 CQ_F7 CQ_F3 CQ_FC5 CQ_T7 CQ_P7 CQ_O1 CQ_O2 CQ_P8 CQ_T8 CQ_FC6 CQ_F4 CQ_F8 CQ_AF4 CQ_CMS CQ_DRL, chan:40, samples:7619, units:emotiv
43.000000, 0.000000, 4213.333008, 4179.487305, 4181.538574, 4188.205078, 4202.563965, 4214.358887, 4170.769043, 4202.563965, 4209.743652, 4209.743652, 4175.384277, 4166.666504, 4197.948730, 4172.307617, 0.000000, 8037.000000, 8323.000000, 0.000000, 0.000000, 0.000000, 24943.000000, 77.435898, 4.000000, 4.000000, 4.000000, 4.000000, 4.000000, 4.000000, 4.000000, 4.000000, 4.000000, 4.000000, 4.000000, 4.000000, 4.000000, 4.000000, 4.000000, 4.000000
44.000000, 0.000000, 4217.948730, 4168.205078, 4188.717773, 4186.153809, 4199.487305, 4217.948730, 4177.948730, 4214.358887, 4221.538574, 4213.333008, 4184.615234, 4169.743652, 4197.948730, 4170.769043, 0.000000, 8037.000000, 8323.000000, 0.000000, 0.000000, 0.000000, 24943.000000, 85.128204, 4.000000, 4.000000, 4.000000, 4.000000, 4.000000, 4.000000, 4.000000, 4.000000, 4.000000, 4.000000, 4.000000, 4.000000, 4.000000, 4.000000, 4.000000, 4.000000
45.000000, 0.000000, 4222.563965, 4182.563965, 4187.179199, 4190.769043, 4202.051270, 4213.846191, 4171.794922, 4210.769043, 4223.589844, 4217.436035, 4188.205078, 4171.281738, 4200.512695, 4172.307617, 0.000000, 8049.000000, 8318.000000, 0.000000, 0.000000, 0.000000, 24943.000000, 93.333328, 4.000000, 4.000000, 4.000000, 4.000000, 4.000000, 4.000000, 4.000000, 4.000000, 4.000000, 4.000000, 4.000000, 4.000000, 4.000000, 4.000000, 4.000000, 4.000000
46.000000, 0.000000, 4226.666504, 4198.461426, 4183.076660, 4198.461426, 4209.230469, 4213.333008, 4173.846191, 4209.230469, 4226.153809, 4217.948730, 4189.743652, 4170.769043, 4203.589844, 4172.307617, 0.000000, 8049.000000, 8318.000000, 0.000000, 0.000000, 0.000000, 24943.000000, 101.025635, 4.000000, 4.000000, 4.000000, 4.000000, 4.000000, 4.000000, 4.000000, 4.000000, 4.000000, 4.000000, 4.000000, 4.000000, 4.000000, 4.000000, 4.000000, 4.000000
47.000000, 0.000000, 4227.692383, 4191.281738, 4186.666504, 4201.025391, 4208.205078, 4221.025391, 4183.589844, 4217.948730, 4227.179199, 4212.820313, 4191.281738, 4172.307617, 4197.948730, 4171.281738, 0.000000, 8079.000000, 8305.000000, 0.000000, 0.000000, 0.000000, 24943.000000, 109.230766, 4.000000, 4.000000, 4.000000, 4.000000, 4.000000, 4.000000, 4.000000, 4.000000, 4.000000, 4.000000, 4.000000, 4.000000, 4.000000, 4.000000, 4.000000, 4.000000
48.000000, 0.000000, 4230.769043, 4185.127930, 4191.281738, 4200.000000, 4201.538574, 4217.948730, 4175.897461, 4208.717773, 4215.897461, 4205.127930, 4186.153809, 4174.871582, 4187.692383, 4168.205078, 0.000000, 8079.000000, 8305.000000, 0.000000, 0.000000, 0.000000, 24943.000000, 116.923073, 4.000000, 4.000000, 4.000000, 4.000000, 4.000000, 4.000000, 4.000000, 4.000000, 4.000000, 4.000000, 4.000000, 4.000000, 4.000000, 4.000000, 4.000000, 4.000000
49.000000, 0.000000, 4228.717773, 4190.769043, 4188.717773, 4198.974121, 4198.974121, 4203.076660, 4161.538574, 4187.179199, 4203.076660, 4198.461426, 4184.615234, 4168.717773, 4185.641113, 4162.563965, 0.000000, 8105.000000, 8289.000000, 0.000000, 0.000000, 0.000000, 24943.000000, 124.615379, 4.000000, 4.000000, 4.000000, 4.000000, 4.000000, 4.000000, 4.000000, 4.000000, 4.000000, 4.000000, 4.000000, 4.000000, 4.000000, 4.000000, 4.000000, 4.000000
50.000000, 0.000000, 4224.615234, 4187.179199, 4185.127930, 4199.487305, 4198.461426, 4201.538574, 4169.743652, 4181.538574, 4197.436035, 4190.769043, 4183.589844, 4157.948730, 4188.205078, 4155.897461, 0.000000, 8105.000000, 8289.000000, 0.000000, 0.000000, 0.000000, 24943.000000, 132.307693, 4.000000, 4.000000, 4.000000, 4.000000, 4.000000, 4.000000, 4.000000, 4.000000, 4.000000, 4.000000, 4.000000, 4.000000, 4.000000, 4.000000, 4.000000, 4.000000
51.000000, 0.000000, 4225.641113, 4181.025391, 4185.127930, 4195.384277, 4199.487305, 4207.692383, 4174.871582, 4188.205078, 4194.871582, 4183.076660, 4176.410156, 4152.820313, 4182.563965, 4153.846191, 0.000000, 8145.000000, 8247.000000, 0.000000, 0.000000, 0.000000, 24943.000000, 140.512817, 4.000000, 4.000000, 4.000000, 4.000000, 4.000000, 4.000000, 4.000000, 4.000000, 4.000000, 4.000000, 4.000000, 4.000000, 4.000000, 4.000000, 4.000000, 4.000000
52.000000, 0.000000, 4224.615234, 4184.615234, 4183.589844, 4188.205078, 4200.512695, 4202.563965, 4160.512695, 4195.384277, 4197.948730, 4184.615234, 4172.820313, 4151.794922, 4174.358887, 4154.358887, 0.000000, 8145.000000, 8247.000000, 0.000000, 0.000000, 0.000000, 24943.000000, 148.717941, 4.000000, 4.000000, 4.000000, 4.000000, 4.000000, 4.000000, 4.000000, 4.000000, 4.000000, 4.000000, 4.000000, 4.000000, 4.000000, 4.000000, 4.000000, 4.000000
53.000000, 0.000000, 4224.102539, 4185.641113, 4181.538574, 4190.769043, 4200.512695, 4198.461426, 4159.487305, 4199.487305, 4202.563965, 4190.256348, 4173.333008, 4151.794922, 4172.820313, 4151.281738, 0.000000, 8160.000000, 8234.000000, 0.000000, 0.000000, 0.000000, 24943.000000, 156.410248, 4.000000, 4.000000, 4.000000, 4.000000, 4.000000, 4.000000, 4.000000, 4.000000, 4.000000, 4.000000, 4.000000, 4.000000, 4.000000, 4.000000, 4.000000, 4.000000
54.000000, 0.000000, 4223.589844, 4184.102539, 4182.563965, 4198.974121, 4200.000000, 4205.641113, 4172.820313, 4201.025391, 4197.948730, 4182.051270, 4169.230469, 4151.281738, 4169.743652, 4142.051270, 0.000000, 8160.000000, 8234.000000, 0.000000, 0.000000, 0.000000, 24943.000000, 164.102554, 4.000000, 4.000000, 4.000000, 4.000000, 4.000000, 4.000000, 4.000000, 4.000000, 4.000000, 4.000000, 4.000000, 4.000000, 4.000000, 4.000000, 4.000000, 4.000000
55.000000, 0.000000, 4223.589844, 4189.743652, 4183.076660, 4197.948730, 4200.512695, 4205.127930, 4171.281738, 4197.436035, 4188.717773, 4173.333008, 4166.153809, 4150.256348, 4166.153809, 4135.897461, 0.000000, 8183.000000, 8226.000000, 0.000000, 0.000000, 0.000000, 24943.000000, 172.307693, 4.000000, 4.000000, 4.000000, 4.000000, 4.000000, 4.000000, 4.000000, 4.000000, 4.000000, 4.000000, 4.000000, 4.000000, 4.000000, 4.000000, 4.000000, 4.000000
56.000000, 0.000000, 4225.641113, 4200.000000, 4182.563965, 4197.948730, 4205.641113, 4199.487305, 4164.615234, 4199.487305, 4193.333008, 4181.025391, 4170.769043, 4152.820313, 4164.102539, 4145.127930, 0.000000, 8183.000000, 8226.000000, 0.000000, 0.000000, 0.000000, 24943.000000, 180.000000, 4.000000, 4.000000, 4.000000, 4.000000, 4.000000, 4.000000, 4.000000, 4.000000, 4.000000, 4.000000, 4.000000, 4.000000, 4.000000, 4.000000, 4.000000, 4.000000
57.000000, 0.000000, 4222.563965, 4204.102539, 4185.641113, 4203.076660, 4214.358887, 4210.769043, 4178.461426, 4208.717773, 4203.076660, 4188.717773, 4173.333008, 4155.384277, 4158.974121, 4153.333008, 0.000000, 8185.000000, 8222.000000, 0.000000, 0.000000, 0.000000, 24943.000000, 188.205124, 4.000000, 4.000000, 4.000000, 4.000000, 4.000000, 4.000000, 4.000000, 4.000000, 4.000000, 4.000000, 4.000000, 4.000000, 4.000000, 4.000000, 4.000000, 4.000000
58.000000, 0.000000, 4219.487305, 4200.000000, 4184.615234, 4202.051270, 4210.256348, 4216.922852, 4186.153809, 4206.153809, 4198.974121, 4182.051270, 4169.743652, 4146.666504, 4153.333008, 4149.230469, 0.000000, 8185.000000, 8222.000000, 0.000000, 0.000000, 0.000000, 24943.000000, 195.897430, 4.000000, 4.000000, 4.000000, 4.000000, 4.000000, 4.000000, 4.000000, 4.000000, 4.000000, 4.000000, 4.000000, 4.000000, 4.000000, 4.000000, 4.000000, 4.000000
59.000000, 0.000000, 4218.461426, 4197.948730, 4180.512695, 4200.512695, 4200.512695, 4206.666504, 4172.307617, 4199.487305, 4197.948730, 4183.076660, 4174.358887, 4141.538574, 4154.871582, 4149.743652, 0.000000, 8192.000000, 8216.000000, 0.000000, 0.000000, 0.000000, 24943.000000, 203.589737, 4.000000, 4.000000, 4.000000, 4.000000, 4.000000, 4.000000, 4.000000, 4.000000, 4.000000, 4.000000, 4.000000, 4.000000, 4.000000, 4.000000, 4.000000, 4.000000
60.000000, 0.000000, 4217.436035, 4202.563965, 4184.615234, 4208.717773, 4207.692383, 4201.025391, 4167.179199, 4206.666504, 4203.589844, 4193.333008, 4183.076660, 4151.794922, 4155.897461, 4158.974121, 0.000000, 8192.000000, 8216.000000, 0.000000, 0.000000, 0.000000, 24943.000000, 211.794861, 4.000000, 4.000000, 4.000000, 4.000000, 4.000000, 4.000000, 4.000000, 4.000000, 4.000000, 4.000000, 4.000000, 4.000000, 4.000000, 4.000000, 4.000000, 4.000000
61.000000, 0.000000, 4215.897461, 4207.179199, 4188.717773, 4215.897461, 4214.358887, 4205.127930, 4170.769043, 4207.692383, 4201.538574, 4190.256348, 4181.025391, 4156.410156, 4150.769043, 4160.000000, 0.000000, 8192.000000, 8212.000000, 0.000000, 0.000000, 0.000000, 24943.000000, 219.487167, 4.000000, 4.000000, 4.000000, 4.000000, 4.000000, 4.000000, 4.000000, 4.000000, 4.000000, 4.000000, 4.000000, 4.000000, 4.000000, 4.000000, 4.000000, 4.000000
62.000000, 0.000000, 4209.743652, 4204.615234, 4186.153809, 4211.794922, 4205.127930, 4202.563965, 4167.692383, 4197.436035, 4197.436035, 4182.563965, 4177.436035, 4152.820313, 4144.102539, 4157.436035, 0.000000, 8192.000000, 8212.000000, 0.000000, 0.000000, 0.000000, 24943.000000, 227.179489, 4.000000, 4.000000, 4.000000, 4.000000, 4.000000, 4.000000, 4.000000, 4.000000, 4.000000, 4.000000, 4.000000, 4.000000, 4.000000, 4.000000, 4.000000, 4.000000
63.000000, 0.000000, 4207.179199, 4201.025391, 4191.281738, 4205.127930, 4201.538574, 4202.051270, 4173.846191, 4205.127930, 4200.000000, 4184.102539, 4184.102539, 4161.538574, 4140.000000, 4164.615234, 0.000000, 8192.000000, 8236.000000, 0.000000, 0.000000, 0.000000, 24943.000000, 235.384613, 4.000000, 4.000000, 4.000000, 4.000000, 4.000000, 4.000000, 4.000000, 4.000000, 4.000000, 4.000000, 4.000000, 4.000000, 4.000000, 4.000000, 4.000000, 4.000000
64.000000, 0.000000, 4206.666504, 4204.102539, 4198.974121, 4205.641113, 4208.205078, 4211.281738, 4186.666504, 4221.538574, 4204.615234, 4193.333008, 4188.717773, 4175.384277, 4141.538574, 4173.333008, 3558.000000, 8192.000000, 8236.000000, 0.000000, 0.000000, 0.000000, 24943.000000, 243.076920, 4.000000, 4.000000, 4.000000, 4.000000, 4.000000, 4.000000, 4.000000, 4.000000, 4.000000, 4.000000, 4.000000, 4.000000, 4.000000, 4.000000, 4.000000, 4.000000
65.000000, 0.000000, 4202.563965, 4205.641113, 4191.794922, 4204.615234, 4206.666504, 4209.743652, 4180.000000, 4217.436035, 4205.641113, 4194.871582, 4187.179199, 4175.897461, 4141.538574, 4171.794922, 3572.000000, 8189.000000, 8225.000000, 0.000000, 0.000000, 0.000000, 24943.000000, 250.769226, 4.000000, 4.000000, 4.000000, 4.000000, 4.000000, 4.000000, 4.000000, 4.000000, 4.000000, 4.000000, 4.000000, 4.000000, 4.000000, 4.000000, 4.000000, 4.000000
66.000000, 0.000000, 4198.461426, 4195.897461, 4181.025391, 4193.333008, 4196.410156, 4195.897461, 4169.230469, 4203.589844, 4198.461426, 4186.153809, 4183.076660, 4165.641113, 4137.436035, 4167.692383, 1663.000000, 8189.000000, 8225.000000, 0.000000, 0.000000, 0.000000, 24943.000000, 258.974365, 4.000000, 4.000000, 4.000000, 4.000000, 4.000000, 4.000000, 4.000000, 4.000000, 4.000000, 4.000000, 4.000000, 4.000000, 4.000000, 4.000000, 4.000000, 4.000000
67.000000, 0.000000, 4195.384277, 4185.641113, 4184.102539, 4189.743652, 4190.769043, 4191.281738, 4168.717773, 4198.974121, 4193.846191, 4183.076660, 4175.384277, 4158.461426, 4132.307617, 4169.230469, 3572.000000, 8182.000000, 8232.000000, 0.000000, 0.000000, 0.000000, 24943.000000, 266.666656, 4.000000, 4.000000, 4.000000, 4.000000, 4.000000, 4.000000, 4.000000, 4.000000, 4.000000, 4.000000, 4.000000, 4.000000, 4.000000, 4.000000, 4.000000, 4.000000
68.000000, 0.000000, 4194.358887, 4188.205078, 4187.692383, 4197.948730, 4188.717773, 4197.948730, 4169.743652, 4200.512695, 4196.922852, 4184.615234, 4171.281738, 4162.563965, 4123.076660, 4167.692383, 3317.000000, 8182.000000, 8232.000000, 0.000000, 0.000000, 0.000000, 24943.000000, 274.358978, 4.000000, 4.000000, 4.000000, 4.000000, 4.000000, 4.000000, 4.000000, 4.000000, 4.000000, 4.000000, 4.000000, 4.000000, 4.000000, 4.000000, 4.000000, 4.000000
69.000000, 0.000000, 4195.384277, 4197.436035, 4186.153809, 4202.051270, 4191.794922, 4201.538574, 4171.794922, 4200.512695, 4199.487305, 4186.153809, 4179.487305, 4169.743652, 4126.666504, 4167.179199, 3592.000000, 8167.000000, 8268.000000, 0.000000, 0.000000, 0.000000, 24943.000000, 282.564087, 4.000000, 4.000000, 4.000000, 4.000000, 4.000000, 4.000000, 4.000000, 4.000000, 4.000000, 4.000000, 4.000000, 4.000000, 4.000000, 4.000000, 4.000000, 4.000000
70.000000, 0.000000, 4195.384277, 4202.051270, 4192.820313, 4200.512695, 4198.974121, 4200.512695, 4175.897461, 4198.974121, 4197.948730, 4187.692383, 4187.692383, 4170.256348, 4137.436035, 4175.384277, 3065.000000, 8167.000000, 8268.000000, 0.000000, 0.000000, 0.000000, 24943.000000, 290.256409, 4.000000, 4.000000, 4.000000, 4.000000, 4.000000, 4.000000, 4.000000, 4.000000, 4.000000, 4.000000, 4.000000, 4.000000, 4.000000, 4.000000, 4.000000, 4.000000
71.000000, 0.000000, 4192.307617, 4199.487305, 4199.487305, 4202.051270, 4202.051270, 4202.051270, 4176.410156, 4200.000000, 4198.974121, 4188.717773, 4187.692383, 4169.230469, 4132.307617, 4177.948730, 3449.000000, 8128.000000, 8334.000000, 0.000000, 0.000000, 0.000000, 24943.000000, 298.461517, 4.000000, 4.000000, 4.000000, 4.000000, 4.000000, 4.000000, 4.000000, 4.000000, 4.000000, 4.000000, 4.000000, 4.000000, 4.000000, 4.000000, 4.000000, 4.000000
72.000000, 0.000000, 4189.743652, 4194.871582, 4193.846191, 4200.000000, 4200.512695, 4201.538574, 4175.384277, 4204.102539, 4203.589844, 4189.743652, 4183.076660, 4171.281738, 4120.000000, 4172.307617, 3542.000000, 8128.000000, 8334.000000, 0.000000, 0.000000, 0.000000, 24943.000000, 306.153839, 4.000000, 4.000000, 4.000000, 4.000000, 4.000000, 4.000000, 4.000000, 4.000000, 4.000000, 4.000000, 4.000000, 4.000000, 4.000000, 4.000000, 4.000000, 4.000000
73.000000, 0.000000, 4192.307617, 4196.922852, 4193.846191, 4200.000000, 4200.512695, 4200.512695, 4175.384277, 4204.102539, 4203.589844, 4193.846191, 4185.641113, 4175.384277, 4121.025391, 4176.922852, 3555.000000, 8108.000000, 8353.000000, 0.000000, 0.000000, 0.000000, 24943.000000, 313.846161, 4.000000, 4.000000, 4.000000, 4.000000, 4.000000, 4.000000, 4.000000, 4.000000, 4.000000, 4.000000, 4.000000, 4.000000, 4.000000, 4.000000, 4.000000, 4.000000
74.000000, 0.000000, 4187.692383, 4202.051270, 4200.000000, 4208.205078, 4204.102539, 4204.102539, 4172.307617, 4198.974121, 4200.000000, 4192.820313, 4192.307617, 4176.410156, 4125.641113, 4187.179199, 2673.000000, 8108.000000, 8353.000000, 0.000000, 0.000000, 0.000000, 24943.000000, 321.538452, 4.000000, 4.000000, 4.000000, 4.000000, 4.000000, 4.000000, 4.000000, 4.000000, 4.000000, 4.000000, 4.000000, 4.000000, 4.000000, 4.000000, 4.000000, 4.000000
75.000000, 0.000000, 4178.974121, 4200.000000, 4191.794922, 4208.205078, 4204.615234, 4201.025391, 4170.769043, 4200.000000, 4198.974121, 4186.666504, 4190.256348, 4172.307617, 4117.436035, 4186.153809, 3542.000000, 8080.000000, 8419.000000, 0.000000, 0.000000, 0.000000, 24943.000000, 329.743591, 4.000000, 4.000000, 4.000000, 4.000000, 4.000000, 4.000000, 4.000000, 4.000000, 4.000000, 4.000000, 4.000000, 4.000000, 4.000000, 4.000000, 4.000000, 4.000000
76.000000, 0.000000, 4181.538574, 4198.461426, 4182.051270, 4200.512695, 4201.025391, 4191.794922, 4169.743652, 4203.589844, 4200.000000, 4184.615234, 4185.127930, 4167.179199, 4108.717773, 4180.000000, 3545.000000, 8080.000000, 8419.000000, 0.000000, 0.000000, 0.000000, 24943.000000, 337.435883, 4.000000, 4.000000, 4.000000, 4.000000, 4.000000, 4.000000, 4.000000, 4.000000, 4.000000, 4.000000, 4.000000, 4.000000, 4.000000, 4.000000, 4.000000, 4.000000
77.000000, 0.000000, 4184.102539, 4195.384277, 4185.641113, 4200.000000, 4199.487305, 4195.897461, 4166.153809, 4200.000000, 4195.384277, 4182.051270, 4178.461426, 4166.666504, 4104.615234, 4171.794922, 3543.000000, 8078.000000, 8440.000000, 0.000000, 0.000000, 0.000000, 24943.000000, 345.641022, 4.000000, 4.000000, 4.000000, 4.000000, 4.000000, 4.000000, 4.000000, 4.000000, 4.000000, 4.000000, 4.000000, 4.000000, 4.000000, 4.000000, 4.000000, 4.000000
78.000000, 0.000000, 4183.589844, 4184.615234, 4190.256348, 4206.666504, 4208.205078, 4212.307617, 4173.333008, 4204.615234, 4200.000000, 4180.512695, 4175.897461, 4171.794922, 4104.102539, 4167.692383, 2673.000000, 8078.000000, 8440.000000, 0.000000, 0.000000, 0.000000, 24943.000000, 353.333313, 4.000000, 4.000000, 4.000000, 4.000000, 4.000000, 4.000000, 4.000000, 4.000000, 4.000000, 4.000000, 4.000000, 4.000000, 4.000000, 4.000000, 4.000000, 4.000000
79.000000, 0.000000, 4188.205078, 4188.717773, 4198.974121, 4213.846191, 4216.410156, 4214.871582, 4184.615234, 4218.974121, 4217.948730, 4193.846191, 4187.179199, 4183.589844, 4110.769043, 4181.025391, 3542.000000, 8082.000000, 8434.000000, 0.000000, 0.000000, 0.000000, 24943.000000, 361.538452, 4.000000, 4.000000, 4.000000, 4.000000, 4.000000, 4.000000, 4.000000, 4.000000, 4.000000, 4.000000, 4.000000, 4.000000, 4.000000, 4.000000, 4.000000, 4.000000
80.000000, 0.000000, 4191.794922, 4207.692383, 4213.333008, 4220.512695, 4211.281738, 4204.615234, 4187.179199, 4221.538574, 4221.538574, 4208.717773, 4204.102539, 4191.281738, 4116.922852, 4195.897461, 3545.000000, 8082.000000, 8434.000000, 0.000000, 0.000000, 0.000000, 24943.000000, 369.230774, 4.000000, 4.000000, 4.000000, 4.000000, 4.000000, 4.000000, 4.000000, 4.000000, 4.000000, 4.000000, 4.000000, 4.000000, 4.000000, 4.000000, 4.000000, 4.000000
81.000000, 0.000000, 4189.743652, 4210.769043, 4214.871582, 4221.538574, 4206.666504, 4199.487305, 4186.153809, 4211.794922, 4206.666504, 4201.538574, 4205.641113, 4189.230469, 4113.846191, 4194.358887, 3543.000000, 8082.000000, 8440.000000, 0.000000, 0.000000, 0.000000, 24943.000000, 376.923065, 4.000000, 4.000000, 4.000000, 4.000000, 4.000000, 4.000000, 4.000000, 4.000000, 4.000000, 4.000000, 4.000000, 4.000000, 4.000000, 4.000000, 4.000000, 4.000000
82.000000, 0.000000, 4186.666504, 4207.692383, 4205.641113, 4219.487305, 4211.281738, 4200.512695, 4184.615234, 4202.563965, 4196.922852, 4188.717773, 4198.974121, 4183.076660, 4106.666504, 4187.692383, 2673.000000, 8082.000000, 8440.000000, 0.000000, 0.000000, 0.000000, 24943.000000, 384.615387, 4.000000, 4.000000, 4.000000, 4.000000, 4.000000, 4.000000, 4.000000, 4.000000, 4.000000, 4.000000, 4.000000, 4.000000, 4.000000, 4.000000, 4.000000, 4.000000
83.000000, 0.000000, 4189.743652, 4215.384277, 4204.615234, 4222.051270, 4216.410156, 4201.538574, 4183.589844, 4199.487305, 4201.025391, 4194.871582, 4202.051270, 4185.127930, 4107.179199, 4191.281738, 3542.000000, 8086.000000, 8438.000000, 0.000000, 0.000000, 0.000000, 24943.000000, 392.820496, 4.000000, 4.000000, 4.000000, 4.000000, 4.000000, 4.000000, 4.000000, 4.000000, 4.000000, 4.000000, 4.000000, 4.000000, 4.000000, 4.000000, 4.000000, 4.000000
84.000000, 0.000000, 4194.358887, 4220.512695, 4210.256348, 4223.076660, 4215.897461, 4202.051270, 4184.102539, 4206.153809, 4209.743652, 4202.563965, 4204.615234, 4191.794922, 4109.230469, 4199.487305, 3545.000000, 8086.000000, 8438.000000, 0.000000, 0.000000, 0.000000, 24943.000000, 401.025635, 4.000000, 4.000000, 4.000000, 4.000000, 4.000000, 4.000000, 4.000000, 4.000000, 4.000000, 4.000000, 4.000000, 4.000000, 4.000000, 4.000000, 4.000000, 4.000000
85.000000, 0.000000, 4197.436035, 4217.948730, 4209.743652, 4218.461426, 4214.358887, 4203.076660, 4186.666504, 4216.410156, 4211.281738, 4201.538574, 4204.615234, 4192.820313, 4109.230469, 4203.589844, 3543.000000, 8080.000000, 8382.000000, 0.000000, 0.000000, 0.000000, 24943.000000, 408.717926, 4.000000, 4.000000, 4.000000, 4.000000, 4.000000, 4.000000, 4.000000, 4.000000, 4.000000, 4.000000, 4.000000, 4.000000, 4.000000, 4.000000, 4.000000, 4.000000
86.000000, 0.000000, 4203.589844, 4215.897461, 4203.589844, 4213.846191, 4215.897461, 4204.102539, 4189.230469, 4216.922852, 4206.666504, 4200.512695, 4204.102539, 4184.102539, 4108.205078, 4199.487305, 2673.000000, 8080.000000, 8382.000000, 0.000000, 0.000000, 0.000000, 24943.000000, 416.410248, 4.000000, 4.000000, 4.000000, 4.000000, 4.000000, 4.000000, 4.000000, 4.000000, 4.000000, 4.000000, 4.000000, 4.000000, 4.000000, 4.000000, 4.000000, 4.000000
87.000000, 0.000000, 4205.641113, 4222.563965, 4201.538574, 4215.384277, 4219.487305, 4205.127930, 4188.205078, 4206.666504, 4198.461426, 4193.333008, 4199.487305, 4173.846191, 4100.512695, 4188.717773, 3542.000000, 8074.000000, 8379.000000, 0.000000, 0.000000, 0.000000, 24943.000000, 424.615387, 4.000000, 4.000000, 4.000000, 4.000000, 4.000000, 4.000000, 4.000000, 4.000000, 4.000000, 4.000000, 4.000000, 4.000000, 4.000000, 4.000000, 4.000000, 4.000000
88.000000, 0.000000, 4205.641113, 4227.179199, 4201.025391, 4220.512695, 4215.897461, 4202.563965, 4184.615234, 4196.922852, 4190.256348, 4182.051270, 4196.922852, 4171.794922, 4092.820313, 4185.127930, 3545.000000, 8074.000000, 8379.000000, 0.000000, 0.000000, 0.000000, 24943.000000, 432.307678, 4.000000, 4.000000, 4.000000, 4.000000, 4.000000, 4.000000, 4.000000, 4.000000, 4.000000, 4.000000, 4.000000, 4.000000, 4.000000, 4.000000, 4.000000, 4.000000
89.000000, 0.000000, 4206.153809, 4221.538574, 4205.127930, 4220.000000, 4205.641113, 4198.461426, 4184.102539, 4206.153809, 4192.820313, 4183.589844, 4197.436035, 4176.922852, 4091.794678, 4186.666504, 3543.000000, 8062.000000, 8389.000000, 0.000000, 0.000000, 0.000000, 24943.000000, 440.512817, 4.000000, 4.000000, 4.000000, 4.000000, 4.000000, 4.000000, 4.000000, 4.000000, 4.000000, 4.000000, 4.000000, 4.000000, 4.000000, 4.000000, 4.000000, 4.000000
90.000000, 0.000000, 4206.153809, 4221.025391, 4213.333008, 4221.538574, 4201.538574, 4198.974121, 4185.641113, 4218.461426, 4203.076660, 4196.410156, 4203.076660, 4183.589844, 4097.436035, 4187.179199, 2673.000000, 8062.000000, 8389.000000, 0.000000, 0.000000, 0.000000, 24943.000000, 448.205109, 4.000000, 4.000000, 4.000000, 4.000000, 4.000000, 4.000000, 4.000000, 4.000000, 4.000000, 4.000000, 4.000000, 4.000000, 4.000000, 4.000000, 4.000000, 4.000000
91.000000, 0.000000, 4208.205078, 4229.743652, 4216.922852, 4230.256348, 4204.102539, 4197.948730, 4186.666504, 4209.230469, 4205.127930, 4203.589844, 4211.794922, 4187.179199, 4101.538574, 4188.205078, 3542.000000, 8057.000000, 8379.000000, 0.000000, 0.000000, 0.000000, 24943.000000, 456.410248, 4.000000, 4.000000, 4.000000, 4.000000, 4.000000, 4.000000, 4.000000, 4.000000, 4.000000, 4.000000, 4.000000, 4.000000, 4.000000, 4.000000, 4.000000, 4.000000
92.000000, 0.000000, 4205.641113, 4231.794922, 4215.384277, 4233.846191, 4205.127930, 4191.794922, 4180.512695, 4196.410156, 4201.025391, 4196.410156, 4211.794922, 4187.179199, 4095.897217, 4189.743652, 3545.000000, 8057.000000, 8379.000000, 0.000000, 0.000000, 0.000000, 24943.000000, 464.102539, 4.000000, 4.000000, 4.000000, 4.000000, 4.000000, 4.000000, 4.000000, 4.000000, 4.000000, 4.000000, 4.000000, 4.000000, 4.000000, 4.000000, 4.000000, 4.000000
93.000000, 0.000000, 4203.076660, 4226.666504, 4216.922852, 4229.230469, 4201.538574, 4185.127930, 4170.769043, 4198.461426, 4196.410156, 4186.153809, 4202.051270, 4187.692383, 4089.230713, 4187.692383, 3543.000000, 8057.000000, 8391.000000, 0.000000, 0.000000, 0.000000, 24943.000000, 471.794861, 4.000000, 4.000000, 4.000000, 4.000000, 4.000000, 4.000000, 4.000000, 4.000000, 4.000000, 4.000000, 4.000000, 4.000000, 4.000000, 4.000000, 4.000000, 4.000000
94.000000, 0.000000, 4204.102539, 4222.563965, 4216.410156, 4228.205078, 4201.538574, 4185.641113, 4173.333008, 4198.974121, 4190.256348, 4187.692383, 4201.538574, 4188.717773, 4090.256348, 4186.666504, 2673.000000, 8057.000000, 8391.000000, 0.000000, 0.000000, 0.000000, 24943.000000, 480.000000, 4.000000, 4.000000, 4.000000, 4.000000, 4.000000, 4.000000, 4.000000, 4.000000, 4.000000, 4.000000, 4.000000, 4.000000, 4.000000, 4.000000, 4.000000, 4.000000
95.000000, 0.000000, 4200.000000, 4216.922852, 4206.666504, 4224.102539, 4202.563965, 4189.743652, 4183.589844, 4193.846191, 4190.256348, 4191.794922, 4204.615234, 4186.153809, 4091.281982, 4186.153809, 3542.000000, 8069.000000, 8427.000000, 0.000000, 0.000000, 0.000000, 24943.000000, 487.692291, 4.000000, 4.000000, 4.000000, 4.000000, 4.000000, 4.000000, 4.000000, 4.000000, 4.000000, 4.000000, 4.000000, 4.000000, 4.000000, 4.000000, 4.000000, 4.000000
96.000000, 0.000000, 4200.000000, 4214.358887, 4200.512695, 4216.410156, 4200.000000, 4188.205078, 4185.641113, 4200.512695, 4194.871582, 4184.102539, 4193.333008, 4181.538574, 4088.205078, 4183.589844, 3545.000000, 8069.000000, 8427.000000, 0.000000, 0.000000, 0.000000, 24943.000000, 495.384613, 4.000000, 4.000000, 4.000000, 4.000000, 4.000000, 4.000000, 4.000000, 4.000000, 4.000000, 4.000000, 4.000000, 4.000000, 4.000000, 4.000000, 4.000000, 4.000000
97.000000, 0.000000, 4204.615234, 4217.436035, 4208.205078, 4222.563965, 4207.179199, 4189.743652, 4182.563965, 4216.410156, 4198.974121, 4184.102539, 4189.743652, 4182.563965, 4089.743408, 4185.641113, 3543.000000, 8080.000000, 8429.000000, 0.000000, 0.000000, 0.000000, 24943.000000, 503.589722, 4.000000, 4.000000, 4.000000, 4.000000, 4.000000, 4.000000, 4.000000, 4.000000, 4.000000, 4.000000, 4.000000, 4.000000, 4.000000, 4.000000, 4.000000, 4.000000
98.000000, 0.000000, 4204.102539, 4222.051270, 4218.974121, 4233.333008, 4216.410156, 4195.897461, 4184.102539, 4218.461426, 4203.076660, 4195.384277, 4200.000000, 4185.641113, 4091.794678, 4189.230469, 2673.000000, 8080.000000, 8429.000000, 0.000000, 0.000000, 0.000000, 24943.000000, 511.282043, 4.000000, 4.000000, 4.000000, 4.000000, 4.000000, 4.000000, 4.000000, 4.000000, 4.000000, 4.000000, 4.000000, 4.000000, 4.000000, 4.000000, 4.000000, 4.000000
99.000000, 0.000000, 4201.025391, 4216.410156, 4216.410156, 4230.769043, 4209.743652, 4192.820313, 4186.153809, 4208.205078, 4205.641113, 4194.871582, 4195.384277, 4185.127930, 4087.692139, 4187.692383, 3542.000000, 8117.000000, 8421.000000, 0.000000, 0.000000, 0.000000, 24943.000000, 519.487183, 4.000000, 4.000000, 4.000000, 4.000000, 4.000000, 4.000000, 4.000000, 4.000000, 4.000000, 4.000000, 4.000000, 4.000000, 4.000000, 4.000000, 4.000000, 4.000000
100.000000, 0.000000, 4200.512695, 4206.666504, 4209.230469, 4221.025391, 4199.487305, 4185.641113, 4185.127930, 4200.512695, 4201.538574, 4186.666504, 4183.589844, 4180.000000, 4087.692139, 4185.641113, 3545.000000, 8117.000000, 8421.000000, 0.000000, 0.000000, 0.000000, 24943.000000, 527.179504, 4.000000, 4.000000, 4.000000, 4.000000, 4.000000, 4.000000, 4.000000, 4.000000, 4.000000, 4.000000, 4.000000, 4.000000, 4.000000, 4.000000, 4.000000, 4.000000
101.000000, 0.000000, 4202.563965, 4210.256348, 4203.589844, 4217.436035, 4201.025391, 4191.794922, 4187.179199, 4200.512695, 4192.307617, 4186.666504, 4184.615234, 4176.410156, 4091.281982, 4187.179199, 3543.000000, 8154.000000, 8420.000000, 0.000000, 0.000000, 0.000000, 24943.000000, 534.871765, 4.000000, 4.000000, 4.000000, 4.000000, 4.000000, 4.000000, 4.000000, 4.000000, 4.000000, 4.000000, 4.000000, 4.000000, 4.000000, 4.000000, 4.000000, 4.000000
102.000000, 0.000000, 4201.025391, 4214.871582, 4197.436035, 4216.922852, 4205.641113, 4200.000000, 4190.769043, 4201.025391, 4190.769043, 4184.102539, 4182.051270, 4175.384277, 4087.179443, 4183.589844, 2673.000000, 8154.000000, 8420.000000, 0.000000, 0.000000, 0.000000, 24943.000000, 542.564087, 4.000000, 4.000000, 4.000000, 4.000000, 4.000000, 4.000000, 4.000000, 4.000000, 4.000000, 4.000000, 4.000000, 4.000000, 4.000000, 4.000000, 4.000000, 4.000000
103.000000, 0.000000, 4200.000000, 4212.820313, 4195.897461, 4217.948730, 4208.717773, 4199.487305, 4188.205078, 4197.436035, 4196.410156, 4183.589844, 4172.820313, 4173.333008, 4089.230713, 4181.025391, 3542.000000, 8189.000000, 8420.000000, 0.000000, 0.000000, 0.000000, 24943.000000, 550.769226, 4.000000, 4.000000, 4.000000, 4.000000, 4.000000, 4.000000, 4.000000, 4.000000, 4.000000, 4.000000, 4.000000, 4.000000, 4.000000, 4.000000, 4.000000, 4.000000
104.000000, 0.000000, 4206.153809, 4216.922852, 4200.512695, 4218.974121, 4208.717773, 4198.974121, 4188.717773, 4196.410156, 4199.487305, 4194.871582, 4181.025391, 4175.897461, 4105.641113, 4192.307617, 3545.000000, 8189.000000, 8420.000000, 0.000000, 0.000000, 0.000000, 24943.000000, 558.461548, 4.000000, 4.000000, 4.000000, 4.000000, 4.000000, 4.000000, 4.000000, 4.000000, 4.000000, 4.000000, 4.000000, 4.000000, 4.000000, 4.000000, 4.000000, 4.000000
105.000000, 0.000000, 4207.692383, 4221.538574, 4201.025391, 4218.461426, 4205.641113, 4200.000000, 4192.820313, 4203.076660, 4199.487305, 4203.589844, 4198.461426, 4186.153809, 4113.846191, 4203.589844, 3543.000000, 8251.000000, 8404.000000, 0.000000, 0.000000, 0.000000, 24943.000000, 566.666626, 4.000000, 4.000000, 4.000000, 4.000000, 4.000000, 4.000000, 4.000000, 4.000000, 4.000000, 4.000000, 4.000000, 4.000000, 4.000000, 4.000000, 4.000000, 4.000000
106.000000, 0.000000, 4205.127930, 4222.563965, 4205.641113, 4224.102539, 4210.256348, 4199.487305, 4190.256348, 4212.820313, 4205.127930, 4206.153809, 4202.051270, 4196.922852, 4109.230469, 4203.589844, 2673.000000, 8251.000000, 8404.000000, 0.000000, 0.000000, 0.000000, 24943.000000, 574.358948, 4.000000, 4.000000, 4.000000, 4.000000, 4.000000, 4.000000, 4.000000, 4.000000, 4.000000, 4.000000, 4.000000, 4.000000, 4.000000, 4.000000, 4.000000, 4.000000
107.000000, 0.000000, 4206.666504, 4223.076660, 4213.333008, 4230.769043, 4213.333008, 4200.512695, 4192.307617, 4211.794922, 4207.692383, 4206.666504, 4200.000000, 4201.025391, 4109.743652, 4203.076660, 3542.000000, 8251.000000, 8389.000000, 0.000000, 0.000000, 0.000000, 24943.000000, 582.051270, 4.000000, 4.000000, 4.000000, 4.000000, 4.000000, 4.000000, 4.000000, 4.000000, 4.000000, 4.000000, 4.000000, 4.000000, 4.000000, 4.000000, 4.000000, 4.000000
108.000000, 0.000000, 4207.179199, 4224.102539, 4213.846191, 4229.230469, 4205.641113, 4202.051270, 4203.076660, 4217.436035, 4204.615234, 4203.076660, 4200.000000, 4201.025391, 4112.307617, 4206.666504, 3545.000000, 8251.000000, 8389.000000, 0.000000, 0.000000, 0.000000, 24943.000000, 590.256409, 4.000000, 4.000000, 4.000000, 4.000000, 4.000000, 4.000000, 4.000000, 4.000000, 4.000000, 4.000000, 4.000000, 4.000000, 4.000000, 4.000000, 4.000000, 4.000000
109.000000, 0.000000, 4205.641113, 4224.102539, 4206.666504, 4223.076660, 4203.589844, 4202.051270, 4204.615234, 4230.256348, 4203.076660, 4199.487305, 4191.794922, 4193.333008, 4106.666504, 4198.974121, 3543.000000, 8229.000000, 8361.000000, 0.000000, 0.000000, 0.000000, 24943.000000, 597.948730, 4.000000, 4.000000, 4.000000, 4.000000, 4.000000, 4.000000, 4.000000, 4.000000, 4.000000, 4.000000, 4.000000, 4.000000, 4.000000, 4.000000, 4.000000, 4.000000
110.000000, 0.000000, 4204.615234, 4222.563965, 4201.025391, 4220.512695, 4205.127930, 4203.589844, 4202.563965, 4225.127930, 4202.051270, 4199.487305, 4181.025391, 4182.563965, 4103.076660, 4187.692383, 2673.000000, 8229.000000, 8361.000000, 0.000000, 0.000000, 0.000000, 24943.000000, 605.640991, 4.000000, 4.000000, 4.000000, 4.000000, 4.000000, 4.000000, 4.000000, 4.000000, 4.000000, 4.000000, 4.000000, 4.000000, 4.000000, 4.000000, 4.000000, 4.000000
111.000000, 0.000000, 4207.179199, 4220.000000, 4201.538574, 4218.974121, 4200.512695, 4202.563965, 4200.512695, 4207.692383, 4200.512695, 4198.461426, 4181.025391, 4182.563965, 4107.692383, 4187.179199, 3542.000000, 8213.000000, 8344.000000, 0.000000, 0.000000, 0.000000, 24943.000000, 613.846130, 4.000000, 4.000000, 4.000000, 4.000000, 4.000000, 4.000000, 4.000000, 4.000000, 4.000000, 4.000000, 4.000000, 4.000000, 4.000000, 4.000000, 4.000000, 4.000000
112.000000, 0.000000, 4211.794922, 4225.127930, 4205.127930, 4217.948730, 4200.000000, 4197.436035, 4188.717773, 4200.512695, 4195.897461, 4197.436035, 4185.127930, 4186.666504, 4115.897461, 4194.871582, 3545.000000, 8213.000000, 8344.000000, 0.000000, 0.000000, 0.000000, 24943.000000, 621.538452, 4.000000, 4.000000, 4.000000, 4.000000, 4.000000, 4.000000, 4.000000, 4.000000, 4.000000, 4.000000, 4.000000, 4.000000, 4.000000, 4.000000, 4.000000, 4.000000
113.000000, 0.000000, 4211.794922, 4230.256348, 4206.666504, 4220.000000, 4203.589844, 4197.948730, 4187.179199, 4201.025391, 4193.333008, 4200.000000, 4186.666504, 4188.205078, 4124.102539, 4199.487305, 3543.000000, 8187.000000, 8304.000000, 0.000000, 0.000000, 0.000000, 24943.000000, 629.743591, 4.000000, 4.000000, 4.000000, 4.000000, 4.000000, 4.000000, 4.000000, 4.000000, 4.000000, 4.000000, 4.000000, 4.000000, 4.000000, 4.000000, 4.000000, 4.000000
114.000000, 0.000000, 4211.281738, 4222.563965, 4202.563965, 4218.461426, 4203.076660, 4201.538574, 4202.051270, 4200.512695, 4190.256348, 4195.384277, 4186.153809, 4186.153809, 4125.127930, 4194.871582, 2673.000000, 8187.000000, 8304.000000, 0.000000, 0.000000, 0.000000, 24943.000000, 637.435852, 4.000000, 4.000000, 4.000000, 4.000000, 4.000000, 4.000000, 4.000000, 4.000000, 4.000000, 4.000000, 4.000000, 4.000000, 4.000000, 4.000000, 4.000000, 4.000000
115.000000, 0.000000, 4209.743652, 4210.769043, 4197.948730, 4214.358887, 4199.487305, 4203.589844, 4207.179199, 4200.000000, 4184.102539, 4186.153809, 4180.512695, 4177.948730, 4121.538574, 4186.666504, 3542.000000, 8178.000000, 8290.000000, 0.000000, 0.000000, 0.000000, 24943.000000, 645.128174, 4.000000, 4.000000, 4.000000, 4.000000, 4.000000, 4.000000, 4.000000, 4.000000, 4.000000, 4.000000, 4.000000, 4.000000, 4.000000, 4.000000, 4.000000, 4.000000
116.000000, 0.000000, 4209.743652, 4215.897461, 4196.922852, 4213.846191, 4198.974121, 4196.922852, 4194.871582, 4202.051270, 4189.743652, 4187.692383, 4177.948730, 4169.230469, 4127.179199, 4184.615234, 3545.000000, 8178.000000, 8290.000000, 0.000000, 0.000000, 0.000000, 24943.000000, 653.333313, 4.000000, 4.000000, 4.000000, 4.000000, 4.000000, 4.000000, 4.000000, 4.000000, 4.000000, 4.000000, 4.000000, 4.000000, 4.000000, 4.000000, 4.000000, 4.000000
117.000000, 0.000000, 4210.256348, 4227.179199, 4200.000000, 4214.871582, 4203.589844, 4188.717773, 4184.615234, 4207.179199, 4199.487305, 4198.461426, 4184.615234, 4168.717773, 4137.436035, 4186.153809, 3543.000000, 8180.000000, 8265.000000, 0.000000, 0.000000, 0.000000, 24943.000000, 661.025635, 4.000000, 4.000000, 4.000000, 4.000000, 4.000000, 4.000000, 4.000000, 4.000000, 4.000000, 4.000000, 4.000000, 4.000000, 4.000000, 4.000000, 4.000000, 4.000000
118.000000, 0.000000, 4207.692383, 4225.641113, 4201.025391, 4215.384277, 4209.743652, 4190.769043, 4188.717773, 4214.871582, 4203.076660, 4201.025391, 4188.205078, 4170.256348, 4140.512695, 4183.589844, 2673.000000, 8180.000000, 8265.000000, 0.000000, 0.000000, 0.000000, 24943.000000, 669.230774, 4.000000, 4.000000, 4.000000, 4.000000, 4.000000, 4.000000, 4.000000, 4.000000, 4.000000, 4.000000, 4.000000, 4.000000, 4.000000, 4.000000, 4.000000, 4.000000
119.000000, 0.000000, 4207.179199, 4217.436035, 4196.922852, 4215.384277, 4208.717773, 4195.384277, 4196.410156, 4219.487305, 4206.153809, 4201.538574, 4185.127930, 4171.281738, 4144.615234, 4181.538574, 3542.000000, 8206.000000, 8261.000000, 0.000000, 0.000000, 0.000000, 24943.000000, 676.923035, 4.000000, 4.000000, 4.000000, 4.000000, 4.000000, 4.000000, 4.000000, 4.000000, 4.000000, 4.000000, 4.000000, 4.000000, 4.000000, 4.000000, 4.000000, 4.000000
120.000000, 0.000000, 4209.743652, 4208.205078, 4196.922852, 4216.410156, 4204.102539, 4192.307617, 4196.922852, 4216.410156, 4209.230469, 4203.076660, 4186.666504, 4174.358887, 4155.384277, 4183.076660, 3545.000000, 8206.000000, 8261.000000, 0.000000, 0.000000, 0.000000, 24943.000000, 684.615356, 4.000000, 4.000000, 4.000000, 4.000000, 4.000000, 4.000000, 4.000000, 4.000000, 4.000000, 4.000000, 4.000000, 4.000000, 4.000000, 4.000000, 4.000000, 4.000000
121.000000, 0.000000, 4208.717773, 4189.743652, 4201.025391, 4216.410156, 4201.538574, 4187.692383, 4198.461426, 4206.153809, 4201.538574, 4192.820313, 4183.589844, 4175.384277, 4156.410156, 4180.000000, 3543.000000, 8222.000000, 8266.000000, 0.000000, 0.000000, 0.000000, 24943.000000, 692.820496, 4.000000, 4.000000, 4.000000, 4.000000, 4.000000, 4.000000, 4.000000, 4.000000, 4.000000, 4.000000, 4.000000, 4.000000, 4.000000, 4.000000, 4.000000, 4.000000
122.000000, 0.000000, 4206.153809, 4178.461426, 4197.436035, 4213.333008, 4197.948730, 4186.153809, 4201.025391, 4200.000000, 4194.358887, 4184.102539, 4171.794922, 4171.794922, 4151.794922, 4174.871582, 2673.000000, 8222.000000, 8266.000000, 0.000000, 0.000000, 0.000000, 24943.000000, 700.512817, 4.000000, 4.000000, 4.000000, 4.000000, 4.000000, 4.000000, 4.000000, 4.000000, 4.000000, 4.000000, 4.000000, 4.000000, 4.000000, 4.000000, 4.000000, 4.000000
123.000000, 0.000000, 4207.692383, 4182.563965, 4189.230469, 4206.666504, 4196.922852, 4190.256348, 4197.948730, 4201.025391, 4194.358887, 4190.769043, 4167.179199, 4170.256348, 4157.948730, 4173.333008, 3542.000000, 8234.000000, 8216.000000, 0.000000, 0.000000, 0.000000, 24943.000000, 708.205139, 4.000000, 4.000000, 4.000000, 4.000000, 4.000000, 4.000000, 4.000000, 4.000000, 4.000000, 4.000000, 4.000000, 4.000000, 4.000000, 4.000000, 4.000000, 4.000000
124.000000, 0.000000, 4207.179199, 4182.051270, 4188.205078, 4203.589844, 4199.487305, 4198.461426, 4207.179199, 4202.051270, 4195.897461, 4197.436035, 4170.256348, 4170.256348, 4167.692383, 4173.333008, 3545.000000, 8234.000000, 8216.000000, 0.000000, 0.000000, 0.000000, 24943.000000, 715.897400, 4.000000, 4.000000, 4.000000, 4.000000, 4.000000, 4.000000, 4.000000, 4.000000, 4.000000, 4.000000, 4.000000, 4.000000, 4.000000, 4.000000, 4.000000, 4.000000
125.000000, 0.000000, 4203.076660, 4181.538574, 4187.692383, 4204.102539, 4202.051270, 4198.461426, 4214.871582, 4203.076660, 4199.487305, 4197.948730, 4171.281738, 4170.256348, 4175.384277, 4172.820313, 3543.000000, 8230.000000, 8197.000000, 0.000000, 0.000000, 0.000000, 24943.000000, 724.102539, 4.000000, 4.000000, 4.000000, 4.000000, 4.000000, 4.000000, 4.000000, 4.000000, 4.000000, 4.000000, 4.000000, 4.000000, 4.000000, 4.000000, 4.000000, 4.000000
126.000000, 0.000000, 4205.641113, 4190.769043, 4184.615234, 4202.051270, 4204.102539, 4192.820313, 4204.102539, 4212.307617, 4203.076660, 4200.512695, 4174.358887, 4167.692383, 4182.563965, 4170.769043, 2673.000000, 8230.000000, 8197.000000, 0.000000, 0.000000, 0.000000, 24943.000000, 731.794861, 4.000000, 4.000000, 4.000000, 4.000000, 4.000000, 4.000000, 4.000000, 4.000000, 4.000000, 4.000000, 4.000000, 4.000000, 4.000000, 4.000000, 4.000000, 4.000000
127.000000, 0.000000, 4203.589844, 4197.436035, 4191.281738, 4204.102539, 4206.666504, 4195.897461, 4198.974121, 4218.461426, 4200.512695, 4201.025391, 4184.102539, 4165.127930, 4186.666504, 4169.743652, 56.000000, 8211.000000, 8196.000000, 0.000000, 0.000000, 0.000000, 24943.000000, 740.000000, 4.000000, 4.000000, 4.000000, 4.000000, 4.000000, 4.000000, 4.000000, 4.000000, 4.000000, 4.000000, 4.000000, 4.000000, 4.000000, 4.000000, 4.000000, 4.000000
0.000000, 0.000000, 4200.512695, 4201.025391, 4203.589844, 4212.307617, 4205.127930, 4200.000000, 4209.743652, 4212.820313, 4195.897461, 4194.871582, 4187.692383, 4174.871582, 4188.205078, 4176.922852, 3561.000000, 8211.000000, 8196.000000, 0.000000, 0.000000, 0.000000, 24943.000000, 747.692261, 4.000000, 4.000000, 4.000000, 4.000000, 4.000000, 4.000000, 4.000000, 4.000000, 4.000000, 4.000000, 4.000000, 4.000000, 4.000000, 4.000000, 4.000000, 4.000000
1.000000, 0.000000, 4203.589844, 4197.948730, 4206.666504, 4208.205078, 4202.563965, 4197.948730, 4215.384277, 4217.436035, 4196.922852, 4189.230469, 4178.974121, 4187.179199, 4188.205078, 4182.051270, 3571.000000, 8139.000000, 8158.000000, 0.000000, 0.000000, 0.000000, 24943.000000, 755.384583, 4.000000, 4.000000, 4.000000, 4.000000, 4.000000, 4.000000, 4.000000, 4.000000, 4.000000, 4.000000, 4.000000, 4.000000, 4.000000, 4.000000, 4.000000, 4.000000
2.000000, 0.000000, 4200.000000, 4186.153809, 4201.538574, 4195.897461, 4200.000000, 4200.000000, 4216.922852, 4231.281738, 4199.487305, 4178.974121, 4163.589844, 4181.538574, 4183.076660, 4174.358887, 1667.000000, 8139.000000, 8158.000000, 0.000000, 0.000000, 0.000000, 24943.000000, 763.076904, 4.000000, 4.000000, 4.000000, 4.000000, 4.000000, 4.000000, 4.000000, 4.000000, 4.000000, 4.000000, 4.000000, 4.000000, 4.000000, 4.000000, 4.000000, 4.000000
3.000000, 0.000000, 4198.974121, 4177.948730, 4200.512695, 4195.384277, 4199.487305, 4198.974121, 4219.487305, 4228.717773, 4200.000000, 4172.307617, 4155.384277, 4174.358887, 4182.051270, 4170.769043, 3573.000000, 8105.000000, 8119.000000, 0.000000, 0.000000, 0.000000, 24943.000000, 771.282043, 4.000000, 4.000000, 4.000000, 4.000000, 4.000000, 4.000000, 4.000000, 4.000000, 4.000000, 4.000000, 4.000000, 4.000000, 4.000000, 4.000000, 4.000000, 4.000000
4.000000, 0.000000, 4205.127930, 4181.538574, 4202.563965, 4201.025391, 4206.666504, 4188.717773, 4208.717773, 4215.384277, 4198.974121, 4178.974121, 4160.000000, 4178.461426, 4192.307617, 4178.974121, 3317.000000, 8105.000000, 8119.000000, 0.000000, 0.000000, 0.000000, 24943.000000, 778.974365, 4.000000, 4.000000, 4.000000, 4.000000, 4.000000, 4.000000, 4.000000, 4.000000, 4.000000, 4.000000, 4.000000, 4.000000, 4.000000, 4.000000, 4.000000, 4.000000
5.000000, 0.000000, 4204.102539, 4193.333008, 4205.127930, 4205.127930, 4212.820313, 4182.051270, 4197.948730, 4212.820313, 4195.897461, 4184.615234, 4167.179199, 4182.563965, 4201.538574, 4184.615234, 3592.000000, 8067.000000, 8078.000000, 0.000000, 0.000000, 0.000000, 24943.000000, 787.179443, 4.000000, 4.000000, 4.000000, 4.000000, 4.000000, 4.000000, 4.000000, 4.000000, 4.000000, 4.000000, 4.000000, 4.000000, 4.000000, 4.000000, 4.000000, 4.000000
6.000000, 0.000000, 4204.102539, 4205.641113, 4215.384277, 4216.922852, 4217.436035, 4185.641113, 4198.974121, 4220.512695, 4204.102539, 4192.820313, 4178.974121, 4186.153809, 4212.307617, 4189.230469, 3065.000000, 8067.000000, 8078.000000, 0.000000, 0.000000, 0.000000, 24943.000000, 794.871765, 4.000000, 4.000000, 4.000000, 4.000000, 4.000000, 4.000000, 4.000000, 4.000000, 4.000000, 4.000000, 4.000000, 4.000000, 4.000000, 4.000000, 4.000000, 4.000000
7.000000, 0.000000, 4205.641113, 4200.512695, 4216.922852, 4217.948730, 4217.948730, 4190.769043, 4207.179199, 4232.307617, 4218.461426, 4204.615234, 4184.615234, 4190.256348, 4219.487305, 4189.743652, 3433.000000, 8064.000000, 8085.000000, 0.000000, 0.000000, 0.000000, 24943.000000, 803.076904, 4.000000, 4.000000, 4.000000, 4.000000, 4.000000, 4.000000, 4.000000, 4.000000, 4.000000, 4.000000, 4.000000, 4.000000, 4.000000, 4.000000, 4.000000, 4.000000
8.000000, 0.000000, 4203.076660, 4185.641113, 4205.127930, 4205.127930, 4213.333008, 4188.717773, 4209.743652, 4235.384277, 4210.769043, 4198.461426, 4174.358887, 4184.102539, 4216.922852, 4178.461426, 3539.000000, 8064.000000, 8085.000000, 0.000000, 0.000000, 0.000000, 24943.000000, 810.769226, 4.000000, 4.000000, 4.000000, 4.000000, 4.000000, 4.000000, 4.000000, 4.000000, 4.000000, 4.000000, 4.000000, 4.000000, 4.000000, 4.000000, 4.000000, 4.000000
9.000000, 0.000000, 4201.025391, 4185.641113, 4204.102539, 4203.076660, 4212.307617, 4189.230469, 4205.127930, 4220.000000, 4190.256348, 4180.000000, 4165.127930, 4178.461426, 4211.281738, 4169.743652, 3551.000000, 8076.000000, 8076.000000, 0.000000, 0.000000, 0.000000, 24943.000000, 818.974365, 4.000000, 4.000000, 4.000000, 4.000000, 4.000000, 4.000000, 4.000000, 4.000000, 4.000000, 4.000000, 4.000000, 4.000000, 4.000000, 4.000000, 4.000000, 4.000000
10.000000, 0.000000, 4197.948730, 4179.487305, 4205.127930, 4205.127930, 4212.820313, 4200.512695, 4210.256348, 4212.820313, 4201.025391, 4180.512695, 4159.487305, 4174.358887, 4205.641113, 4164.102539, 2664.000000, 8076.000000, 8076.000000, 0.000000, 0.000000, 0.000000, 24943.000000, 826.666626, 4.000000, 4.000000, 4.000000, 4.000000, 4.000000, 4.000000, 4.000000, 4.000000, 4.000000, 4.000000, 4.000000, 4.000000, 4.000000, 4.000000, 4.000000, 4.000000
11.000000, 0.000000, 4195.897461, 4160.512695, 4187.692383, 4198.461426, 4206.666504, 4202.051270, 4218.974121, 4223.076660, 4221.025391, 4185.127930, 4143.589844, 4161.025391, 4200.000000, 4149.743652, 3539.000000, 8118.000000, 8038.000000, 0.000000, 0.000000, 0.000000, 24943.000000, 834.358948, 4.000000, 4.000000, 4.000000, 4.000000, 4.000000, 4.000000, 4.000000, 4.000000, 4.000000, 4.000000, 4.000000, 4.000000, 4.000000, 4.000000, 4.000000, 4.000000
12.000000, 0.000000, 4205.641113, 4158.974121, 4183.589844, 4196.410156, 4201.538574, 4187.692383, 4210.769043, 4216.922852, 4203.076660, 4173.846191, 4133.333008, 4157.436035, 4205.127930, 4147.692383, 3543.000000, 8118.000000, 8038.000000, 0.000000, 0.000000, 0.000000, 24943.000000, 842.564087, 4.000000, 4.000000, 4.000000, 4.000000, 4.000000, 4.000000, 4.000000, 4.000000, 4.000000, 4.000000, 4.000000, 4.000000, 4.000000, 4.000000, 4.000000, 4.000000
13.000000, 0.000000, 4212.307617, 4173.333008, 4197.948730, 4202.563965, 4203.589844, 4178.461426, 4191.794922, 4197.948730, 4184.102539, 4167.692383, 4142.563965, 4168.717773, 4217.436035, 4160.512695, 3543.000000, 8130.000000, 8023.000000, 0.000000, 0.000000, 0.000000, 24943.000000, 850.256409, 4.000000, 4.000000, 4.000000, 4.000000, 4.000000, 4.000000, 4.000000, 4.000000, 4.000000, 4.000000, 4.000000, 4.000000, 4.000000, 4.000000, 4.000000, 4.000000
14.000000, 0.000000, 4206.666504, 4171.794922, 4194.358887, 4200.000000, 4204.102539, 4181.538574, 4193.846191, 4197.948730, 4193.333008, 4171.794922, 4140.512695, 4164.102539, 4217.436035, 4154.358887, 2664.000000, 8130.000000, 8023.000000, 0.000000, 0.000000, 0.000000, 24943.000000, 857.948669, 4.000000, 4.000000, 4.000000, 4.000000, 4.000000, 4.000000, 4.000000, 4.000000, 4.000000, 4.000000, 4.000000, 4.000000, 4.000000, 4.000000, 4.000000, 4.000000
15.000000, 0.000000, 4202.051270, 4164.615234, 4182.563965, 4194.358887, 4200.512695, 4184.615234, 4207.179199, 4214.358887, 4205.641113, 4174.358887, 4126.153809, 4142.563965, 4211.794922, 4133.846191, 3539.000000, 8190.000000, 8058.000000, 0.000000, 0.000000, 0.000000, 24943.000000, 866.153809, 4.000000, 4.000000, 4.000000, 4.000000, 4.000000, 4.000000, 4.000000, 4.000000, 4.000000, 4.000000, 4.000000, 4.000000, 4.000000, 4.000000, 4.000000, 4.000000
16.000000, 0.000000, 4207.692383, 4175.384277, 4187.692383, 4197.948730, 4203.589844, 4185.641113, 4204.615234, 4219.487305, 4195.384277, 4173.846191, 4128.205078, 4140.000000, 4217.948730, 4132.307617, 0.000000, 8190.000000, 8058.000000, 0.000000, 0.000000, 0.000000, 24943.000000, 873.846130, 4.000000, 4.000000, 4.000000, 4.000000, 4.000000, 4.000000, 4.000000, 4.000000, 4.000000, 4.000000, 4.000000, 4.000000, 4.000000, 4.000000, 4.000000, 4.000000
17.000000, 0.000000, 4209.230469, 4187.179199, 4190.769043, 4201.025391, 4207.179199, 4187.179199, 4198.461426, 4213.333008, 4184.615234, 4170.769043, 4137.948730, 4152.307617, 4226.666504, 4141.025391, 0.000000, 8254.000000, 8069.000000, 0.000000, 0.000000, 0.000000, 24943.000000, 882.051270, 4.000000, 4.000000, 4.000000, 4.000000, 4.000000, 4.000000, 4.000000, 4.000000, 4.000000, 4.000000, 4.000000, 4.000000, 4.000000, 4.000000, 4.000000, 4.000000
18.000000, 0.000000, 4204.102539, 4175.384277, 4185.127930, 4197.436035, 4205.641113, 4188.717773, 4205.127930, 4214.358887, 4192.307617, 4171.281738, 4136.410156, 4154.358887, 4227.692383, 4132.307617, 0.000000, 8254.000000, 8069.000000, 0.000000, 0.000000, 0.000000, 24943.000000, 889.743591, 4.000000, 4.000000, 4.000000, 4.000000, 4.000000, 4.000000, 4.000000, 4.000000, 4.000000, 4.000000, 4.000000, 4.000000, 4.000000, 4.000000, 4.000000, 4.000000
19.000000, 0.000000, 4209.230469, 4155.384277, 4190.256348, 4195.384277, 4200.512695, 4191.281738, 4215.897461, 4225.641113, 4207.692383, 4177.436035, 4133.333008, 4157.436035, 4225.641113, 4122.051270, 0.000000, 8404.000000, 8096.000000, 0.000000, 0.000000, 0.000000, 24943.000000, 897.948669, 4.000000, 4.000000, 4.000000, 4.000000, 4.000000, 4.000000, 4.000000, 4.000000, 4.000000, 4.000000, 4.000000, 4.000000, 4.000000, 4.000000, 4.000000, 4.000000
20.000000, 0.000000, 4216.922852, 4159.487305, 4204.615234, 4201.025391, 4201.025391, 4193.846191, 4217.436035, 4235.897461, 4218.461426, 4189.743652, 4140.000000, 4176.922852, 4234.358887, 4136.410156, 0.000000, 8404.000000, 8096.000000, 0.000000, 0.000000, 0.000000, 24943.000000, 905.640991, 4.000000, 4.000000, 4.000000, 4.000000, 4.000000, 4.000000, 4.000000, 4.000000, 4.000000, 4.000000, 4.000000, 4.000000, 4.000000, 4.000000, 4.000000, 4.000000
21.000000, 0.000000, 4213.333008, 4173.846191, 4210.769043, 4206.666504, 4207.692383, 4196.410156, 4215.897461, 4234.358887, 4220.000000, 4201.538574, 4143.589844, 4189.230469, 4241.025391, 4153.333008, 0.000000, 8450.000000, 8104.000000, 0.000000, 0.000000, 0.000000, 24943.000000, 913.333313, 4.000000, 4.000000, 4.000000, 4.000000, 4.000000, 4.000000, 4.000000, 4.000000, 4.000000, 4.000000, 4.000000, 4.000000, 4.000000, 4.000000, 4.000000, 4.000000
22.000000, 0.000000, 4210.256348, 4177.948730, 4209.230469, 4211.794922, 4216.410156, 4201.538574, 4218.461426, 4228.717773, 4220.512695, 4199.487305, 4139.487305, 4184.615234, 4237.436035, 4154.871582, 0.000000, 8450.000000, 8104.000000, 0.000000, 0.000000, 0.000000, 24943.000000, 921.025635, 4.000000, 4.000000, 4.000000, 4.000000, 4.000000, 4.000000, 4.000000, 4.000000, 4.000000, 4.000000, 4.000000, 4.000000, 4.000000, 4.000000, 4.000000, 4.000000
23.000000, 0.000000, 4213.846191, 4181.025391, 4211.281738, 4215.897461, 4222.051270, 4206.153809, 4225.127930, 4232.820313, 4218.974121, 4191.281738, 4140.000000, 4183.076660, 4237.436035, 4156.410156, 0.000000, 8471.000000, 8101.000000, 0.000000, 0.000000, 0.000000, 24943.000000, 929.230774, 4.000000, 4.000000, 4.000000, 4.000000, 4.000000, 4.000000, 4.000000, 4.000000, 4.000000, 4.000000, 4.000000, 4.000000, 4.000000, 4.000000, 4.000000, 4.000000
24.000000, 0.000000, 4202.563965, 4182.051270, 4207.692383, 4211.281738, 4218.974121, 4206.666504, 4237.436035, 4238.461426, 4217.948730, 4189.743652, 4139.487305, 4180.512695, 4235.384277, 4156.410156, 0.000000, 8471.000000, 8101.000000, 0.000000, 0.000000, 0.000000, 24943.000000, 936.923035, 4.000000, 4.000000, 4.000000, 4.000000, 4.000000, 4.000000, 4.000000, 4.000000, 4.000000, 4.000000, 4.000000, 4.000000, 4.000000, 4.000000, 4.000000, 4.000000
25.000000, 0.000000, 4184.102539, 4178.461426, 4202.051270, 4203.589844, 4214.358887, 4202.051270, 4233.846191, 4234.358887, 4218.974121, 4192.307617, 4133.333008, 4171.281738, 4229.230469, 4145.127930, 0.000000, 8452.000000, 8055.000000, 0.000000, 0.000000, 0.000000, 24943.000000, 945.128174, 4.000000, 4.000000, 4.000000, 4.000000, 4.000000, 4.000000, 4.000000, 4.000000, 4.000000, 4.000000, 4.000000, 4.000000, 4.000000, 4.000000, 4.000000, 4.000000
26.000000, 0.000000, 4183.589844, 4188.205078, 4209.743652, 4204.102539, 4215.897461, 4200.512695, 4218.974121, 4229.230469, 4217.436035, 4195.897461, 4139.487305, 4175.897461, 4237.948730, 4146.666504, 0.000000, 8452.000000, 8055.000000, 0.000000, 0.000000, 0.000000, 24943.000000, 952.820496, 4.000000, 4.000000, 4.000000, 4.000000, 4.000000, 4.000000, 4.000000, 4.000000, 4.000000, 4.000000, 4.000000, 4.000000, 4.000000, 4.000000, 4.000000, 4.000000
27.000000, 0.000000, 4185.641113, 4203.589844, 4217.436035, 4206.153809, 4217.948730, 4201.025391, 4215.897461, 4227.692383, 4217.436035, 4197.436035, 4156.410156, 4187.692383, 4250.769043, 4160.000000, 0.000000, 8415.000000, 7989.000000, 0.000000, 0.000000, 0.000000, 24943.000000, 960.512817, 4.000000, 4.000000, 4.000000, 4.000000, 4.000000, 4.000000, 4.000000, 4.000000, 4.000000, 4.000000, 4.000000, 4.000000, 4.000000, 4.000000, 4.000000, 4.000000
28.000000, 0.000000, 4176.922852, 4197.948730, 4208.205078, 4200.000000, 4213.846191, 4198.461426, 4218.461426, 4221.538574, 4213.846191, 4191.281738, 4153.333008, 4184.102539, 4244.102539, 4160.000000, 0.000000, 8415.000000, 7989.000000, 0.000000, 0.000000, 0.000000, 24943.000000, 968.717896, 4.000000, 4.000000, 4.000000, 4.000000, 4.000000, 4.000000, 4.000000, 4.000000, 4.000000, 4.000000, 4.000000, 4.000000, 4.000000, 4.000000, 4.000000, 4.000000
29.000000, 0.000000, 4169.230469, 4193.333008, 4201.025391, 4196.410156, 4208.205078, 4197.948730, 4215.897461, 4214.358887, 4204.615234, 4184.615234, 4141.538574, 4178.461426, 4234.358887, 4152.307617, 0.000000, 8330.000000, 7866.000000, 0.000000, 0.000000, 0.000000, 24943.000000, 976.410217, 4.000000, 4.000000, 4.000000, 4.000000, 4.000000, 4.000000, 4.000000, 4.000000, 4.000000, 4.000000, 4.000000, 4.000000, 4.000000, 4.000000, 4.000000, 4.000000
30.000000, 0.000000, 4167.692383, 4199.487305, 4204.102539, 4195.897461, 4205.641113, 4196.410156, 4215.897461, 4214.871582, 4198.461426, 4180.000000, 4141.025391, 4180.000000, 4235.897461, 4152.820313, 0.000000, 8330.000000, 7866.000000, 0.000000, 0.000000, 0.000000, 24943.000000, 984.102539, 4.000000, 4.000000, 4.000000, 4.000000, 4.000000, 4.000000, 4.000000, 4.000000, 4.000000, 4.000000, 4.000000, 4.000000, 4.000000, 4.000000, 4.000000, 4.000000
31.000000, 0.000000, 4164.615234, 4192.820313, 4201.538574, 4187.692383, 4201.538574, 4187.692383, 4218.461426, 4218.461426, 4201.025391, 4171.794922, 4142.051270, 4175.384277, 4237.948730, 4152.820313, 0.000000, 8299.000000, 7817.000000, 0.000000, 0.000000, 0.000000, 24943.000000, 992.307678, 4.000000, 4.000000, 4.000000, 4.000000, 4.000000, 4.000000, 4.000000, 4.000000, 4.000000, 4.000000, 4.000000, 4.000000, 4.000000, 4.000000, 4.000000, 4.000000
32.000000, 0.000000, 4161.538574, 4181.025391, 4195.897461, 4181.025391, 4198.974121, 4184.615234, 4219.487305, 4219.487305, 4204.615234, 4169.230469, 4146.153809, 4168.717773, 4243.589844, 4150.256348, 0.000000, 8299.000000, 7817.000000, 0.000000, 0.000000, 0.000000, 24944.000000, 0.000000, 4.000000, 4.000000, 4.000000, 4.000000, 4.000000, 4.000000, 4.000000, 4.000000, 4.000000, 4.000000, 4.000000, 4.000000, 4.000000, 4.000000, 4.000000, 4.000000
33.000000, 0.000000, 4166.666504, 4180.000000, 4198.974121, 4184.615234, 4203.076660, 4194.871582, 4223.076660, 4216.410156, 4202.563965, 4171.281738, 4155.897461, 4171.794922, 4249.743652, 4154.358887, 0.000000, 8270.000000, 7783.000000, 0.000000, 0.000000, 0.000000, 24944.000000, 8.205128, 4.000000, 4.000000, 4.000000, 4.000000, 4.000000, 4.000000, 4.000000, 4.000000, 4.000000, 4.000000, 4.000000, 4.000000, 4.000000, 4.000000, 4.000000, 4.000000
34.000000, 0.000000, 4180.000000, 4178.461426, 4204.102539, 4187.179199, 4205.641113, 4197.948730, 4230.256348, 4213.333008, 4200.000000, 4169.743652, 4156.922852, 4176.922852, 4249.230469, 4153.846191, 0.000000, 8270.000000, 7783.000000, 0.000000, 0.000000, 0.000000, 24944.000000, 15.897435, 4.000000, 4.000000, 4.000000, 4.000000, 4.000000, 4.000000, 4.000000, 4.000000, 4.000000, 4.000000, 4.000000, 4.000000, 4.000000, 4.000000, 4.000000, 4.000000
35.000000, 0.000000, 4184.102539, 4168.205078, 4201.025391, 4185.127930, 4201.025391, 4186.666504, 4231.794922, 4213.846191, 4200.000000, 4169.743652, 4151.794922, 4172.307617, 4249.230469, 4143.076660, 0.000000, 8185.000000, 7808.000000, 0.000000, 0.000000, 0.000000, 24944.000000, 23.589743, 4.000000, 4.000000, 4.000000, 4.000000, 4.000000, 4.000000, 4.000000, 4.000000, 4.000000, 4.000000, 4.000000, 4.000000, 4.000000, 4.000000, 4.000000, 4.000000
36.000000, 0.000000, 4182.051270, 4157.948730, 4197.436035, 4181.538574, 4196.922852, 4185.127930, 4233.333008, 4215.897461, 4200.512695, 4166.666504, 4151.281738, 4168.205078, 4248.205078, 4134.358887, 0.000000, 8185.000000, 7808.000000, 0.000000, 0.000000, 0.000000, 24944.000000, 31.794870, 4.000000, 4.000000, 4.000000, 4.000000, 4.000000, 4.000000, 4.000000, 4.000000, 4.000000, 4.000000, 4.000000, 4.000000, 4.000000, 4.000000, 4.000000, 4.000000
37.000000, 0.000000, 4197.948730, 4153.333008, 4206.153809, 4180.512695, 4201.025391, 4198.461426, 4237.948730, 4216.922852, 4200.000000, 4160.512695, 4153.333008, 4176.922852, 4248.205078, 4142.051270, 0.000000, 8132.000000, 7846.000000, 0.000000, 0.000000, 0.000000, 24944.000000, 39.487179, 4.000000, 4.000000, 4.000000, 4.000000, 4.000000, 4.000000, 4.000000, 4.000000, 4.000000, 4.000000, 4.000000, 4.000000, 4.000000, 4.000000, 4.000000, 4.000000
38.000000, 0.000000, 4218.974121, 4155.897461, 4216.410156, 4185.127930, 4206.666504, 4199.487305, 4234.871582, 4216.410156, 4201.538574, 4165.127930, 4157.948730, 4189.743652, 4253.846191, 4157.436035, 0.000000, 8132.000000, 7846.000000, 0.000000, 0.000000, 0.000000, 24944.000000, 47.179485, 4.000000, 4.000000, 4.000000, 4.000000, 4.000000, 4.000000, 4.000000, 4.000000, 4.000000, 4.000000, 4.000000, 4.000000, 4.000000, 4.000000, 4.000000, 4.000000
39.000000, 0.000000, 4224.102539, 4152.820313, 4211.794922, 4187.692383, 4205.641113, 4188.717773, 4228.205078, 4215.384277, 4205.127930, 4173.846191, 4158.461426, 4191.281738, 4252.820313, 4162.051270, 0.000000, 8090.000000, 7873.000000, 0.000000, 0.000000, 0.000000, 24944.000000, 55.384613, 4.000000, 4.000000, 4.000000, 4.000000, 4.000000, 4.000000, 4.000000, 4.000000, 4.000000, 4.000000, 4.000000, 4.000000, 4.000000, 4.000000, 4.000000, 4.000000
40.000000, 0.000000, 4226.153809, 4143.589844, 4200.512695, 4181.025391, 4204.102539, 4185.127930, 4226.666504, 4212.820313, 4201.025391, 4165.641113, 4152.307617, 4183.076660, 4248.205078, 4157.948730, 0.000000, 8090.000000, 7873.000000, 0.000000, 0.000000, 0.000000, 24944.000000, 63.076923, 4.000000, 4.000000, 4.000000, 4.000000, 4.000000, 4.000000, 4.000000, 4.000000, 4.000000, 4.000000, 4.000000, 4.000000, 4.000000, 4.000000, 4.000000, 4.000000
41.000000, 0.000000, 4232.307617, 4141.538574, 4199.487305, 4177.436035, 4203.076660, 4185.127930, 4229.743652, 4213.333008, 4197.436035, 4154.871582, 4151.281738, 4181.538574, 4253.846191, 4162.051270, 0.000000, 8086.000000, 7871.000000, 0.000000, 0.000000, 0.000000, 24944.000000, 70.769226, 4.000000, 4.000000, 4.000000, 4.000000, 4.000000, 4.000000, 4.000000, 4.000000, 4.000000, 4.000000, 4.000000, 4.000000, 4.000000, 4.000000, 4.000000, 4.000000
42.000000, 0.000000, 4231.794922, 4141.538574, 4208.205078, 4182.563965, 4204.102539, 4191.794922, 4240.000000, 4226.153809, 4210.256348, 4163.589844, 4154.871582, 4186.153809, 4262.563965, 4169.230469, 0.000000, 8086.000000, 7871.000000, 0.000000, 0.000000, 0.000000, 24944.000000, 78.974358, 4.000000, 4.000000, 4.000000, 4.000000, 4.000000, 4.000000, 4.000000, 4.000000, 4.000000, 4.000000, 4.000000, 4.000000, 4.000000, 4.000000, 4.000000, 4.000000
43.000000, 0.000000, 4226.666504, 4139.487305, 4215.384277, 4186.153809, 4209.230469, 4196.922852, 4242.563965, 4236.410156, 4219.487305, 4176.922852, 4157.436035, 4188.205078, 4263.076660, 4171.281738, 0.000000, 8093.000000, 7842.000000, 0.000000, 0.000000, 0.000000, 24944.000000, 86.666664, 4.000000, 4.000000, 4.000000, 4.000000, 4.000000, 4.000000, 4.000000, 4.000000, 4.000000, 4.000000, 4.000000, 4.000000, 4.000000, 4.000000, 4.000000, 4.000000
44.000000, 0.000000, 4220.512695, 4138.461426, 4212.820313, 4183.076660, 4207.179199, 4192.307617, 4236.922852, 4226.666504, 4203.589844, 4172.820313, 4156.922852, 4185.127930, 4254.871582, 4165.127930, 0.000000, 8093.000000, 7842.000000, 0.000000, 0.000000, 0.000000, 24944.000000, 94.358971, 4.000000, 4.000000, 4.000000, 4.000000, 4.000000, 4.000000, 4.000000, 4.000000, 4.000000, 4.000000, 4.000000, 4.000000, 4.000000, 4.000000, 4.000000, 4.000000
45.000000, 0.000000, 4213.846191, 4136.410156, 4206.153809, 4181.538574, 4198.974121, 4193.333008, 4243.076660, 4217.948730, 4195.384277, 4165.127930, 4156.922852, 4183.076660, 4248.717773, 4158.461426, 0.000000, 8096.000000, 7845.000000, 0.000000, 0.000000, 0.000000, 24944.000000, 102.564102, 4.000000, 4.000000, 4.000000, 4.000000, 4.000000, 4.000000, 4.000000, 4.000000, 4.000000, 4.000000, 4.000000, 4.000000, 4.000000, 4.000000, 4.000000, 4.000000
46.000000, 0.000000, 4215.897461, 4142.563965, 4206.153809, 4187.179199, 4207.179199, 4203.076660, 4248.717773, 4222.051270, 4209.230469, 4175.897461, 4159.487305, 4184.615234, 4252.820313, 4160.000000, 0.000000, 8096.000000, 7845.000000, 0.000000, 0.000000, 0.000000, 24944.000000, 110.256409, 4.000000, 4.000000, 4.000000, 4.000000, 4.000000, 4.000000, 4.000000, 4.000000, 4.000000, 4.000000, 4.000000, 4.000000, 4.000000, 4.000000, 4.000000, 4.000000
47.000000, 0.000000, 4218.461426, 4141.538574, 4199.487305, 4184.615234, 4220.512695, 4202.563965, 4236.922852, 4213.846191, 4205.641113, 4176.922852, 4153.846191, 4171.794922, 4251.281738, 4159.487305, 0.000000, 8098.000000, 7879.000000, 0.000000, 0.000000, 0.000000, 24944.000000, 117.948715, 4.000000, 4.000000, 4.000000, 4.000000, 4.000000, 4.000000, 4.000000, 4.000000, 4.000000, 4.000000, 4.000000, 4.000000, 4.000000, 4.000000, 4.000000, 4.000000
48.000000, 0.000000, 4210.769043, 4127.179199, 4183.589844, 4177.948730, 4212.307617, 4199.487305, 4230.769043, 4201.538574, 4186.153809, 4156.410156, 4136.922852, 4153.333008, 4235.897461, 4149.743652, 0.000000, 8098.000000, 7879.000000, 0.000000, 0.000000, 0.000000, 24944.000000, 125.641022, 4.000000, 4.000000, 4.000000, 4.000000, 4.000000, 4.000000, 4.000000, 4.000000, 4.000000, 4.000000, 4.000000, 4.000000, 4.000000, 4.000000, 4.000000, 4.000000
49.000000, 0.000000, 4203.589844, 4123.589844, 4184.615234, 4176.410156, 4203.589844, 4205.641113, 4234.871582, 4210.256348, 4196.922852, 4156.922852, 4131.794922, 4154.871582, 4234.871582, 4148.205078, 0.000000, 8071.000000, 7948.000000, 0.000000, 0.000000, 0.000000, 24944.000000, 133.846146, 4.000000, 4.000000, 4.000000, 4.000000, 4.000000, 4.000000, 4.000000, 4.000000, 4.000000, 4.000000, 4.000000, 4.000000, 4.000000, 4.000000, 4.000000, 4.000000
50.000000, 0.000000, 4202.051270, 4134.871582, 4193.333008, 4176.410156, 4208.717773, 4201.025391, 4231.281738, 4222.051270, 4216.410156, 4181.025391, 4140.512695, 4167.692383, 4249.230469, 4154.871582, 0.000000, 8071.000000, 7948.000000, 0.000000, 0.000000, 0.000000, 24944.000000, 141.538452, 4.000000, 4.000000, 4.000000, 4.000000, 4.000000, 4.000000, 4.000000, 4.000000, 4.000000, 4.000000, 4.000000, 4.000000, 4.000000, 4.000000, 4.000000, 4.000000
51.000000, 0.000000, 4200.000000, 4140.512695, 4190.256348, 4178.461426, 4207.692383, 4189.743652, 4227.692383, 4218.974121, 4209.230469, 4183.589844, 4140.000000, 4168.717773, 4250.256348, 4156.922852, 0.000000, 8056.000000, 7905.000000, 0.000000, 0.000000, 0.000000, 24944.000000, 149.743591, 4.000000, 4.000000, 4.000000, 4.000000, 4.000000, 4.000000, 4.000000, 4.000000, 4.000000, 4.000000, 4.000000, 4.000000, 4.000000, 4.000000, 4.000000, 4.000000
52.000000, 0.000000, 4199.487305, 4148.717773, 4191.281738, 4185.127930, 4201.538574, 4189.230469, 4230.256348, 4213.846191, 4203.589844, 4175.897461, 4136.410156, 4168.205078, 4247.692383, 4162.563965, 0.000000, 8056.000000, 7905.000000, 0.000000, 0.000000, 0.000000, 24944.000000, 157.435898, 4.000000, 4.000000, 4.000000, 4.000000, 4.000000, 4.000000, 4.000000, 4.000000, 4.000000, 4.000000, 4.000000, 4.000000, 4.000000, 4.000000, 4.000000, 4.000000
53.000000, 0.000000, 4199.487305, 4165.641113, 4195.897461, 4184.102539, 4201.025391, 4192.307617, 4229.743652, 4213.846191, 4213.333008, 4185.641113, 4140.512695, 4167.179199, 4254.871582, 4165.641113, 0.000000, 8007.000000, 7799.000000, 0.000000, 0.000000, 0.000000, 24944.000000, 165.641022, 4.000000, 4.000000, 4.000000, 4.000000, 4.000000, 4.000000, 4.000000, 4.000000, 4.000000, 4.000000, 4.000000, 4.000000, 4.000000, 4.000000, 4.000000, 4.000000
54.000000, 0.000000, 4194.358887, 4172.307617, 4188.717773, 4172.820313, 4202.563965, 4190.256348, 4227.692383, 4212.820313, 4210.769043, 4190.256348, 4141.025391, 4157.436035, 4259.487305, 4156.410156, 0.000000, 8007.000000, 7799.000000, 0.000000, 0.000000, 0.000000, 24944.000000, 173.333328, 4.000000, 4.000000, 4.000000, 4.000000, 4.000000, 4.000000, 4.000000, 4.000000, 4.000000, 4.000000, 4.000000, 4.000000, 4.000000, 4.000000, 4.000000, 4.000000
55.000000, 0.000000, 4193.333008, 4171.281738, 4182.563965, 4171.281738, 4207.179199, 4187.179199, 4228.205078, 4214.358887, 4202.563965, 4177.436035, 4139.487305, 4155.897461, 4258.461426, 4146.153809, 0.000000, 8016.000000, 7788.000000, 0.000000, 0.000000, 0.000000, 24944.000000, 181.538452, 4.000000, 4.000000, 4.000000, 4.000000, 4.000000, 4.000000, 4.000000, 4.000000, 4.000000, 4.000000, 4.000000, 4.000000, 4.000000, 4.000000, 4.000000, 4.000000
56.000000, 0.000000, 4204.615234, 4168.717773, 4185.641113, 4177.436035, 4213.333008, 4189.743652, 4232.307617, 4218.974121, 4207.179199, 4169.743652, 4147.692383, 4167.692383, 4261.538574, 4143.076660, 0.000000, 8016.000000, 7788.000000, 0.000000, 0.000000, 0.000000, 24944.000000, 189.230759, 4.000000, 4.000000, 4.000000, 4.000000, 4.000000, 4.000000, 4.000000, 4.000000, 4.000000, 4.000000, 4.000000, 4.000000, 4.000000, 4.000000, 4.000000, 4.000000
57.000000, 0.000000, 4216.410156, 4159.487305, 4191.281738, 4182.051270, 4213.846191, 4192.820313, 4232.307617, 4215.897461, 4205.127930, 4172.820313, 4160.512695, 4173.846191, 4270.769043, 4146.153809, 0.000000, 8053.000000, 7798.000000, 0.000000, 0.000000, 0.000000, 24944.000000, 196.923065, 4.000000, 4.000000, 4.000000, 4.000000, 4.000000, 4.000000, 4.000000, 4.000000, 4.000000, 4.000000, 4.000000, 4.000000, 4.000000, 4.000000, 4.000000, 4.000000
58.000000, 0.000000, 4219.487305, 4147.179199, 4196.922852, 4185.127930, 4211.281738, 4191.281738, 4232.307617, 4223.076660, 4206.153809, 4177.948730, 4167.692383, 4174.358887, 4277.948730, 4150.256348, 0.000000, 8053.000000, 7798.000000, 0.000000, 0.000000, 0.000000, 24944.000000, 204.615387, 4.000000, 4.000000, 4.000000, 4.000000, 4.000000, 4.000000, 4.000000, 4.000000, 4.000000, 4.000000, 4.000000, 4.000000, 4.000000, 4.000000, 4.000000, 4.000000
59.000000, 0.000000, 4218.974121, 4138.974121, 4202.563965, 4186.153809, 4209.230469, 4189.230469, 4231.794922, 4236.922852, 4225.127930, 4187.692383, 4171.794922, 4176.410156, 4281.538574, 4153.333008, 0.000000, 8156.000000, 7892.000000, 0.000000, 0.000000, 0.000000, 24944.000000, 212.820511, 4.000000, 4.000000, 4.000000, 4.000000, 4.000000, 4.000000, 4.000000, 4.000000, 4.000000, 4.000000, 4.000000, 4.000000, 4.000000, 4.000000, 4.000000, 4.000000
60.000000, 0.000000, 4222.051270, 4125.641113, 4201.538574, 4186.666504, 4204.102539, 4188.205078, 4223.076660, 4215.897461, 4213.846191, 4185.127930, 4166.153809, 4174.871582, 4277.948730, 4149.743652, 0.000000, 8156.000000, 7892.000000, 0.000000, 0.000000, 0.000000, 24944.000000, 220.512817, 4.000000, 4.000000, 4.000000, 4.000000, 4.000000, 4.000000, 4.000000, 4.000000, 4.000000, 4.000000, 4.000000, 4.000000, 4.000000, 4.000000, 4.000000, 4.000000
61.000000, 0.000000, 4224.102539, 4107.179199, 4198.974121, 4187.179199, 4202.563965, 4189.743652, 4212.820313, 4178.974121, 4180.000000, 4171.281738, 4150.256348, 4166.666504, 4268.717773, 4142.051270, 0.000000, 8188.000000, 7922.000000, 0.000000, 0.000000, 0.000000, 24944.000000, 228.205124, 4.000000, 4.000000, 4.000000, 4.000000, 4.000000, 4.000000, 4.000000, 4.000000, 4.000000, 4.000000, 4.000000, 4.000000, 4.000000, 4.000000, 4.000000, 4.000000
62.000000, 0.000000, 4222.563965, 4103.589844, 4198.461426, 4189.230469, 4204.615234, 4195.897461, 4216.922852, 4175.897461, 4177.436035, 4173.846191, 4139.487305, 4158.974121, 4262.563965, 4137.436035, 0.000000, 8188.000000, 7922.000000, 0.000000, 0.000000, 0.000000, 24944.000000, 236.410248, 4.000000, 4.000000, 4.000000, 4.000000, 4.000000, 4.000000, 4.000000, 4.000000, 4.000000, 4.000000, 4.000000, 4.000000, 4.000000, 4.000000, 4.000000, 4.000000
63.000000, 0.000000, 4218.974121, 4109.743652, 4197.948730, 4186.153809, 4201.025391, 4198.974121, 4227.179199, 4186.666504, 4189.230469, 4187.692383, 4137.948730, 4155.897461, 4264.615234, 4144.102539, 0.000000, 8215.000000, 7983.000000, 0.000000, 0.000000, 0.000000, 24944.000000, 244.102554, 4.000000, 4.000000, 4.000000, 4.000000, 4.000000, 4.000000, 4.000000, 4.000000, 4.000000, 4.000000, 4.000000, 4.000000, 4.000000, 4.000000, 4.000000, 4.000000
64.000000, 0.000000, 4215.897461, 4117.948730, 4198.974121, 4184.102539, 4195.897461, 4198.974121, 4229.230469, 4187.692383, 4189.743652, 4194.871582, 4142.051270, 4161.025391, 4269.743652, 4163.076660, 3561.000000, 8215.000000, 7983.000000, 0.000000, 0.000000, 0.000000, 24944.000000, 251.794861, 4.000000, 4.000000, 4.000000, 4.000000, 4.000000, 4.000000, 4.000000, 4.000000, 4.000000, 4.000000, 4.000000, 4.000000, 4.000000, 4.000000, 4.000000, 4.000000
65.000000, 0.000000, 4216.922852, 4140.512695, 4203.076660, 4194.358887, 4205.641113, 4207.692383, 4231.281738, 4199.487305, 4196.410156, 4200.000000, 4151.281738, 4177.436035, 4275.897461, 4185.641113, 3570.000000, 8214.000000, 8056.000000, 0.000000, 0.000000, 0.000000, 24944.000000, 260.000000, 4.000000, 4.000000, 4.000000, 4.000000, 4.000000, 4.000000, 4.000000, 4.000000, 4.000000, 4.000000, 4.000000, 4.000000, 4.000000, 4.000000, 4.000000, 4.000000
66.000000, 0.000000, 4214.358887, 4162.563965, 4206.153809, 4200.512695, 4217.436035, 4220.512695, 4237.436035, 4211.281738, 4206.153809, 4207.179199, 4160.000000, 4187.179199, 4282.051270, 4196.922852, 1667.000000, 8214.000000, 8056.000000, 0.000000, 0.000000, 0.000000, 24944.000000, 267.692291, 4.000000, 4.000000, 4.000000, 4.000000, 4.000000, 4.000000, 4.000000, 4.000000, 4.000000, 4.000000, 4.000000, 4.000000, 4.000000, 4.000000, 4.000000, 4.000000
67.000000, 0.000000, 4209.743652, 4155.897461, 4200.512695, 4188.717773, 4209.230469, 4217.948730, 4233.846191, 4204.615234, 4202.051270, 4205.641113, 4157.436035, 4177.948730, 4275.384277, 4188.717773, 3579.000000, 8205.000000, 8122.000000, 0.000000, 0.000000, 0.000000, 24944.000000, 275.897430, 4.000000, 4.000000, 4.000000, 4.000000, 4.000000, 4.000000, 4.000000, 4.000000, 4.000000, 4.000000, 4.000000, 4.000000, 4.000000, 4.000000, 4.000000, 4.000000
68.000000, 0.000000, 4213.333008, 4139.487305, 4195.384277, 4177.948730, 4197.436035, 4205.641113, 4221.025391, 4198.974121, 4194.871582, 4195.897461, 4151.794922, 4166.666504, 4264.102539, 4180.512695, 3317.000000, 8205.000000, 8122.000000, 0.000000, 0.000000, 0.000000, 24944.000000, 283.589722, 4.000000, 4.000000, 4.000000, 4.000000, 4.000000, 4.000000, 4.000000, 4.000000, 4.000000, 4.000000, 4.000000, 4.000000, 4.000000, 4.000000, 4.000000, 4.000000
69.000000, 0.000000, 4217.436035, 4134.358887, 4197.948730, 4181.538574, 4200.512695, 4201.025391, 4215.384277, 4195.897461, 4189.743652, 4191.794922, 4152.820313, 4169.743652, 4266.666504, 4183.589844, 3592.000000, 8201.000000, 8173.000000, 0.000000, 0.000000, 0.000000, 24944.000000, 291.282043, 4.000000, 4.000000, 4.000000, 4.000000, 4.000000, 4.000000, 4.000000, 4.000000, 4.000000, 4.000000, 4.000000, 4.000000, 4.000000, 4.000000, 4.000000, 4.000000
70.000000, 0.000000, 4221.025391, 4136.922852, 4201.025391, 4187.692383, 4200.512695, 4201.538574, 4220.000000, 4187.692383, 4185.641113, 4194.871582, 4154.871582, 4174.358887, 4275.897461, 4187.692383, 3060.000000, 8201.000000, 8173.000000, 0.000000, 0.000000, 0.000000, 24944.000000, 299.487183, 4.000000, 4.000000, 4.000000, 4.000000, 4.000000, 4.000000, 4.000000, 4.000000, 4.000000, 4.000000, 4.000000, 4.000000, 4.000000, 4.000000, 4.000000, 4.000000
71.000000, 0.000000, 4224.615234, 4149.743652, 4204.615234, 4188.717773, 4196.922852, 4202.051270, 4217.436035, 4187.692383, 4191.281738, 4201.025391, 4157.436035, 4173.846191, 4274.358887, 4188.717773, 3421.000000, 8204.000000, 8190.000000, 0.000000, 0.000000, 0.000000, 24944.000000, 307.179474, 4.000000, 4.000000, 4.000000, 4.000000, 4.000000, 4.000000, 4.000000, 4.000000, 4.000000, 4.000000, 4.000000, 4.000000, 4.000000, 4.000000, 4.000000, 4.000000
72.000000, 0.000000, 4218.974121, 4152.820313, 4204.102539, 4186.153809, 4198.974121, 4205.641113, 4217.436035, 4200.000000, 4201.538574, 4202.051270, 4154.871582, 4170.769043, 4263.589844, 4185.127930, 3539.000000, 8204.000000, 8190.000000, 0.000000, 0.000000, 0.000000, 24944.000000, 314.871796, 4.000000, 4.000000, 4.000000, 4.000000, 4.000000, 4.000000, 4.000000, 4.000000, 4.000000, 4.000000, 4.000000, 4.000000, 4.000000, 4.000000, 4.000000, 4.000000
73.000000, 0.000000, 4210.256348, 4134.871582, 4198.461426, 4184.615234, 4197.436035, 4212.820313, 4226.666504, 4204.102539, 4203.589844, 4202.563965, 4151.281738, 4168.205078, 4261.538574, 4183.589844, 3551.000000, 8202.000000, 8138.000000, 0.000000, 0.000000, 0.000000, 24944.000000, 323.076904, 4.000000, 4.000000, 4.000000, 4.000000, 4.000000, 4.000000, 4.000000, 4.000000, 4.000000, 4.000000, 4.000000, 4.000000, 4.000000, 4.000000, 4.000000, 4.000000
74.000000, 0.000000, 4213.333008, 4141.538574, 4204.615234, 4193.333008, 4198.974121, 4216.922852, 4228.205078, 4199.487305, 4202.051270, 4211.281738, 4160.512695, 4177.436035, 4273.846191, 4194.358887, 2659.000000, 8202.000000, 8138.000000, 0.000000, 0.000000, 0.000000, 24944.000000, 330.769226, 4.000000, 4.000000, 4.000000, 4.000000, 4.000000, 4.000000, 4.000000, 4.000000, 4.000000, 4.000000, 4.000000, 4.000000, 4.000000, 4.000000, 4.000000, 4.000000
75.000000, 0.000000, 4218.974121, 4174.358887, 4215.384277, 4202.051270, 4209.743652, 4216.410156, 4224.102539, 4201.025391, 4204.615234, 4215.897461, 4174.358887, 4191.281738, 4284.102539, 4208.205078, 3538.000000, 8212.000000, 8099.000000, 0.000000, 0.000000, 0.000000, 24944.000000, 338.974365, 4.000000, 4.000000, 4.000000, 4.000000, 4.000000, 4.000000, 4.000000, 4.000000, 4.000000, 4.000000, 4.000000, 4.000000, 4.000000, 4.000000, 4.000000, 4.000000
76.000000, 0.000000, 4210.256348, 4179.487305, 4209.230469, 4194.871582, 4212.820313, 4217.948730, 4229.743652, 4201.025391, 4200.512695, 4207.179199, 4167.179199, 4186.666504, 4273.333008, 4202.563965, 3540.000000, 8212.000000, 8099.000000, 0.000000, 0.000000, 0.000000, 24944.000000, 346.666656, 4.000000, 4.000000, 4.000000, 4.000000, 4.000000, 4.000000, 4.000000, 4.000000, 4.000000, 4.000000, 4.000000, 4.000000, 4.000000, 4.000000, 4.000000, 4.000000
77.000000, 0.000000, 4203.589844, 4167.179199, 4199.487305, 4185.641113, 4204.102539, 4215.897461, 4233.333008, 4196.922852, 4192.307617, 4198.461426, 4155.384277, 4173.333008, 4261.538574, 4190.256348, 3542.000000, 8242.000000, 8014.000000, 0.000000, 0.000000, 0.000000, 24944.000000, 354.358978, 4.000000, 4.000000, 4.000000, 4.000000, 4.000000, 4.000000, 4.000000, 4.000000, 4.000000, 4.000000, 4.000000, 4.000000, 4.000000, 4.000000, 4.000000, 4.000000
78.000000, 0.000000, 4204.102539, 4172.307617, 4203.589844, 4192.307617, 4200.512695, 4205.127930, 4222.051270, 4196.410156, 4193.333008, 4196.922852, 4159.487305, 4173.846191, 4264.102539, 4190.256348, 2659.000000, 8242.000000, 8014.000000, 0.000000, 0.000000, 0.000000, 24944.000000, 362.051270, 4.000000, 4.000000, 4.000000, 4.000000, 4.000000, 4.000000, 4.000000, 4.000000, 4.000000, 4.000000, 4.000000, 4.000000, 4.000000, 4.000000, 4.000000, 4.000000
79.000000, 0.000000, 4198.974121, 4171.794922, 4204.615234, 4195.384277, 4203.076660, 4198.974121, 4215.384277, 4197.436035, 4192.820313, 4191.281738, 4162.051270, 4174.871582, 4261.538574, 4187.179199, 3538.000000, 8245.000000, 8005.000000, 0.000000, 0.000000, 0.000000, 24944.000000, 370.256409, 4.000000, 4.000000, 4.000000, 4.000000, 4.000000, 4.000000, 4.000000, 4.000000, 4.000000, 4.000000, 4.000000, 4.000000, 4.000000, 4.000000, 4.000000, 4.000000
80.000000, 0.000000, 4194.871582, 4160.512695, 4199.487305, 4187.179199, 4198.974121, 4195.897461, 4219.487305, 4194.871582, 4186.153809, 4189.743652, 4164.102539, 4170.256348, 4259.487305, 4181.025391, 3540.000000, 8245.000000, 8005.000000, 0.000000, 0.000000, 0.000000, 24944.000000, 377.948700, 4.000000, 4.000000, 4.000000, 4.000000, 4.000000, 4.000000, 4.000000, 4.000000, 4.000000, 4.000000, 4.000000, 4.000000, 4.000000, 4.000000, 4.000000, 4.000000
81.000000, 0.000000, 4198.974121, 4156.922852, 4201.025391, 4185.641113, 4189.743652, 4190.769043, 4215.897461, 4194.871582, 4188.717773, 4200.000000, 4171.794922, 4175.384277, 4265.127930, 4186.666504, 3542.000000, 8237.000000, 8032.000000, 0.000000, 0.000000, 0.000000, 24944.000000, 386.153839, 4.000000, 4.000000, 4.000000, 4.000000, 4.000000, 4.000000, 4.000000, 4.000000, 4.000000, 4.000000, 4.000000, 4.000000, 4.000000, 4.000000, 4.000000, 4.000000
82.000000, 0.000000, 4199.487305, 4156.922852, 4201.025391, 4188.205078, 4190.256348, 4191.794922, 4210.769043, 4196.410156, 4196.922852, 4203.076660, 4171.794922, 4181.025391, 4257.948730, 4190.769043, 2659.000000, 8237.000000, 8032.000000, 0.000000, 0.000000, 0.000000, 24944.000000, 393.846130, 4.000000, 4.000000, 4.000000, 4.000000, 4.000000, 4.000000, 4.000000, 4.000000, 4.000000, 4.000000, 4.000000, 4.000000, 4.000000, 4.000000, 4.000000, 4.000000
83.000000, 0.000000, 4194.871582, 4154.871582, 4196.922852, 4185.127930, 4198.461426, 4201.025391, 4216.922852, 4200.512695, 4200.512695, 4204.615234, 4168.205078, 4179.487305, 4246.153809, 4191.281738, 3538.000000, 8220.000000, 8134.000000, 0.000000, 0.000000, 0.000000, 24944.000000, 401.538452, 4.000000, 4.000000, 4.000000, 4.000000, 4.000000, 4.000000, 4.000000, 4.000000, 4.000000, 4.000000, 4.000000, 4.000000, 4.000000, 4.000000, 4.000000, 4.000000
84.000000, 0.000000, 4197.948730, 4146.153809, 4197.436035, 4182.563965, 4198.461426, 4202.563965, 4221.025391, 4208.205078, 4206.153809, 4215.897461, 4172.307617, 4182.563965, 4247.692383, 4198.461426, 3540.000000, 8220.000000, 8134.000000, 0.000000, 0.000000, 0.000000, 24944.000000, 409.743591, 4.000000, 4.000000, 4.000000, 4.000000, 4.000000, 4.000000, 4.000000, 4.000000, 4.000000, 4.000000, 4.000000, 4.000000, 4.000000, 4.000000, 4.000000, 4.000000
85.000000, 0.000000, 4203.076660, 4139.487305, 4204.102539, 4184.615234, 4191.794922, 4198.974121, 4218.974121, 4211.281738, 4211.281738, 4221.538574, 4174.871582, 4188.205078, 4251.794922, 4204.615234, 3542.000000, 8202.000000, 8184.000000, 0.000000, 0.000000, 0.000000, 24944.000000, 417.948700, 4.000000, 4.000000, 4.000000, 4.000000, 4.000000, 4.000000, 4.000000, 4.000000, 4.000000, 4.000000, 4.000000, 4.000000, 4.000000, 4.000000, 4.000000, 4.000000
86.000000, 0.000000, 4199.487305, 4143.076660, 4204.102539, 4185.127930, 4187.692383, 4201.538574, 4225.127930, 4207.692383, 4209.230469, 4217.436035, 4170.769043, 4185.641113, 4244.102539, 4203.076660, 2659.000000, 8202.000000, 8184.000000, 0.000000, 0.000000, 0.000000, 24944.000000, 425.641022, 4.000000, 4.000000, 4.000000, 4.000000, 4.000000, 4.000000, 4.000000, 4.000000, 4.000000, 4.000000, 4.000000, 4.000000, 4.000000, 4.000000, 4.000000, 4.000000
87.000000, 0.000000, 4193.846191, 4145.641113, 4201.025391, 4181.025391, 4186.666504, 4201.538574, 4230.256348, 4201.538574, 4204.615234, 4215.384277, 4166.666504, 4180.512695, 4235.384277, 4200.512695, 3538.000000, 8152.000000, 8220.000000, 0.000000, 0.000000, 0.000000, 24944.000000, 433.333313, 4.000000, 4.000000, 4.000000, 4.000000, 4.000000, 4.000000, 4.000000, 4.000000, 4.000000, 4.000000, 4.000000, 4.000000, 4.000000, 4.000000, 4.000000, 4.000000
88.000000, 0.000000, 4195.897461, 4146.666504, 4208.205078, 4180.512695, 4192.307617, 4201.538574, 4224.615234, 4193.846191, 4201.538574, 4221.025391, 4168.717773, 4188.717773, 4238.974121, 4205.641113, 3540.000000, 8152.000000, 8220.000000, 0.000000, 0.000000, 0.000000, 24944.000000, 441.538452, 4.000000, 4.000000, 4.000000, 4.000000, 4.000000, 4.000000, 4.000000, 4.000000, 4.000000, 4.000000, 4.000000, 4.000000, 4.000000, 4.000000, 4.000000, 4.000000
89.000000, 0.000000, 4201.025391, 4162.563965, 4220.512695, 4192.820313, 4201.025391, 4202.051270, 4215.384277, 4196.922852, 4204.102539, 4230.256348, 4183.589844, 4206.666504, 4249.230469, 4223.589844, 3542.000000, 8132.000000, 8230.000000, 0.000000, 0.000000, 0.000000, 24944.000000, 449.230743, 4.000000, 4.000000, 4.000000, 4.000000, 4.000000, 4.000000, 4.000000, 4.000000, 4.000000, 4.000000, 4.000000, 4.000000, 4.000000, 4.000000, 4.000000, 4.000000
90.000000, 0.000000, 4198.974121, 4183.589844, 4224.102539, 4203.589844, 4201.025391, 4200.512695, 4211.794922, 4209.230469, 4213.846191, 4235.384277, 4198.461426, 4220.000000, 4253.846191, 4237.436035, 2659.000000, 8132.000000, 8230.000000, 0.000000, 0.000000, 0.000000, 24944.000000, 456.923065, 4.000000, 4.000000, 4.000000, 4.000000, 4.000000, 4.000000, 4.000000, 4.000000, 4.000000, 4.000000, 4.000000, 4.000000, 4.000000, 4.000000, 4.000000, 4.000000
91.000000, 0.000000, 4194.871582, 4176.410156, 4218.461426, 4197.436035, 4198.974121, 4201.538574, 4213.333008, 4208.717773, 4218.461426, 4235.897461, 4201.538574, 4216.410156, 4251.794922, 4233.846191, 3538.000000, 8119.000000, 8254.000000, 0.000000, 0.000000, 0.000000, 24944.000000, 465.128204, 4.000000, 4.000000, 4.000000, 4.000000, 4.000000, 4.000000, 4.000000, 4.000000, 4.000000, 4.000000, 4.000000, 4.000000, 4.000000, 4.000000, 4.000000, 4.000000
92.000000, 0.000000, 4197.436035, 4158.461426, 4214.358887, 4190.769043, 4199.487305, 4203.076660, 4216.410156, 4203.076660, 4206.153809, 4231.794922, 4196.410156, 4206.153809, 4251.794922, 4231.794922, 3540.000000, 8119.000000, 8254.000000, 0.000000, 0.000000, 0.000000, 24944.000000, 472.820496, 4.000000, 4.000000, 4.000000, 4.000000, 4.000000, 4.000000, 4.000000, 4.000000, 4.000000, 4.000000, 4.000000, 4.000000, 4.000000, 4.000000, 4.000000, 4.000000
93.000000, 0.000000, 4202.563965, 4167.692383, 4212.820313, 4196.922852, 4205.127930, 4204.102539, 4215.384277, 4213.333008, 4201.025391, 4230.256348, 4192.820313, 4199.487305, 4252.307617, 4231.794922, 3542.000000, 8128.000000, 8338.000000, 0.000000, 0.000000, 0.000000, 24944.000000, 481.025635, 4.000000, 4.000000, 4.000000, 4.000000, 4.000000, 4.000000, 4.000000, 4.000000, 4.000000, 4.000000, 4.000000, 4.000000, 4.000000, 4.000000, 4.000000, 4.000000
94.000000, 0.000000, 4198.974121, 4185.127930, 4207.692383, 4200.512695, 4213.333008, 4209.743652, 4213.846191, 4219.487305, 4211.794922, 4232.307617, 4188.717773, 4191.281738, 4247.179199, 4221.538574, 2659.000000, 8128.000000, 8338.000000, 0.000000, 0.000000, 0.000000, 24944.000000, 488.717926, 4.000000, 4.000000, 4.000000, 4.000000, 4.000000, 4.000000, 4.000000, 4.000000, 4.000000, 4.000000, 4.000000, 4.000000, 4.000000, 4.000000, 4.000000, 4.000000
95.000000, 0.000000, 4199.487305, 4170.769043, 4200.000000, 4196.922852, 4208.205078, 4217.436035, 4226.666504, 4208.717773, 4214.871582, 4230.769043, 4181.538574, 4181.538574, 4239.487305, 4209.743652, 3538.000000, 8148.000000, 8381.000000, 0.000000, 0.000000, 0.000000, 24944.000000, 496.410248, 4.000000, 4.000000, 4.000000, 4.000000, 4.000000, 4.000000, 4.000000, 4.000000, 4.000000, 4.000000, 4.000000, 4.000000, 4.000000, 4.000000, 4.000000, 4.000000
96.000000, 0.000000, 4208.205078, 4148.717773, 4201.025391, 4195.897461, 4200.000000, 4217.436035, 4232.820313, 4201.538574, 4204.615234, 4228.717773, 4184.615234, 4182.051270, 4243.076660, 4211.794922, 3540.000000, 8148.000000, 8381.000000, 0.000000, 0.000000, 0.000000, 24944.000000, 504.102539, 4.000000, 4.000000, 4.000000, 4.000000, 4.000000, 4.000000, 4.000000, 4.000000, 4.000000, 4.000000, 4.000000, 4.000000, 4.000000, 4.000000, 4.000000, 4.000000
97.000000, 0.000000, 4208.717773, 4158.461426, 4212.307617, 4202.563965, 4210.256348, 4218.974121, 4221.538574, 4202.051270, 4199.487305, 4230.769043, 4193.846191, 4193.846191, 4249.743652, 4222.051270, 3542.000000, 8176.000000, 8446.000000, 0.000000, 0.000000, 0.000000, 24944.000000, 512.307678, 4.000000, 4.000000, 4.000000, 4.000000, 4.000000, 4.000000, 4.000000, 4.000000, 4.000000, 4.000000, 4.000000, 4.000000, 4.000000, 4.000000, 4.000000, 4.000000
98.000000, 0.000000, 4209.230469, 4172.820313, 4216.922852, 4213.333008, 4215.897461, 4217.436035, 4215.897461, 4201.538574, 4208.717773, 4231.281738, 4189.743652, 4203.589844, 4239.487305, 4228.717773, 2659.000000, 8176.000000, 8446.000000, 0.000000, 0.000000, 0.000000, 24944.000000, 520.000000, 4.000000, 4.000000, 4.000000, 4.000000, 4.000000, 4.000000, 4.000000, 4.000000, 4.000000, 4.000000, 4.000000, 4.000000, 4.000000, 4.000000, 4.000000, 4.000000
99.000000, 0.000000, 4212.307617, 4168.717773, 4215.897461, 4214.871582, 4203.589844, 4205.641113, 4213.333008, 4199.487305, 4214.358887, 4232.307617, 4187.692383, 4205.127930, 4230.769043, 4230.256348, 3538.000000, 8186.000000, 8430.000000, 0.000000, 0.000000, 0.000000, 24944.000000, 528.205139, 4.000000, 4.000000, 4.000000, 4.000000, 4.000000, 4.000000, 4.000000, 4.000000, 4.000000, 4.000000, 4.000000, 4.000000, 4.000000, 4.000000, 4.000000, 4.000000
100.000000, 0.000000, 4209.743652, 4172.307617, 4217.948730, 4208.205078, 4200.000000, 4199.487305, 4203.076660, 4199.487305, 4207.179199, 4236.410156, 4199.487305, 4205.127930, 4231.281738, 4232.307617, 3540.000000, 8186.000000, 8430.000000, 0.000000, 0.000000, 0.000000, 24944.000000, 535.897400, 4.000000, 4.000000, 4.000000, 4.000000, 4.000000, 4.000000, 4.000000, 4.000000, 4.000000, 4.000000, 4.000000, 4.000000, 4.000000, 4.000000, 4.000000, 4.000000
101.000000, 0.000000, 4206.153809, 4184.615234, 4217.948730, 4206.666504, 4205.127930, 4201.538574, 4202.051270, 4196.922852, 4196.922852, 4233.333008, 4204.102539, 4203.076660, 4223.076660, 4232.820313, 3542.000000, 8214.000000, 8368.000000, 0.000000, 0.000000, 0.000000, 24944.000000, 544.102539, 4.000000, 4.000000, 4.000000, 4.000000, 4.000000, 4.000000, 4.000000, 4.000000, 4.000000, 4.000000, 4.000000, 4.000000, 4.000000, 4.000000, 4.000000, 4.000000
102.000000, 0.000000, 4205.127930, 4188.717773, 4213.846191, 4210.769043, 4205.641113, 4203.076660, 4213.333008, 4197.436035, 4201.025391, 4233.333008, 4203.589844, 4199.487305, 4214.358887, 4229.743652, 2659.000000, 8214.000000, 8368.000000, 0.000000, 0.000000, 0.000000, 24944.000000, 551.794861, 4.000000, 4.000000, 4.000000, 4.000000, 4.000000, 4.000000, 4.000000, 4.000000, 4.000000, 4.000000, 4.000000, 4.000000, 4.000000, 4.000000, 4.000000, 4.000000
103.000000, 0.000000, 4206.666504, 4193.846191, 4216.922852, 4213.333008, 4208.205078, 4208.717773, 4217.948730, 4211.794922, 4215.384277, 4244.102539, 4213.846191, 4198.461426, 4215.384277, 4230.256348, 3538.000000, 8221.000000, 8365.000000, 0.000000, 0.000000, 0.000000, 24944.000000, 559.487183, 4.000000, 4.000000, 4.000000, 4.000000, 4.000000, 4.000000, 4.000000, 4.000000, 4.000000, 4.000000, 4.000000, 4.000000, 4.000000, 4.000000, 4.000000, 4.000000
104.000000, 0.000000, 4207.179199, 4204.615234, 4222.563965, 4215.897461, 4210.769043, 4215.897461, 4216.410156, 4217.948730, 4215.897461, 4245.127930, 4221.025391, 4201.538574, 4207.179199, 4232.820313, 3540.000000, 8221.000000, 8365.000000, 0.000000, 0.000000, 0.000000, 24944.000000, 567.179443, 4.000000, 4.000000, 4.000000, 4.000000, 4.000000, 4.000000, 4.000000, 4.000000, 4.000000, 4.000000, 4.000000, 4.000000, 4.000000, 4.000000, 4.000000, 4.000000
105.000000, 0.000000, 4205.641113, 4205.127930, 4220.512695, 4213.846191, 4204.102539, 4213.333008, 4216.410156, 4205.641113, 4205.127930, 4233.846191, 4214.871582, 4196.922852, 4189.743652, 4223.589844, 3542.000000, 8215.000000, 8360.000000, 0.000000, 0.000000, 0.000000, 24944.000000, 574.871765, 4.000000, 4.000000, 4.000000, 4.000000, 4.000000, 4.000000, 4.000000, 4.000000, 4.000000, 4.000000, 4.000000, 4.000000, 4.000000, 4.000000, 4.000000, 4.000000
106.000000, 0.000000, 4206.666504, 4199.487305, 4217.436035, 4207.692383, 4199.487305, 4206.153809, 4214.871582, 4197.436035, 4203.076660, 4232.307617, 4207.179199, 4191.794922, 4182.563965, 4215.384277, 2659.000000, 8215.000000, 8360.000000, 0.000000, 0.000000, 0.000000, 24944.000000, 583.076904, 4.000000, 4.000000, 4.000000, 4.000000, 4.000000, 4.000000, 4.000000, 4.000000, 4.000000, 4.000000, 4.000000, 4.000000, 4.000000, 4.000000, 4.000000, 4.000000
107.000000, 0.000000, 4207.179199, 4198.974121, 4215.897461, 4205.127930, 4200.000000, 4207.179199, 4216.922852, 4200.000000, 4205.127930, 4235.384277, 4203.076660, 4195.897461, 4176.922852, 4223.589844, 3538.000000, 8186.000000, 8407.000000, 0.000000, 0.000000, 0.000000, 24944.000000, 590.769226, 4.000000, 4.000000, 4.000000, 4.000000, 4.000000, 4.000000, 4.000000, 4.000000, 4.000000, 4.000000, 4.000000, 4.000000, 4.000000, 4.000000, 4.000000, 4.000000
108.000000, 0.000000, 4205.641113, 4199.487305, 4212.307617, 4205.641113, 4197.948730, 4213.846191, 4224.102539, 4196.922852, 4198.974121, 4231.794922, 4206.153809, 4201.538574, 4167.692383, 4230.256348, 3540.000000, 8186.000000, 8407.000000, 0.000000, 0.000000, 0.000000, 24944.000000, 598.461548, 4.000000, 4.000000, 4.000000, 4.000000, 4.000000, 4.000000, 4.000000, 4.000000, 4.000000, 4.000000, 4.000000, 4.000000, 4.000000, 4.000000, 4.000000, 4.000000
109.000000, 0.000000, 4204.615234, 4203.589844, 4214.871582, 4211.281738, 4200.000000, 4217.436035, 4228.205078, 4195.897461, 4204.102539, 4238.461426, 4214.358887, 4202.051270, 4165.127930, 4233.846191, 3542.000000, 8181.000000, 8429.000000, 0.000000, 0.000000, 0.000000, 24944.000000, 606.666626, 4.000000, 4.000000, 4.000000, 4.000000, 4.000000, 4.000000, 4.000000, 4.000000, 4.000000, 4.000000, 4.000000, 4.000000, 4.000000, 4.000000, 4.000000, 4.000000
110.000000, 0.000000, 4205.127930, 4203.589844, 4217.436035, 4215.384277, 4202.051270, 4218.461426, 4235.384277, 4202.051270, 4215.384277, 4248.717773, 4217.948730, 4200.512695, 4160.000000, 4238.974121, 2659.000000, 8181.000000, 8429.000000, 0.000000, 0.000000, 0.000000, 24944.000000, 614.358948, 4.000000, 4.000000, 4.000000, 4.000000, 4.000000, 4.000000, 4.000000, 4.000000, 4.000000, 4.000000, 4.000000, 4.000000, 4.000000, 4.000000, 4.000000, 4.000000
111.000000, 0.000000, 4199.487305, 4200.512695, 4213.333008, 4212.820313, 4202.051270, 4220.512695, 4238.461426, 4204.102539, 4214.358887, 4248.205078, 4216.922852, 4202.051270, 4152.307617, 4237.948730, 3538.000000, 8208.000000, 8366.000000, 0.000000, 0.000000, 0.000000, 24944.000000, 622.564087, 4.000000, 4.000000, 4.000000, 4.000000, 4.000000, 4.000000, 4.000000, 4.000000, 4.000000, 4.000000, 4.000000, 4.000000, 4.000000, 4.000000, 4.000000, 4.000000
112.000000, 0.000000, 4197.436035, 4205.127930, 4214.358887, 4214.358887, 4206.666504, 4213.333008, 4214.871582, 4196.922852, 4213.333008, 4246.666504, 4218.974121, 4205.641113, 4153.333008, 4233.846191, 3540.000000, 8208.000000, 8366.000000, 0.000000, 0.000000, 0.000000, 24944.000000, 630.256409, 4.000000, 4.000000, 4.000000, 4.000000, 4.000000, 4.000000, 4.000000, 4.000000, 4.000000, 4.000000, 4.000000, 4.000000, 4.000000, 4.000000, 4.000000, 4.000000
113.000000, 0.000000, 4202.051270, 4206.153809, 4216.922852, 4217.436035, 4207.179199, 4200.000000, 4188.717773, 4184.615234, 4210.769043, 4241.538574, 4220.512695, 4201.538574, 4149.743652, 4229.743652, 3542.000000, 8232.000000, 8298.000000, 0.000000, 0.000000, 0.000000, 24944.000000, 637.948730, 4.000000, 4.000000, 4.000000, 4.000000, 4.000000, 4.000000, 4.000000, 4.000000, 4.000000, 4.000000, 4.000000, 4.000000, 4.000000, 4.000000, 4.000000, 4.000000
114.000000, 0.000000, 4200.512695, 4197.436035, 4207.692383, 4213.333008, 4200.512695, 4198.974121, 4192.820313, 4183.076660, 4201.538574, 4233.846191, 4214.358887, 4193.333008, 4137.948730, 4221.025391, 2659.000000, 8232.000000, 8298.000000, 0.000000, 0.000000, 0.000000, 24944.000000, 646.153809, 4.000000, 4.000000, 4.000000, 4.000000, 4.000000, 4.000000, 4.000000, 4.000000, 4.000000, 4.000000, 4.000000, 4.000000, 4.000000, 4.000000, 4.000000, 4.000000
115.000000, 0.000000, 4195.897461, 4197.948730, 4199.487305, 4211.794922, 4204.102539, 4203.076660, 4202.051270, 4187.692383, 4196.922852, 4226.666504, 4212.820313, 4195.384277, 4135.897461, 4216.410156, 3538.000000, 8261.000000, 8263.000000, 0.000000, 0.000000, 0.000000, 24944.000000, 653.846130, 4.000000, 4.000000, 4.000000, 4.000000, 4.000000, 4.000000, 4.000000, 4.000000, 4.000000, 4.000000, 4.000000, 4.000000, 4.000000, 4.000000, 4.000000, 4.000000
116.000000, 0.000000, 4199.487305, 4212.820313, 4201.025391, 4217.948730, 4218.461426, 4204.615234, 4198.974121, 4186.666504, 4198.974121, 4220.000000, 4222.051270, 4199.487305, 4141.538574, 4220.512695, 3540.000000, 8261.000000, 8263.000000, 0.000000, 0.000000, 0.000000, 24944.000000, 662.051270, 4.000000, 4.000000, 4.000000, 4.000000, 4.000000, 4.000000, 4.000000, 4.000000, 4.000000, 4.000000, 4.000000, 4.000000, 4.000000, 4.000000, 4.000000, 4.000000
117.000000, 0.000000, 4203.589844, 4211.794922, 4201.025391, 4215.384277, 4215.897461, 4204.615234, 4198.974121, 4188.717773, 4197.948730, 4216.410156, 4222.563965, 4192.307617, 4140.000000, 4218.461426, 3542.000000, 8342.000000, 8264.000000, 0.000000, 0.000000, 0.000000, 24944.000000, 669.743591, 4.000000, 4.000000, 4.000000, 4.000000, 4.000000, 4.000000, 4.000000, 4.000000, 4.000000, 4.000000, 4.000000, 4.000000, 4.000000, 4.000000, 4.000000, 4.000000
118.000000, 0.000000, 4204.615234, 4193.846191, 4195.897461, 4205.127930, 4204.102539, 4203.589844, 4203.076660, 4194.871582, 4198.461426, 4216.410156, 4213.846191, 4185.641113, 4136.410156, 4208.717773, 2659.000000, 8342.000000, 8264.000000, 0.000000, 0.000000, 0.000000, 24944.000000, 677.435852, 4.000000, 4.000000, 4.000000, 4.000000, 4.000000, 4.000000, 4.000000, 4.000000, 4.000000, 4.000000, 4.000000, 4.000000, 4.000000, 4.000000, 4.000000, 4.000000
119.000000, 0.000000, 4206.153809, 4193.333008, 4198.461426, 4203.589844, 4205.641113, 4208.205078, 4209.230469, 4198.461426, 4201.538574, 4217.436035, 4212.820313, 4186.666504, 4136.922852, 4207.692383, 3538.000000, 8373.000000, 8272.000000, 0.000000, 0.000000, 0.000000, 24944.000000, 685.640991, 4.000000, 4.000000, 4.000000, 4.000000, 4.000000, 4.000000, 4.000000, 4.000000, 4.000000, 4.000000, 4.000000, 4.000000, 4.000000, 4.000000, 4.000000, 4.000000
120.000000, 0.000000, 4205.127930, 4199.487305, 4204.615234, 4209.743652, 4208.205078, 4213.333008, 4215.384277, 4195.897461, 4201.538574, 4224.615234, 4217.436035, 4187.692383, 4137.948730, 4213.333008, 3540.000000, 8373.000000, 8272.000000, 0.000000, 0.000000, 0.000000, 24944.000000, 693.333313, 4.000000, 4.000000, 4.000000, 4.000000, 4.000000, 4.000000, 4.000000, 4.000000, 4.000000, 4.000000, 4.000000, 4.000000, 4.000000, 4.000000, 4.000000, 4.000000
121.000000, 0.000000, 4203.076660, 4194.871582, 4206.153809, 4213.333008, 4202.563965, 4206.666504, 4213.846191, 4194.358887, 4201.025391, 4230.769043, 4219.487305, 4191.281738, 4137.948730, 4215.897461, 3542.000000, 8397.000000, 8336.000000, 0.000000, 0.000000, 0.000000, 24944.000000, 701.538452, 4.000000, 4.000000, 4.000000, 4.000000, 4.000000, 4.000000, 4.000000, 4.000000, 4.000000, 4.000000, 4.000000, 4.000000, 4.000000, 4.000000, 4.000000, 4.000000
122.000000, 0.000000, 4204.615234, 4193.846191, 4207.179199, 4215.384277, 4203.076660, 4202.051270, 4209.743652, 4194.358887, 4201.538574, 4227.692383, 4219.487305, 4198.461426, 4134.358887, 4215.384277, 2659.000000, 8397.000000, 8336.000000, 0.000000, 0.000000, 0.000000, 24944.000000, 709.230774, 4.000000, 4.000000, 4.000000, 4.000000, 4.000000, 4.000000, 4.000000, 4.000000, 4.000000, 4.000000, 4.000000, 4.000000, 4.000000, 4.000000, 4.000000, 4.000000
123.000000, 0.000000, 4206.666504, 4201.025391, 4208.205078, 4217.948730, 4207.179199, 4207.179199, 4207.692383, 4191.281738, 4201.025391, 4228.717773, 4218.461426, 4203.076660, 4127.692383, 4217.436035, 3538.000000, 8393.000000, 8344.000000, 0.000000, 0.000000, 0.000000, 24944.000000, 716.923035, 4.000000, 4.000000, 4.000000, 4.000000, 4.000000, 4.000000, 4.000000, 4.000000, 4.000000, 4.000000, 4.000000, 4.000000, 4.000000, 4.000000, 4.000000, 4.000000
124.000000, 0.000000, 4201.538574, 4200.000000, 4204.615234, 4213.333008, 4201.538574, 4201.538574, 4201.538574, 4183.589844, 4196.922852, 4228.205078, 4217.436035, 4198.461426, 4126.153809, 4220.000000, 3540.000000, 8393.000000, 8344.000000, 0.000000, 0.000000, 0.000000, 24944.000000, 725.128174, 4.000000, 4.000000, 4.000000, 4.000000, 4.000000, 4.000000, 4.000000, 4.000000, 4.000000, 4.000000, 4.000000, 4.000000, 4.000000, 4.000000, 4.000000, 4.000000
125.000000, 0.000000, 4197.436035, 4194.871582, 4203.589844, 4211.281738, 4192.307617, 4189.230469, 4194.871582, 4185.641113, 4199.487305, 4221.025391, 4218.461426, 4191.794922, 4131.281738, 4223.589844, 3542.000000, 8381.000000, 8404.000000, 0.000000, 0.000000, 0.000000, 24944.000000, 732.820496, 4.000000, 4.000000, 4.000000, 4.000000, 4.000000, 4.000000, 4.000000, 4.000000, 4.000000, 4.000000, 4.000000, 4.000000, 4.000000, 4.000000, 4.000000, 4.000000
126.000000, 0.000000, 4199.487305, 4188.717773, 4204.102539, 4210.256348, 4188.717773, 4189.230469, 4193.846191, 4190.769043, 4199.487305, 4216.410156, 4215.897461, 4186.666504, 4128.205078, 4228.205078, 2659.000000, 8381.000000, 8404.000000, 0.000000, 0.000000, 0.000000, 24944.000000, 740.512817, 4.000000, 4.000000, 4.000000, 4.000000, 4.000000, 4.000000, 4.000000, 4.000000, 4.000000, 4.000000, 4.000000, 4.000000, 4.000000, 4.000000, 4.000000, 4.000000
127.000000, 0.000000, 4198.461426, 4189.230469, 4198.974121, 4203.076660, 4187.179199, 4194.358887, 4193.846191, 4183.076660, 4187.692383, 4215.384277, 4215.897461, 4187.179199, 4126.153809, 4229.230469, 56.000000, 8376.000000, 8405.000000, 0.000000, 0.000000, 0.000000, 24944.000000, 748.717957, 4.000000, 4.000000, 4.000000, 4.000000, 4.000000, 4.000000, 4.000000, 4.000000, 4.000000, 4.000000, 4.000000, 4.000000, 4.000000, 4.000000, 4.000000, 4.000000
0.000000, 0.000000, 4201.025391, 4206.666504, 4205.127930, 4206.153809, 4189.743652, 4200.000000, 4201.538574, 4181.025391, 4188.717773, 4223.589844, 4226.666504, 4197.948730, 4137.948730, 4231.794922, 3562.000000, 8376.000000, 8405.000000, 0.000000, 0.000000, 0.000000, 24944.000000, 756.410217, 4.000000, 4.000000, 4.000000, 4.000000, 4.000000, 4.000000, 4.000000, 4.000000, 4.000000, 4.000000, 4.000000, 4.000000, 4.000000, 4.000000, 4.000000, 4.000000
1.000000, 0.000000, 4203.076660, 4215.384277, 4215.384277, 4218.461426, 4194.871582, 4204.615234, 4207.692383, 4186.666504, 4203.076660, 4235.384277, 4232.307617, 4204.102539, 4142.051270, 4234.358887, 3576.000000, 8361.000000, 8392.000000, 0.000000, 0.000000, 0.000000, 24944.000000, 764.615356, 4.000000, 4.000000, 4.000000, 4.000000, 4.000000, 4.000000, 4.000000, 4.000000, 4.000000, 4.000000, 4.000000, 4.000000, 4.000000, 4.000000, 4.000000, 4.000000
2.000000, 0.000000, 4196.922852, 4207.692383, 4209.743652, 4216.410156, 4198.974121, 4207.179199, 4205.641113, 4186.666504, 4205.127930, 4237.436035, 4233.333008, 4203.076660, 4137.436035, 4231.794922, 1674.000000, 8361.000000, 8392.000000, 0.000000, 0.000000, 0.000000, 24944.000000, 772.307678, 4.000000, 4.000000, 4.000000, 4.000000, 4.000000, 4.000000, 4.000000, 4.000000, 4.000000, 4.000000, 4.000000, 4.000000, 4.000000, 4.000000, 4.000000, 4.000000
3.000000, 0.000000, 4194.871582, 4203.589844, 4201.025391, 4204.102539, 4202.051270, 4213.333008, 4208.717773, 4191.794922, 4201.538574, 4232.820313, 4242.563965, 4203.076660, 4147.179199, 4230.769043, 3583.000000, 8366.000000, 8399.000000, 0.000000, 0.000000, 0.000000, 24944.000000, 780.000000, 4.000000, 4.000000, 4.000000, 4.000000, 4.000000, 4.000000, 4.000000, 4.000000, 4.000000, 4.000000, 4.000000, 4.000000, 4.000000, 4.000000, 4.000000, 4.000000
4.000000, 0.000000, 4198.974121, 4202.051270, 4200.000000, 4198.974121, 4200.512695, 4214.871582, 4212.820313, 4199.487305, 4205.641113, 4232.307617, 4245.641113, 4199.487305, 4156.922852, 4230.769043, 3327.000000, 8366.000000, 8399.000000, 0.000000, 0.000000, 0.000000, 24944.000000, 788.205139, 4.000000, 4.000000, 4.000000, 4.000000, 4.000000, 4.000000, 4.000000, 4.000000, 4.000000, 4.000000, 4.000000, 4.000000, 4.000000, 4.000000, 4.000000, 4.000000
5.000000, 0.000000, 4203.589844, 4201.025391, 4201.538574, 4201.538574, 4197.436035, 4208.205078, 4208.717773, 4200.000000, 4211.281738, 4239.487305, 4245.127930, 4198.974121, 4161.025391, 4229.230469, 3592.000000, 8379.000000, 8393.000000, 0.000000, 0.000000, 0.000000, 24944.000000, 795.897400, 4.000000, 4.000000, 4.000000, 4.000000, 4.000000, 4.000000, 4.000000, 4.000000, 4.000000, 4.000000, 4.000000, 4.000000, 4.000000, 4.000000, 4.000000, 4.000000
6.000000, 0.000000, 4209.230469, 4201.538574, 4196.922852, 4204.102539, 4199.487305, 4202.051270, 4202.051270, 4201.538574, 4214.871582, 4243.076660, 4249.230469, 4199.487305, 4173.846191, 4229.230469, 3062.000000, 8379.000000, 8393.000000, 1.000000, 2.000000, 0.000000, 24944.000000, 803.589722, 4.000000, 4.000000, 4.000000, 4.000000, 4.000000, 4.000000, 4.000000, 4.000000, 4.000000, 4.000000, 4.000000, 4.000000, 4.000000, 4.000000, 4.000000, 4.000000
7.000000, 0.000000, 4208.717773, 4193.333008, 4187.692383, 4197.948730, 4195.897461, 4198.974121, 4202.051270, 4203.589844, 4212.820313, 4241.538574, 4248.205078, 4192.820313, 4183.589844, 4228.205078, 3596.000000, 8419.000000, 8328.000000, 0.000000, 0.000000, 0.000000, 24944.000000, 811.794861, 4.000000, 4.000000, 4.000000, 4.000000, 4.000000, 4.000000, 4.000000, 4.000000, 4.000000, 4.000000, 4.000000, 4.000000, 4.000000, 4.000000, 4.000000, 4.000000
8.000000, 0.000000, 4209.230469, 4184.102539, 4188.205078, 4197.436035, 4187.179199, 4195.384277, 4201.538574, 4194.358887, 4206.153809, 4242.563965, 4244.615234, 4190.256348, 4189.743652, 4227.692383, 3547.000000, 8419.000000, 8328.000000, 0.000000, 0.000000, 0.000000, 24944.000000, 819.487183, 4.000000, 4.000000, 4.000000, 4.000000, 4.000000, 4.000000, 4.000000, 4.000000, 4.000000, 4.000000, 4.000000, 4.000000, 4.000000, 4.000000, 4.000000, 4.000000
9.000000, 0.000000, 4211.794922, 4189.743652, 4198.974121, 4208.717773, 4191.281738, 4196.410156, 4194.358887, 4182.051270, 4202.563965, 4245.127930, 4246.666504, 4192.820313, 4206.666504, 4224.615234, 3553.000000, 8429.000000, 8292.000000, 0.000000, 0.000000, 0.000000, 24944.000000, 827.692261, 4.000000, 4.000000, 4.000000, 4.000000, 4.000000, 4.000000, 4.000000, 4.000000, 4.000000, 4.000000, 4.000000, 4.000000, 4.000000, 4.000000, 4.000000, 4.000000
10.000000, 0.000000, 4208.717773, 4197.948730, 4200.512695, 4211.281738, 4201.538574, 4198.974121, 4192.307617, 4180.512695, 4199.487305, 4243.589844, 4246.153809, 4185.127930, 4230.769043, 4217.948730, 2665.000000, 8429.000000, 8292.000000, 0.000000, 0.000000, 0.000000, 24944.000000, 835.384583, 4.000000, 4.000000, 4.000000, 4.000000, 4.000000, 4.000000, 4.000000, 4.000000, 4.000000, 4.000000, 4.000000, 4.000000, 4.000000, 4.000000, 4.000000, 4.000000
11.000000, 0.000000, 4207.179199, 4198.461426, 4197.436035, 4206.153809, 4198.974121, 4202.563965, 4198.461426, 4184.615234, 4201.025391, 4242.563965, 4243.589844, 4181.025391, 4251.794922, 4220.512695, 3673.000000, 8438.000000, 8259.000000, 0.000000, 0.000000, 0.000000, 24944.000000, 843.076904, 4.000000, 4.000000, 4.000000, 4.000000, 4.000000, 4.000000, 4.000000, 4.000000, 4.000000, 4.000000, 4.000000, 4.000000, 4.000000, 4.000000, 4.000000, 4.000000
12.000000, 0.000000, 4206.153809, 4201.538574, 4206.666504, 4210.769043, 4195.897461, 4205.127930, 4203.076660, 4187.179199, 4211.281738, 4249.743652, 4249.743652, 4193.333008, 4269.743652, 4229.743652, 3540.000000, 8438.000000, 8259.000000, 0.000000, 0.000000, 0.000000, 24944.000000, 850.769226, 4.000000, 4.000000, 4.000000, 4.000000, 4.000000, 4.000000, 4.000000, 4.000000, 4.000000, 4.000000, 4.000000, 4.000000, 4.000000, 4.000000, 4.000000, 4.000000
13.000000, 0.000000, 4206.153809, 4211.794922, 4217.436035, 4218.974121, 4202.051270, 4204.102539, 4200.512695, 4186.666504, 4216.922852, 4256.410156, 4256.410156, 4204.615234, 4281.538574, 4234.871582, 3676.000000, 8440.000000, 8204.000000, 0.000000, 0.000000, 0.000000, 24944.000000, 858.974365, 4.000000, 4.000000, 4.000000, 4.000000, 4.000000, 4.000000, 4.000000, 4.000000, 4.000000, 4.000000, 4.000000, 4.000000, 4.000000, 4.000000, 4.000000, 4.000000
14.000000, 0.000000, 4203.589844, 4216.410156, 4218.974121, 4213.333008, 4202.563965, 4200.512695, 4196.410156, 4187.179199, 4211.281738, 4254.871582, 4258.461426, 4202.051270, 4282.563965, 4241.025391, 2665.000000, 8440.000000, 8204.000000, 0.000000, 0.000000, 0.000000, 24944.000000, 866.666626, 4.000000, 4.000000, 4.000000, 4.000000, 4.000000, 4.000000, 4.000000, 4.000000, 4.000000, 4.000000, 4.000000, 4.000000, 4.000000, 4.000000, 4.000000, 4.000000
15.000000, 0.000000, 4195.384277, 4212.820313, 4216.410156, 4204.102539, 4197.948730, 4198.974121, 4191.794922, 4186.666504, 4202.051270, 4249.743652, 4260.000000, 4200.000000, 4282.051270, 4244.615234, 3673.000000, 8438.000000, 8184.000000, 0.000000, 0.000000, 0.000000, 24944.000000, 874.871765, 4.000000, 4.000000, 4.000000, 4.000000, 4.000000, 4.000000, 4.000000, 4.000000, 4.000000, 4.000000, 4.000000, 4.000000, 4.000000, 4.000000, 4.000000, 4.000000
16.000000, 0.000000, 4191.794922, 4215.897461, 4220.512695, 4206.666504, 4197.436035, 4197.436035, 4188.205078, 4186.153809, 4200.000000, 4252.820313, 4261.025391, 4208.717773, 4281.538574, 4243.076660, 0.000000, 8438.000000, 8184.000000, 0.000000, 0.000000, 0.000000, 24944.000000, 882.564087, 4.000000, 4.000000, 4.000000, 4.000000, 4.000000, 4.000000, 4.000000, 4.000000, 4.000000, 4.000000, 4.000000, 4.000000, 4.000000, 4.000000, 4.000000, 4.000000
17.000000, 0.000000, 4192.820313, 4217.948730, 4230.769043, 4216.410156, 4201.538574, 4199.487305, 4194.358887, 4191.281738, 4207.692383, 4262.051270, 4266.153809, 4222.563965, 4275.897461, 4247.179199, 0.000000, 8424.000000, 8154.000000, 0.000000, 0.000000, 0.000000, 24944.000000, 890.256409, 4.000000, 4.000000, 4.000000, 4.000000, 4.000000, 4.000000, 4.000000, 4.000000, 4.000000, 4.000000, 4.000000, 4.000000, 4.000000, 4.000000, 4.000000, 4.000000
18.000000, 0.000000, 4190.769043, 4206.153809, 4229.230469, 4217.948730, 4204.102539, 4204.102539, 4203.589844, 4200.512695, 4212.820313, 4259.487305, 4263.076660, 4219.487305, 4261.538574, 4248.205078, 0.000000, 8424.000000, 8154.000000, 0.000000, 0.000000, 0.000000, 24944.000000, 898.461487, 4.000000, 4.000000, 4.000000, 4.000000, 4.000000, 4.000000, 4.000000, 4.000000, 4.000000, 4.000000, 4.000000, 4.000000, 4.000000, 4.000000, 4.000000, 4.000000
19.000000, 0.000000, 4188.205078, 4196.410156, 4218.974121, 4210.256348, 4201.538574, 4206.666504, 4203.076660, 4203.589844, 4213.333008, 4253.333008, 4248.205078, 4205.641113, 4247.692383, 4240.000000, 0.000000, 8424.000000, 8135.000000, 0.000000, 0.000000, 0.000000, 24944.000000, 906.153809, 4.000000, 4.000000, 4.000000, 4.000000, 4.000000, 4.000000, 4.000000, 4.000000, 4.000000, 4.000000, 4.000000, 4.000000, 4.000000, 4.000000, 4.000000, 4.000000
20.000000, 0.000000, 4191.794922, 4196.922852, 4220.000000, 4210.256348, 4201.025391, 4211.281738, 4200.000000, 4204.615234, 4222.051270, 4262.563965, 4247.179199, 4206.153809, 4245.641113, 4243.076660, 0.000000, 8424.000000, 8135.000000, 0.000000, 0.000000, 0.000000, 24944.000000, 913.846130, 4.000000, 4.000000, 4.000000, 4.000000, 4.000000, 4.000000, 4.000000, 4.000000, 4.000000, 4.000000, 4.000000, 4.000000, 4.000000, 4.000000, 4.000000, 4.000000
21.000000, 0.000000, 4202.051270, 4200.000000, 4232.307617, 4216.410156, 4210.256348, 4215.897461, 4206.153809, 4206.153809, 4233.333008, 4277.948730, 4264.615234, 4217.948730, 4249.743652, 4259.487305, 0.000000, 8411.000000, 8103.000000, 0.000000, 0.000000, 0.000000, 24944.000000, 922.051270, 4.000000, 4.000000, 4.000000, 4.000000, 4.000000, 4.000000, 4.000000, 4.000000, 4.000000, 4.000000, 4.000000, 4.000000, 4.000000, 4.000000, 4.000000, 4.000000
22.000000, 0.000000, 4205.127930, 4208.717773, 4232.307617, 4218.461426, 4215.897461, 4215.897461, 4212.820313, 4204.615234, 4231.794922, 4282.051270, 4270.769043, 4220.512695, 4248.717773, 4266.666504, 0.000000, 8411.000000, 8103.000000, 0.000000, 0.000000, 0.000000, 24944.000000, 929.743591, 4.000000, 4.000000, 4.000000, 4.000000, 4.000000, 4.000000, 4.000000, 4.000000, 4.000000, 4.000000, 4.000000, 4.000000, 4.000000, 4.000000, 4.000000, 4.000000
23.000000, 0.000000, 4199.487305, 4212.307617, 4221.025391, 4217.948730, 4208.205078, 4213.333008, 4209.743652, 4206.153809, 4223.589844, 4276.922852, 4265.127930, 4217.948730, 4240.000000, 4260.512695, 0.000000, 8364.000000, 8063.000000, 0.000000, 0.000000, 0.000000, 24944.000000, 937.948669, 4.000000, 4.000000, 4.000000, 4.000000, 4.000000, 4.000000, 4.000000, 4.000000, 4.000000, 4.000000, 4.000000, 4.000000, 4.000000, 4.000000, 4.000000, 4.000000
24.000000, 0.000000, 4192.820313, 4203.589844, 4215.897461, 4211.794922, 4201.025391, 4208.717773, 4203.589844, 4206.153809, 4222.563965, 4271.281738, 4265.127930, 4215.897461, 4229.230469, 4250.769043, 0.000000, 8364.000000, 8063.000000, 0.000000, 0.000000, 0.000000, 24944.000000, 945.640991, 4.000000, 4.000000, 4.000000, 4.000000, 4.000000, 4.000000, 4.000000, 4.000000, 4.000000, 4.000000, 4.000000, 4.000000, 4.000000, 4.000000, 4.000000, 4.000000
25.000000, 0.000000, 4191.794922, 4203.589844, 4216.410156, 4203.589844, 4204.102539, 4202.051270, 4197.436035, 4193.333008, 4217.436035, 4262.563965, 4263.589844, 4207.179199, 4220.000000, 4245.127930, 0.000000, 8331.000000, 8036.000000, 0.000000, 0.000000, 0.000000, 24944.000000, 953.333313, 4.000000, 4.000000, 4.000000, 4.000000, 4.000000, 4.000000, 4.000000, 4.000000, 4.000000, 4.000000, 4.000000, 4.000000, 4.000000, 4.000000, 4.000000, 4.000000
26.000000, 0.000000, 4193.333008, 4212.820313, 4212.820313, 4204.615234, 4209.230469, 4202.051270, 4194.358887, 4186.153809, 4204.102539, 4257.436035, 4257.948730, 4197.948730, 4213.846191, 4244.102539, 0.000000, 8331.000000, 8036.000000, 0.000000, 0.000000, 0.000000, 24944.000000, 961.538452, 4.000000, 4.000000, 4.000000, 4.000000, 4.000000, 4.000000, 4.000000, 4.000000, 4.000000, 4.000000, 4.000000, 4.000000, 4.000000, 4.000000, 4.000000, 4.000000
27.000000, 0.000000, 4191.281738, 4216.410156, 4213.333008, 4213.846191, 4212.820313, 4214.358887, 4198.461426, 4197.948730, 4204.102539, 4263.589844, 4260.512695, 4200.000000, 4213.846191, 4245.127930, 0.000000, 8258.000000, 7971.000000, 0.000000, 0.000000, 0.000000, 24944.000000, 969.230774, 4.000000, 4.000000, 4.000000, 4.000000, 4.000000, 4.000000, 4.000000, 4.000000, 4.000000, 4.000000, 4.000000, 4.000000, 4.000000, 4.000000, 4.000000, 4.000000
28.000000, 0.000000, 4190.769043, 4216.922852, 4215.897461, 4211.794922, 4211.281738, 4217.948730, 4202.051270, 4203.076660, 4214.871582, 4263.589844, 4263.076660, 4203.076660, 4210.769043, 4246.666504, 0.000000, 8258.000000, 7971.000000, 0.000000, 0.000000, 0.000000, 24944.000000, 976.923035, 4.000000, 4.000000, 4.000000, 4.000000, 4.000000, 4.000000, 4.000000, 4.000000, 4.000000, 4.000000, 4.000000, 4.000000, 4.000000, 4.000000, 4.000000, 4.000000
29.000000, 0.000000, 4188.717773, 4214.358887, 4207.692383, 4200.512695, 4204.615234, 4205.127930, 4196.922852, 4190.256348, 4210.769043, 4254.358887, 4262.051270, 4202.051270, 4203.589844, 4247.692383, 0.000000, 8230.000000, 7942.000000, 0.000000, 0.000000, 0.000000, 24944.000000, 985.128174, 4.000000, 4.000000, 4.000000, 4.000000, 4.000000, 4.000000, 4.000000, 4.000000, 4.000000, 4.000000, 4.000000, 4.000000, 4.000000, 4.000000, 4.000000, 4.000000
30.000000, 0.000000, 4187.692383, 4211.281738, 4198.974121, 4198.974121, 4201.538574, 4197.948730, 4187.692383, 4184.615234, 4200.512695, 4249.743652, 4262.051270, 4201.025391, 4202.051270, 4248.205078, 0.000000, 8230.000000, 7942.000000, 0.000000, 0.000000, 0.000000, 24944.000000, 992.820496, 4.000000, 4.000000, 4.000000, 4.000000, 4.000000, 4.000000, 4.000000, 4.000000, 4.000000, 4.000000, 4.000000, 4.000000, 4.000000, 4.000000, 4.000000, 4.000000
31.000000, 0.000000, 4192.820313, 4213.846191, 4202.563965, 4202.563965, 4203.589844, 4200.000000, 4183.589844, 4189.230469, 4202.051270, 4249.230469, 4262.563965, 4202.051270, 4207.692383, 4252.820313, 0.000000, 8202.000000, 7894.000000, 0.000000, 0.000000, 0.000000, 24945.000000, 1.025641, 4.000000, 4.000000, 4.000000, 4.000000, 4.000000, 4.000000, 4.000000, 4.000000, 4.000000, 4.000000, 4.000000, 4.000000, 4.000000, 4.000000, 4.000000, 4.000000
32.000000, 0.000000, 4194.871582, 4216.922852, 4210.256348, 4203.589844, 4205.127930, 4202.051270, 4189.230469, 4187.692383, 4203.589844, 4250.256348, 4262.563965, 4206.153809, 4213.846191, 4258.974121, 0.000000, 8202.000000, 7894.000000, 0.000000, 0.000000, 0.000000, 24945.000000, 8.717949, 4.000000, 4.000000, 4.000000, 4.000000, 4.000000, 4.000000, 4.000000, 4.000000, 4.000000, 4.000000, 4.000000, 4.000000, 4.000000, 4.000000, 4.000000, 4.000000
33.000000, 0.000000, 4194.871582, 4214.358887, 4212.820313, 4203.589844, 4203.076660, 4208.205078, 4197.436035, 4187.179199, 4205.127930, 4255.897461, 4263.076660, 4208.717773, 4214.871582, 4260.512695, 0.000000, 8189.000000, 7878.000000, 0.000000, 0.000000, 0.000000, 24945.000000, 16.410255, 4.000000, 4.000000, 4.000000, 4.000000, 4.000000, 4.000000, 4.000000, 4.000000, 4.000000, 4.000000, 4.000000, 4.000000, 4.000000, 4.000000, 4.000000, 4.000000
34.000000, 0.000000, 4195.897461, 4212.820313, 4212.820313, 4200.512695, 4200.512695, 4215.384277, 4201.025391, 4198.461426, 4214.358887, 4258.974121, 4263.589844, 4207.692383, 4215.384277, 4260.512695, 0.000000, 8189.000000, 7878.000000, 0.000000, 0.000000, 0.000000, 24945.000000, 24.615383, 4.000000, 4.000000, 4.000000, 4.000000, 4.000000, 4.000000, 4.000000, 4.000000, 4.000000, 4.000000, 4.000000, 4.000000, 4.000000, 4.000000, 4.000000, 4.000000
35.000000, 0.000000, 4198.461426, 4213.333008, 4213.333008, 4200.512695, 4201.025391, 4216.410156, 4204.102539, 4205.127930, 4215.897461, 4258.461426, 4263.076660, 4211.794922, 4224.615234, 4269.230469, 0.000000, 8174.000000, 7861.000000, 0.000000, 0.000000, 0.000000, 24945.000000, 32.307690, 4.000000, 4.000000, 4.000000, 4.000000, 4.000000, 4.000000, 4.000000, 4.000000, 4.000000, 4.000000, 4.000000, 4.000000, 4.000000, 4.000000, 4.000000, 4.000000
36.000000, 0.000000, 4201.025391, 4218.461426, 4217.948730, 4207.692383, 4202.563965, 4214.871582, 4203.589844, 4195.384277, 4206.666504, 4261.538574, 4262.563965, 4214.871582, 4234.871582, 4282.051270, 0.000000, 8174.000000, 7861.000000, 0.000000, 0.000000, 0.000000, 24945.000000, 40.000000, 4.000000, 4.000000, 4.000000, 4.000000, 4.000000, 4.000000, 4.000000, 4.000000, 4.000000, 4.000000, 4.000000, 4.000000, 4.000000, 4.000000, 4.000000, 4.000000
37.000000, 0.000000, 4201.538574, 4237.948730, 4221.025391, 4214.358887, 4203.076660, 4211.794922, 4197.436035, 4191.281738, 4202.051270, 4262.563965, 4262.563965, 4207.179199, 4237.436035, 4290.769043, 0.000000, 8154.000000, 7823.000000, 0.000000, 0.000000, 0.000000, 24945.000000, 48.205128, 4.000000, 4.000000, 4.000000, 4.000000, 4.000000, 4.000000, 4.000000, 4.000000, 4.000000, 4.000000, 4.000000, 4.000000, 4.000000, 4.000000, 4.000000, 4.000000
38.000000, 0.000000, 4202.563965, 4262.563965, 4218.974121, 4214.871582, 4203.589844, 4207.179199, 4196.922852, 4198.974121, 4203.589844, 4258.974121, 4261.538574, 4203.076660, 4240.512695, 4301.538574, 0.000000, 8154.000000, 7823.000000, 0.000000, 0.000000, 0.000000, 24945.000000, 55.897434, 4.000000, 4.000000, 4.000000, 4.000000, 4.000000, 4.000000, 4.000000, 4.000000, 4.000000, 4.000000, 4.000000, 4.000000, 4.000000, 4.000000, 4.000000, 4.000000
39.000000, 0.000000, 4206.666504, 4279.487305, 4219.487305, 4218.461426, 4205.127930, 4209.230469, 4199.487305, 4203.076660, 4210.256348, 4261.538574, 4262.051270, 4209.743652, 4251.794922, 4319.487305, 0.000000, 8149.000000, 7823.000000, 0.000000, 0.000000, 0.000000, 24945.000000, 64.102562, 4.000000, 4.000000, 4.000000, 4.000000, 4.000000, 4.000000, 4.000000, 4.000000, 4.000000, 4.000000, 4.000000, 4.000000, 4.000000, 4.000000, 4.000000, 4.000000
40.000000, 0.000000, 4207.692383, 4286.666504, 4220.512695, 4222.563965, 4203.589844, 4213.333008, 4200.000000, 4202.051270, 4214.358887, 4259.487305, 4262.563965, 4208.717773, 4263.076660, 4332.820313, 0.000000, 8149.000000, 7823.000000, 0.000000, 0.000000, 0.000000, 24945.000000, 71.794868, 4.000000, 4.000000, 4.000000, 4.000000, 4.000000, 4.000000, 4.000000, 4.000000, 4.000000, 4.000000, 4.000000, 4.000000, 4.000000, 4.000000, 4.000000, 4.000000
41.000000, 0.000000, 4208.205078, 4285.641113, 4216.922852, 4221.538574, 4202.563965, 4213.333008, 4202.563965, 4201.025391, 4207.692383, 4249.230469, 4261.538574, 4200.000000, 4265.641113, 4335.384277, 0.000000, 8145.000000, 7866.000000, 0.000000, 0.000000, 0.000000, 24945.000000, 79.487175, 4.000000, 4.000000, 4.000000, 4.000000, 4.000000, 4.000000, 4.000000, 4.000000, 4.000000, 4.000000, 4.000000, 4.000000, 4.000000, 4.000000, 4.000000, 4.000000
42.000000, 0.000000, 4209.743652, 4283.076660, 4213.846191, 4217.948730, 4203.589844, 4214.358887, 4203.589844, 4199.487305, 4203.076660, 4248.717773, 4261.025391, 4205.127930, 4264.615234, 4340.512695, 0.000000, 8145.000000, 7866.000000, 0.000000, 0.000000, 0.000000, 24945.000000, 87.179482, 4.000000, 4.000000, 4.000000, 4.000000, 4.000000, 4.000000, 4.000000, 4.000000, 4.000000, 4.000000, 4.000000, 4.000000, 4.000000, 4.000000, 4.000000, 4.000000
43.000000, 0.000000, 4207.692383, 4281.538574, 4216.922852, 4217.948730, 4203.589844, 4217.436035, 4197.948730, 4195.384277, 4205.641113, 4252.307617, 4255.384277, 4213.846191, 4267.179199, 4344.102539, 0.000000, 8151.000000, 7868.000000, 0.000000, 0.000000, 0.000000, 24945.000000, 95.384613, 4.000000, 4.000000, 4.000000, 4.000000, 4.000000, 4.000000, 4.000000, 4.000000, 4.000000, 4.000000, 4.000000, 4.000000, 4.000000, 4.000000, 4.000000, 4.000000
44.000000, 0.000000, 4198.461426, 4277.436035, 4217.436035, 4220.000000, 4206.153809, 4217.948730, 4202.051270, 4193.846191, 4202.051270, 4244.615234, 4246.666504, 4206.666504, 4263.589844, 4335.897461, 0.000000, 8151.000000, 7868.000000, 0.000000, 0.000000, 0.000000, 24945.000000, 103.076920, 4.000000, 4.000000, 4.000000, 4.000000, 4.000000, 4.000000, 4.000000, 4.000000, 4.000000, 4.000000, 4.000000, 4.000000, 4.000000, 4.000000, 4.000000, 4.000000
45.000000, 0.000000, 4202.051270, 4271.794922, 4216.410156, 4221.538574, 4214.871582, 4217.436035, 4216.410156, 4200.000000, 4200.000000, 4242.051270, 4240.000000, 4197.948730, 4253.846191, 4325.127930, 0.000000, 8160.000000, 7857.000000, 0.000000, 0.000000, 0.000000, 24945.000000, 110.769226, 4.000000, 4.000000, 4.000000, 4.000000, 4.000000, 4.000000, 4.000000, 4.000000, 4.000000, 4.000000, 4.000000, 4.000000, 4.000000, 4.000000, 4.000000, 4.000000
46.000000, 0.000000, 4220.000000, 4269.230469, 4219.487305, 4222.051270, 4215.897461, 4217.436035, 4216.922852, 4202.563965, 4201.538574, 4245.127930, 4236.410156, 4201.025391, 4250.769043, 4316.410156, 0.000000, 8160.000000, 7857.000000, 0.000000, 0.000000, 0.000000, 24945.000000, 118.974358, 4.000000, 4.000000, 4.000000, 4.000000, 4.000000, 4.000000, 4.000000, 4.000000, 4.000000, 4.000000, 4.000000, 4.000000, 4.000000, 4.000000, 4.000000, 4.000000
47.000000, 0.000000, 4182.051270, 4264.102539, 4214.871582, 4215.897461, 4205.641113, 4213.846191, 4205.641113, 4191.794922, 4191.281738, 4236.410156, 4229.743652, 4199.487305, 4244.102539, 4295.384277, 0.000000, 8186.000000, 7818.000000, 0.000000, 0.000000, 0.000000, 24945.000000, 126.666664, 4.000000, 4.000000, 4.000000, 4.000000, 4.000000, 4.000000, 4.000000, 4.000000, 4.000000, 4.000000, 4.000000, 4.000000, 4.000000, 4.000000, 4.000000, 4.000000
48.000000, 0.000000, 4209.743652, 4250.769043, 4207.692383, 4206.666504, 4201.025391, 4206.666504, 4209.230469, 4186.153809, 4185.641113, 4228.717773, 4221.538574, 4192.307617, 4236.922852, 4277.436035, 0.000000, 8186.000000, 7818.000000, 0.000000, 0.000000, 0.000000, 24945.000000, 134.358978, 4.000000, 4.000000, 4.000000, 4.000000, 4.000000, 4.000000, 4.000000, 4.000000, 4.000000, 4.000000, 4.000000, 4.000000, 4.000000, 4.000000, 4.000000, 4.000000
