title:winkRight5, recorded:21.05.18 17.20.51, timestamp started:2018-05-12T20:28:52.032863+02:00            , sampling:128, subject:Noé, labels:COUNTER INTERPOLATED AF3 F7 F3 FC5 T7 P7 O1 O2 P8 T8 FC6 F4 F8 AF4 RAW_CQ GYROX GYROY MARKER MARKER_HARDWARE SYNC TIME_STAMP_s TIME_STAMP_ms CQ_AF3 CQ_F7 CQ_F3 CQ_FC5 CQ_T7 CQ_P7 CQ_O1 CQ_O2 CQ_P8 CQ_T8 CQ_FC6 CQ_F4 CQ_F8 CQ_AF4 CQ_CMS CQ_DRL, chan:40, samples:2246, units:emotiv
12.000000, 0.000000, 4165.127930, 4346.666504, 4188.205078, 4186.666504, 4187.179199, 4203.076660, 4230.769043, 4233.333008, 4201.025391, 4220.512695, 4216.410156, 4211.281738, 4126.666504, 4154.358887, 3526.000000, 8211.000000, 8121.000000, 0.000000, 0.000000, 0.000000, -20112.000000, 391.794861, 4.000000, 4.000000, 4.000000, 4.000000, 4.000000, 4.000000, 4.000000, 4.000000, 0.000000, 4.000000, 4.000000, 4.000000, 4.000000, 4.000000, 4.000000, 4.000000
13.000000, 0.000000, 4169.743652, 4352.820313, 4191.281738, 4189.230469, 4196.922852, 4206.153809, 4230.769043, 4230.256348, 4202.563965, 4220.000000, 4223.076660, 4218.461426, 4133.846191, 4157.436035, 3464.000000, 8240.000000, 8110.000000, 0.000000, 0.000000, 0.000000, -20112.000000, 400.000000, 4.000000, 4.000000, 4.000000, 4.000000, 4.000000, 4.000000, 4.000000, 4.000000, 0.000000, 4.000000, 4.000000, 4.000000, 4.000000, 4.000000, 4.000000, 4.000000
14.000000, 0.000000, 4171.794922, 4357.435547, 4192.820313, 4192.307617, 4205.127930, 4207.692383, 4232.307617, 4222.051270, 4202.563965, 4216.922852, 4214.358887, 4218.461426, 4133.846191, 4157.436035, 3600.000000, 8240.000000, 8110.000000, 0.000000, 0.000000, 0.000000, -20112.000000, 407.692291, 4.000000, 4.000000, 4.000000, 4.000000, 4.000000, 4.000000, 4.000000, 4.000000, 0.000000, 4.000000, 4.000000, 4.000000, 4.000000, 4.000000, 4.000000, 4.000000
15.000000, 0.000000, 4166.666504, 4349.743652, 4189.743652, 4186.666504, 4194.871582, 4203.076660, 4230.256348, 4213.846191, 4200.512695, 4203.589844, 4196.922852, 4203.589844, 4120.512695, 4147.692383, 3563.000000, 8247.000000, 8115.000000, 0.000000, 0.000000, 0.000000, -20112.000000, 415.384613, 4.000000, 4.000000, 4.000000, 4.000000, 4.000000, 4.000000, 4.000000, 4.000000, 0.000000, 4.000000, 4.000000, 4.000000, 4.000000, 4.000000, 4.000000, 4.000000
16.000000, 0.000000, 4168.717773, 4346.666504, 4188.205078, 4185.641113, 4180.512695, 4200.512695, 4233.333008, 4216.410156, 4200.000000, 4194.871582, 4196.410156, 4200.512695, 4119.487305, 4145.641113, 0.000000, 8247.000000, 8115.000000, 0.000000, 0.000000, 0.000000, -20112.000000, 423.589722, 4.000000, 4.000000, 4.000000, 4.000000, 4.000000, 4.000000, 4.000000, 4.000000, 0.000000, 4.000000, 4.000000, 4.000000, 4.000000, 4.000000, 4.000000, 4.000000
17.000000, 0.000000, 4168.717773, 4350.256348, 4186.666504, 4187.179199, 4181.538574, 4201.025391, 4235.897461, 4213.333008, 4201.538574, 4198.974121, 4201.025391, 4202.563965, 4125.127930, 4150.769043, 0.000000, 8265.000000, 8123.000000, 0.000000, 0.000000, 0.000000, -20112.000000, 431.282043, 4.000000, 4.000000, 4.000000, 4.000000, 4.000000, 4.000000, 4.000000, 4.000000, 0.000000, 4.000000, 4.000000, 4.000000, 4.000000, 4.000000, 4.000000, 4.000000
18.000000, 0.000000, 4167.692383, 4355.384277, 4187.179199, 4185.127930, 4188.205078, 4205.641113, 4231.794922, 4212.820313, 4202.051270, 4211.794922, 4202.563965, 4205.127930, 4128.205078, 4154.358887, 0.000000, 8265.000000, 8123.000000, 0.000000, 0.000000, 0.000000, -20112.000000, 438.974335, 4.000000, 4.000000, 4.000000, 4.000000, 4.000000, 4.000000, 4.000000, 4.000000, 0.000000, 4.000000, 4.000000, 4.000000, 4.000000, 4.000000, 4.000000, 4.000000
19.000000, 0.000000, 4176.922852, 4364.102539, 4194.871582, 4192.307617, 4189.230469, 4206.666504, 4228.717773, 4219.487305, 4202.051270, 4224.102539, 4209.743652, 4210.256348, 4136.410156, 4157.948730, 0.000000, 8272.000000, 8125.000000, 0.000000, 0.000000, 0.000000, -20112.000000, 447.179474, 4.000000, 4.000000, 4.000000, 4.000000, 4.000000, 4.000000, 4.000000, 4.000000, 0.000000, 4.000000, 4.000000, 4.000000, 4.000000, 4.000000, 4.000000, 4.000000
20.000000, 0.000000, 4186.153809, 4372.820313, 4202.051270, 4197.948730, 4188.205078, 4202.563965, 4230.256348, 4210.769043, 4202.563965, 4224.102539, 4208.717773, 4209.743652, 4140.512695, 4160.000000, 0.000000, 8272.000000, 8125.000000, 0.000000, 0.000000, 0.000000, -20112.000000, 454.871796, 4.000000, 4.000000, 4.000000, 4.000000, 4.000000, 4.000000, 4.000000, 4.000000, 0.000000, 4.000000, 4.000000, 4.000000, 4.000000, 4.000000, 4.000000, 4.000000
21.000000, 0.000000, 4192.307617, 4381.538574, 4202.051270, 4198.461426, 4187.692383, 4202.051270, 4230.256348, 4194.871582, 4201.538574, 4217.948730, 4203.076660, 4208.205078, 4136.922852, 4163.589844, 0.000000, 8276.000000, 8132.000000, 0.000000, 0.000000, 0.000000, -20112.000000, 463.076904, 4.000000, 4.000000, 4.000000, 4.000000, 4.000000, 4.000000, 4.000000, 4.000000, 0.000000, 4.000000, 4.000000, 4.000000, 4.000000, 4.000000, 4.000000, 4.000000
22.000000, 0.000000, 4196.922852, 4387.692383, 4200.000000, 4200.000000, 4188.205078, 4197.948730, 4221.538574, 4198.974121, 4201.025391, 4216.410156, 4208.717773, 4213.333008, 4137.436035, 4168.717773, 0.000000, 8276.000000, 8132.000000, 0.000000, 0.000000, 0.000000, -20112.000000, 470.769226, 4.000000, 4.000000, 4.000000, 4.000000, 4.000000, 4.000000, 4.000000, 4.000000, 0.000000, 4.000000, 4.000000, 4.000000, 4.000000, 4.000000, 4.000000, 4.000000
23.000000, 0.000000, 4197.948730, 4389.230469, 4198.974121, 4200.512695, 4190.256348, 4190.769043, 4214.358887, 4209.230469, 4201.538574, 4216.410156, 4209.230469, 4215.897461, 4137.436035, 4171.794922, 0.000000, 8275.000000, 8143.000000, 0.000000, 0.000000, 0.000000, -20112.000000, 478.974335, 4.000000, 4.000000, 4.000000, 4.000000, 4.000000, 4.000000, 4.000000, 4.000000, 0.000000, 4.000000, 4.000000, 4.000000, 4.000000, 4.000000, 4.000000, 4.000000
24.000000, 0.000000, 4198.974121, 4392.820313, 4198.461426, 4201.025391, 4189.743652, 4196.410156, 4217.948730, 4208.205078, 4201.025391, 4218.461426, 4206.666504, 4213.846191, 4137.436035, 4172.307617, 0.000000, 8275.000000, 8143.000000, 0.000000, 0.000000, 0.000000, -20112.000000, 486.666656, 4.000000, 4.000000, 4.000000, 4.000000, 4.000000, 4.000000, 4.000000, 4.000000, 0.000000, 4.000000, 4.000000, 4.000000, 4.000000, 4.000000, 4.000000, 4.000000
25.000000, 0.000000, 4203.076660, 4395.897461, 4198.974121, 4203.589844, 4187.179199, 4199.487305, 4217.948730, 4202.051270, 4201.025391, 4220.512695, 4211.281738, 4215.897461, 4142.051270, 4175.897461, 0.000000, 8268.000000, 8151.000000, 0.000000, 0.000000, 0.000000, -20112.000000, 494.871796, 4.000000, 4.000000, 4.000000, 4.000000, 4.000000, 4.000000, 4.000000, 4.000000, 0.000000, 4.000000, 4.000000, 4.000000, 4.000000, 4.000000, 4.000000, 4.000000
26.000000, 0.000000, 4202.051270, 4389.230469, 4198.974121, 4203.589844, 4184.102539, 4187.179199, 4212.820313, 4200.000000, 4201.025391, 4216.410156, 4208.205078, 4213.333008, 4139.487305, 4172.307617, 0.000000, 8268.000000, 8151.000000, 0.000000, 0.000000, 0.000000, -20112.000000, 502.564087, 4.000000, 4.000000, 4.000000, 4.000000, 4.000000, 4.000000, 4.000000, 4.000000, 0.000000, 4.000000, 4.000000, 4.000000, 4.000000, 4.000000, 4.000000, 4.000000
27.000000, 0.000000, 4195.897461, 4392.307617, 4196.922852, 4201.025391, 4184.615234, 4187.179199, 4213.846191, 4209.743652, 4201.025391, 4221.538574, 4204.615234, 4209.743652, 4136.410156, 4166.153809, 0.000000, 8255.000000, 8164.000000, 0.000000, 0.000000, 0.000000, -20112.000000, 510.256409, 4.000000, 4.000000, 4.000000, 4.000000, 4.000000, 4.000000, 4.000000, 4.000000, 0.000000, 4.000000, 4.000000, 4.000000, 4.000000, 4.000000, 4.000000, 4.000000
28.000000, 0.000000, 4191.794922, 4400.512695, 4191.281738, 4201.025391, 4191.281738, 4201.538574, 4209.743652, 4212.307617, 4201.025391, 4232.820313, 4214.871582, 4212.307617, 4148.717773, 4168.717773, 0.000000, 8255.000000, 8164.000000, 0.000000, 0.000000, 0.000000, -20112.000000, 518.461548, 4.000000, 4.000000, 4.000000, 4.000000, 4.000000, 4.000000, 4.000000, 4.000000, 0.000000, 4.000000, 4.000000, 4.000000, 4.000000, 4.000000, 4.000000, 4.000000
29.000000, 0.000000, 4186.666504, 4391.794922, 4182.563965, 4198.974121, 4196.922852, 4199.487305, 4200.512695, 4201.538574, 4201.538574, 4234.358887, 4218.974121, 4211.794922, 4157.436035, 4168.717773, 0.000000, 8243.000000, 8168.000000, 0.000000, 0.000000, 0.000000, -20112.000000, 526.666626, 4.000000, 4.000000, 4.000000, 4.000000, 4.000000, 4.000000, 4.000000, 4.000000, 0.000000, 4.000000, 4.000000, 4.000000, 4.000000, 4.000000, 4.000000, 4.000000
30.000000, 0.000000, 4185.127930, 4390.256348, 4175.897461, 4198.974121, 4201.025391, 4183.589844, 4200.000000, 4194.358887, 4201.025391, 4230.769043, 4214.358887, 4207.692383, 4155.384277, 4167.692383, 0.000000, 8243.000000, 8168.000000, 0.000000, 0.000000, 0.000000, -20112.000000, 534.358948, 4.000000, 4.000000, 4.000000, 4.000000, 4.000000, 4.000000, 4.000000, 4.000000, 0.000000, 4.000000, 4.000000, 4.000000, 4.000000, 4.000000, 4.000000, 4.000000
31.000000, 0.000000, 4186.153809, 4397.948730, 4172.307617, 4201.538574, 4202.563965, 4178.974121, 4199.487305, 4196.922852, 4201.025391, 4226.666504, 4215.897461, 4208.205078, 4154.358887, 4168.717773, 0.000000, 8231.000000, 8172.000000, 0.000000, 0.000000, 0.000000, -20112.000000, 542.051270, 4.000000, 4.000000, 4.000000, 4.000000, 4.000000, 4.000000, 4.000000, 4.000000, 0.000000, 4.000000, 4.000000, 4.000000, 4.000000, 4.000000, 4.000000, 4.000000
32.000000, 0.000000, 4184.615234, 4389.230469, 4175.384277, 4199.487305, 4200.512695, 4197.436035, 4201.538574, 4208.717773, 4202.563965, 4224.615234, 4218.461426, 4212.820313, 4150.256348, 4167.179199, 0.000000, 8231.000000, 8172.000000, 0.000000, 0.000000, 0.000000, -20112.000000, 550.256409, 4.000000, 4.000000, 4.000000, 4.000000, 4.000000, 4.000000, 4.000000, 4.000000, 0.000000, 4.000000, 4.000000, 4.000000, 4.000000, 4.000000, 4.000000, 4.000000
33.000000, 0.000000, 4186.666504, 4378.974121, 4194.358887, 4200.000000, 4203.589844, 4225.641113, 4222.051270, 4227.692383, 4204.102539, 4228.717773, 4218.461426, 4218.461426, 4146.153809, 4168.205078, 0.000000, 8233.000000, 8180.000000, 0.000000, 0.000000, 0.000000, -20112.000000, 557.948730, 4.000000, 4.000000, 4.000000, 4.000000, 4.000000, 4.000000, 4.000000, 4.000000, 0.000000, 4.000000, 4.000000, 4.000000, 4.000000, 4.000000, 4.000000, 4.000000
34.000000, 0.000000, 4193.333008, 4376.410156, 4207.692383, 4202.563965, 4204.102539, 4232.307617, 4241.025391, 4251.281738, 4202.563965, 4235.897461, 4221.538574, 4225.641113, 4150.256348, 4173.333008, 0.000000, 8233.000000, 8180.000000, 0.000000, 0.000000, 0.000000, -20112.000000, 565.640991, 4.000000, 4.000000, 4.000000, 4.000000, 4.000000, 4.000000, 4.000000, 4.000000, 0.000000, 4.000000, 4.000000, 4.000000, 4.000000, 4.000000, 4.000000, 4.000000
35.000000, 0.000000, 4197.948730, 4375.897461, 4205.127930, 4202.563965, 4190.256348, 4215.897461, 4234.871582, 4263.589844, 4201.538574, 4238.461426, 4230.256348, 4231.794922, 4154.871582, 4174.871582, 0.000000, 8230.000000, 8176.000000, 0.000000, 0.000000, 0.000000, -20112.000000, 573.333313, 4.000000, 4.000000, 4.000000, 4.000000, 4.000000, 4.000000, 4.000000, 4.000000, 0.000000, 4.000000, 4.000000, 4.000000, 4.000000, 4.000000, 4.000000, 4.000000
36.000000, 0.000000, 4199.487305, 4376.922852, 4202.051270, 4202.051270, 4186.153809, 4198.461426, 4219.487305, 4246.666504, 4201.538574, 4235.384277, 4235.897461, 4233.333008, 4155.897461, 4172.820313, 0.000000, 8230.000000, 8176.000000, 0.000000, 0.000000, 0.000000, -20112.000000, 581.538452, 4.000000, 4.000000, 4.000000, 4.000000, 4.000000, 4.000000, 4.000000, 4.000000, 0.000000, 4.000000, 4.000000, 4.000000, 4.000000, 4.000000, 4.000000, 4.000000
37.000000, 0.000000, 4198.461426, 4378.461426, 4194.358887, 4204.102539, 4198.974121, 4188.717773, 4202.563965, 4213.333008, 4201.538574, 4229.743652, 4231.281738, 4231.794922, 4164.615234, 4173.333008, 0.000000, 8227.000000, 8173.000000, 0.000000, 0.000000, 0.000000, -20112.000000, 589.230774, 4.000000, 4.000000, 4.000000, 4.000000, 4.000000, 4.000000, 4.000000, 4.000000, 0.000000, 4.000000, 4.000000, 4.000000, 4.000000, 4.000000, 4.000000, 4.000000
38.000000, 0.000000, 4197.948730, 4378.974121, 4188.717773, 4204.102539, 4202.051270, 4183.076660, 4188.205078, 4200.512695, 4201.538574, 4229.743652, 4222.563965, 4227.692383, 4172.820313, 4173.846191, 0.000000, 8227.000000, 8173.000000, 0.000000, 0.000000, 0.000000, -20112.000000, 596.923035, 4.000000, 4.000000, 4.000000, 4.000000, 4.000000, 4.000000, 4.000000, 4.000000, 0.000000, 4.000000, 4.000000, 4.000000, 4.000000, 4.000000, 4.000000, 4.000000
39.000000, 0.000000, 4197.948730, 4374.358887, 4192.820313, 4197.948730, 4200.000000, 4182.051270, 4190.769043, 4205.127930, 4201.538574, 4230.256348, 4217.948730, 4223.589844, 4172.820313, 4172.820313, 0.000000, 8228.000000, 8178.000000, 0.000000, 0.000000, 0.000000, -20112.000000, 605.128174, 4.000000, 4.000000, 4.000000, 4.000000, 4.000000, 4.000000, 4.000000, 4.000000, 0.000000, 4.000000, 4.000000, 4.000000, 4.000000, 4.000000, 4.000000, 4.000000
40.000000, 0.000000, 4198.974121, 4369.230469, 4201.538574, 4197.436035, 4202.051270, 4189.230469, 4198.974121, 4198.974121, 4201.538574, 4219.487305, 4216.410156, 4224.615234, 4168.717773, 4171.794922, 0.000000, 8228.000000, 8178.000000, 0.000000, 0.000000, 0.000000, -20112.000000, 612.820496, 4.000000, 4.000000, 4.000000, 4.000000, 4.000000, 4.000000, 4.000000, 4.000000, 0.000000, 4.000000, 4.000000, 4.000000, 4.000000, 4.000000, 4.000000, 4.000000
41.000000, 0.000000, 4202.563965, 4371.794922, 4209.230469, 4208.205078, 4202.051270, 4199.487305, 4197.948730, 4200.512695, 4201.538574, 4218.974121, 4217.948730, 4228.205078, 4165.641113, 4173.846191, 0.000000, 8230.000000, 8171.000000, 0.000000, 0.000000, 0.000000, -20112.000000, 621.025635, 4.000000, 4.000000, 4.000000, 4.000000, 4.000000, 4.000000, 4.000000, 4.000000, 0.000000, 4.000000, 4.000000, 4.000000, 4.000000, 4.000000, 4.000000, 4.000000
42.000000, 0.000000, 4203.076660, 4372.307617, 4209.230469, 4210.769043, 4199.487305, 4202.563965, 4204.102539, 4222.563965, 4202.563965, 4231.281738, 4216.922852, 4228.205078, 4166.153809, 4172.820313, 0.000000, 8230.000000, 8171.000000, 0.000000, 0.000000, 0.000000, -20112.000000, 628.717957, 4.000000, 4.000000, 4.000000, 4.000000, 4.000000, 4.000000, 4.000000, 4.000000, 0.000000, 4.000000, 4.000000, 4.000000, 4.000000, 4.000000, 4.000000, 4.000000
43.000000, 0.000000, 4195.897461, 4366.666504, 4197.948730, 4195.384277, 4192.820313, 4201.538574, 4217.948730, 4232.307617, 4204.102539, 4232.307617, 4215.897461, 4228.717773, 4165.127930, 4171.794922, 0.000000, 8233.000000, 8165.000000, 0.000000, 0.000000, 0.000000, -20112.000000, 636.410217, 4.000000, 4.000000, 4.000000, 4.000000, 4.000000, 4.000000, 4.000000, 4.000000, 0.000000, 4.000000, 4.000000, 4.000000, 4.000000, 4.000000, 4.000000, 4.000000
44.000000, 0.000000, 4192.307617, 4367.179199, 4188.205078, 4189.743652, 4189.230469, 4202.051270, 4218.461426, 4230.256348, 4204.102539, 4227.179199, 4224.102539, 4231.281738, 4167.692383, 4178.461426, 0.000000, 8233.000000, 8165.000000, 0.000000, 0.000000, 0.000000, -20112.000000, 644.615356, 4.000000, 4.000000, 4.000000, 4.000000, 4.000000, 4.000000, 4.000000, 4.000000, 0.000000, 4.000000, 4.000000, 4.000000, 4.000000, 4.000000, 4.000000, 4.000000
45.000000, 0.000000, 4196.410156, 4370.769043, 4188.205078, 4198.974121, 4205.641113, 4203.589844, 4214.871582, 4239.487305, 4203.076660, 4238.461426, 4233.846191, 4234.871582, 4181.025391, 4186.666504, 0.000000, 8237.000000, 8167.000000, 0.000000, 0.000000, 0.000000, -20112.000000, 652.307678, 4.000000, 4.000000, 4.000000, 4.000000, 4.000000, 4.000000, 4.000000, 4.000000, 0.000000, 4.000000, 4.000000, 4.000000, 4.000000, 4.000000, 4.000000, 4.000000
46.000000, 0.000000, 4202.563965, 4369.743652, 4191.281738, 4202.051270, 4221.538574, 4203.076660, 4219.487305, 4250.256348, 4203.076660, 4248.717773, 4232.820313, 4233.333008, 4186.666504, 4186.153809, 0.000000, 8237.000000, 8167.000000, 0.000000, 0.000000, 0.000000, -20112.000000, 660.000000, 4.000000, 4.000000, 4.000000, 4.000000, 4.000000, 4.000000, 4.000000, 4.000000, 0.000000, 4.000000, 4.000000, 4.000000, 4.000000, 4.000000, 4.000000, 4.000000
47.000000, 0.000000, 4209.230469, 4367.179199, 4199.487305, 4206.666504, 4216.410156, 4204.615234, 4221.538574, 4258.461426, 4203.589844, 4244.615234, 4230.256348, 4232.307617, 4181.538574, 4184.102539, 0.000000, 8230.000000, 8169.000000, 0.000000, 0.000000, 0.000000, -20112.000000, 668.205139, 4.000000, 4.000000, 4.000000, 4.000000, 4.000000, 4.000000, 4.000000, 4.000000, 0.000000, 4.000000, 4.000000, 4.000000, 4.000000, 4.000000, 4.000000, 4.000000
48.000000, 0.000000, 4218.974121, 4375.897461, 4218.461426, 4217.436035, 4205.641113, 4209.230469, 4222.051270, 4262.563965, 4202.563965, 4245.127930, 4234.358887, 4242.563965, 4183.589844, 4192.820313, 0.000000, 8230.000000, 8169.000000, 0.000000, 0.000000, 0.000000, -20112.000000, 675.897400, 4.000000, 4.000000, 4.000000, 4.000000, 4.000000, 4.000000, 4.000000, 4.000000, 0.000000, 4.000000, 4.000000, 4.000000, 4.000000, 4.000000, 4.000000, 4.000000
49.000000, 0.000000, 4225.641113, 4384.615234, 4229.230469, 4223.589844, 4210.769043, 4214.358887, 4222.051270, 4251.281738, 4200.512695, 4246.153809, 4239.487305, 4250.256348, 4182.051270, 4204.615234, 0.000000, 8222.000000, 8175.000000, 0.000000, 0.000000, 0.000000, -20112.000000, 683.589722, 4.000000, 4.000000, 4.000000, 4.000000, 4.000000, 4.000000, 4.000000, 4.000000, 0.000000, 4.000000, 4.000000, 4.000000, 4.000000, 4.000000, 4.000000, 4.000000
50.000000, 0.000000, 4224.102539, 4383.589844, 4221.538574, 4217.948730, 4223.076660, 4218.974121, 4215.897461, 4240.000000, 4201.025391, 4238.974121, 4235.897461, 4239.487305, 4158.974121, 4202.051270, 0.000000, 8222.000000, 8175.000000, 0.000000, 0.000000, 0.000000, -20112.000000, 691.282043, 4.000000, 4.000000, 4.000000, 4.000000, 4.000000, 4.000000, 4.000000, 4.000000, 0.000000, 4.000000, 4.000000, 4.000000, 4.000000, 4.000000, 4.000000, 4.000000
51.000000, 0.000000, 4209.743652, 4377.435547, 4206.153809, 4207.179199, 4213.333008, 4217.436035, 4203.589844, 4229.230469, 4203.076660, 4228.717773, 4221.025391, 4220.512695, 4121.538574, 4182.563965, 0.000000, 8228.000000, 8193.000000, 0.000000, 0.000000, 0.000000, -20112.000000, 699.487183, 4.000000, 4.000000, 4.000000, 4.000000, 4.000000, 4.000000, 4.000000, 4.000000, 0.000000, 4.000000, 4.000000, 4.000000, 4.000000, 4.000000, 4.000000, 4.000000
52.000000, 0.000000, 4190.256348, 4367.179199, 4190.769043, 4200.512695, 4201.538574, 4208.717773, 4191.794922, 4209.743652, 4204.102539, 4216.410156, 4203.076660, 4203.589844, 4092.820313, 4164.615234, 0.000000, 8228.000000, 8193.000000, 0.000000, 0.000000, 0.000000, -20112.000000, 707.179443, 4.000000, 4.000000, 4.000000, 4.000000, 4.000000, 4.000000, 4.000000, 4.000000, 0.000000, 4.000000, 4.000000, 4.000000, 4.000000, 4.000000, 4.000000, 4.000000
53.000000, 0.000000, 4181.538574, 4362.051270, 4179.487305, 4196.922852, 4213.846191, 4195.897461, 4184.102539, 4190.769043, 4203.589844, 4203.589844, 4192.307617, 4188.205078, 4076.923096, 4153.333008, 0.000000, 8220.000000, 8195.000000, 0.000000, 0.000000, 0.000000, -20112.000000, 715.384583, 4.000000, 4.000000, 4.000000, 4.000000, 4.000000, 4.000000, 4.000000, 4.000000, 0.000000, 4.000000, 4.000000, 4.000000, 4.000000, 4.000000, 4.000000, 4.000000
54.000000, 0.000000, 4183.076660, 4363.076660, 4174.871582, 4193.846191, 4223.589844, 4188.205078, 4180.512695, 4182.563965, 4202.051270, 4197.948730, 4190.256348, 4183.076660, 4071.794678, 4150.256348, 0.000000, 8220.000000, 8195.000000, 0.000000, 0.000000, 0.000000, -20112.000000, 723.076904, 4.000000, 4.000000, 4.000000, 4.000000, 4.000000, 4.000000, 4.000000, 4.000000, 0.000000, 4.000000, 4.000000, 4.000000, 4.000000, 4.000000, 4.000000, 4.000000
55.000000, 0.000000, 4191.281738, 4366.666504, 4181.025391, 4195.897461, 4216.410156, 4192.820313, 4181.025391, 4186.666504, 4201.538574, 4201.025391, 4196.410156, 4193.333008, 4077.435791, 4162.051270, 0.000000, 8214.000000, 8200.000000, 0.000000, 0.000000, 0.000000, -20112.000000, 730.769226, 4.000000, 4.000000, 4.000000, 4.000000, 4.000000, 4.000000, 4.000000, 4.000000, 0.000000, 4.000000, 4.000000, 4.000000, 4.000000, 4.000000, 4.000000, 4.000000
56.000000, 0.000000, 4203.076660, 4371.281738, 4196.922852, 4204.102539, 4214.358887, 4197.948730, 4183.589844, 4197.948730, 4203.076660, 4203.076660, 4203.076660, 4208.717773, 4086.666504, 4173.846191, 0.000000, 8214.000000, 8200.000000, 0.000000, 0.000000, 0.000000, -20112.000000, 738.974365, 4.000000, 4.000000, 4.000000, 4.000000, 4.000000, 4.000000, 4.000000, 4.000000, 0.000000, 4.000000, 4.000000, 4.000000, 4.000000, 4.000000, 4.000000, 4.000000
57.000000, 0.000000, 4207.179199, 4370.256348, 4202.563965, 4208.205078, 4221.025391, 4202.051270, 4192.307617, 4202.051270, 4203.076660, 4202.563965, 4200.512695, 4209.743652, 4090.256348, 4174.358887, 0.000000, 8205.000000, 8199.000000, 0.000000, 0.000000, 0.000000, -20112.000000, 746.666626, 4.000000, 4.000000, 4.000000, 4.000000, 4.000000, 4.000000, 4.000000, 4.000000, 0.000000, 4.000000, 4.000000, 4.000000, 4.000000, 4.000000, 4.000000, 4.000000
58.000000, 0.000000, 4201.025391, 4363.589844, 4196.922852, 4209.743652, 4214.358887, 4201.025391, 4195.897461, 4201.025391, 4202.051270, 4199.487305, 4196.410156, 4198.974121, 4088.205078, 4170.769043, 0.000000, 8205.000000, 8199.000000, 0.000000, 0.000000, 0.000000, -20112.000000, 754.358948, 4.000000, 4.000000, 4.000000, 4.000000, 4.000000, 4.000000, 4.000000, 4.000000, 0.000000, 4.000000, 4.000000, 4.000000, 4.000000, 4.000000, 4.000000, 4.000000
59.000000, 0.000000, 4200.000000, 4360.000000, 4194.871582, 4212.820313, 4197.948730, 4190.769043, 4187.692383, 4201.538574, 4202.563965, 4197.436035, 4197.948730, 4196.410156, 4089.743408, 4170.769043, 0.000000, 8202.000000, 8190.000000, 0.000000, 0.000000, 0.000000, -20112.000000, 762.564087, 4.000000, 4.000000, 4.000000, 4.000000, 4.000000, 4.000000, 4.000000, 4.000000, 0.000000, 4.000000, 4.000000, 4.000000, 4.000000, 4.000000, 4.000000, 4.000000
60.000000, 0.000000, 4210.769043, 4361.538574, 4198.461426, 4215.384277, 4203.589844, 4188.717773, 4189.743652, 4200.000000, 4203.076660, 4205.127930, 4201.538574, 4202.051270, 4097.948730, 4173.333008, 0.000000, 8202.000000, 8190.000000, 0.000000, 0.000000, 0.000000, -20112.000000, 770.256409, 4.000000, 4.000000, 4.000000, 4.000000, 4.000000, 4.000000, 4.000000, 4.000000, 0.000000, 4.000000, 4.000000, 4.000000, 4.000000, 4.000000, 4.000000, 4.000000
61.000000, 0.000000, 4212.820313, 4361.538574, 4200.512695, 4214.871582, 4227.179199, 4203.076660, 4203.589844, 4208.717773, 4203.076660, 4215.384277, 4205.127930, 4204.102539, 4107.179199, 4176.410156, 0.000000, 8195.000000, 8171.000000, 0.000000, 0.000000, 0.000000, -20112.000000, 778.461548, 4.000000, 4.000000, 4.000000, 4.000000, 4.000000, 4.000000, 4.000000, 4.000000, 0.000000, 4.000000, 4.000000, 4.000000, 4.000000, 4.000000, 4.000000, 4.000000
62.000000, 0.000000, 4204.102539, 4355.897461, 4193.333008, 4206.666504, 4227.179199, 4207.692383, 4203.589844, 4223.589844, 4202.563965, 4219.487305, 4204.102539, 4201.025391, 4111.281738, 4174.358887, 0.000000, 8195.000000, 8171.000000, 0.000000, 0.000000, 0.000000, -20112.000000, 786.153809, 4.000000, 4.000000, 4.000000, 4.000000, 4.000000, 4.000000, 4.000000, 4.000000, 0.000000, 4.000000, 4.000000, 4.000000, 4.000000, 4.000000, 4.000000, 4.000000
63.000000, 0.000000, 4197.948730, 4345.127930, 4187.179199, 4200.000000, 4214.871582, 4194.358887, 4194.358887, 4219.487305, 4202.563965, 4217.948730, 4199.487305, 4198.974121, 4109.230469, 4168.717773, 0.000000, 8194.000000, 8170.000000, 0.000000, 0.000000, 0.000000, -20112.000000, 793.846130, 4.000000, 4.000000, 4.000000, 4.000000, 4.000000, 4.000000, 4.000000, 4.000000, 0.000000, 4.000000, 4.000000, 4.000000, 4.000000, 4.000000, 4.000000, 4.000000
64.000000, 0.000000, 4194.358887, 4329.230469, 4185.641113, 4198.974121, 4222.051270, 4203.589844, 4200.000000, 4211.281738, 4203.076660, 4217.436035, 4200.000000, 4200.000000, 4105.641113, 4167.179199, 3185.000000, 8194.000000, 8170.000000, 0.000000, 0.000000, 0.000000, -20112.000000, 802.051270, 4.000000, 4.000000, 4.000000, 4.000000, 4.000000, 4.000000, 4.000000, 4.000000, 0.000000, 4.000000, 4.000000, 4.000000, 4.000000, 4.000000, 4.000000, 4.000000
65.000000, 0.000000, 4191.281738, 4323.589844, 4185.641113, 4201.538574, 4233.333008, 4217.948730, 4204.615234, 4217.948730, 4204.102539, 4214.358887, 4202.563965, 4203.076660, 4111.794922, 4168.717773, 3541.000000, 8196.000000, 8162.000000, 0.000000, 0.000000, 0.000000, -20112.000000, 809.743591, 4.000000, 4.000000, 4.000000, 4.000000, 4.000000, 4.000000, 4.000000, 4.000000, 0.000000, 4.000000, 4.000000, 4.000000, 4.000000, 4.000000, 4.000000, 4.000000
66.000000, 0.000000, 4198.974121, 4331.794922, 4187.179199, 4203.589844, 4230.256348, 4206.666504, 4195.897461, 4224.615234, 4203.589844, 4209.743652, 4201.538574, 4198.974121, 4123.076660, 4167.179199, 3571.000000, 8196.000000, 8162.000000, 0.000000, 0.000000, 0.000000, -20112.000000, 817.948669, 4.000000, 4.000000, 4.000000, 4.000000, 4.000000, 4.000000, 4.000000, 4.000000, 0.000000, 4.000000, 4.000000, 4.000000, 4.000000, 4.000000, 4.000000, 4.000000
67.000000, 0.000000, 4199.487305, 4325.127930, 4183.076660, 4202.563965, 4214.871582, 4197.948730, 4193.333008, 4212.820313, 4202.051270, 4211.794922, 4193.846191, 4188.717773, 4116.922852, 4157.948730, 2420.000000, 8210.000000, 8163.000000, 0.000000, 0.000000, 0.000000, -20112.000000, 825.640991, 4.000000, 4.000000, 4.000000, 4.000000, 4.000000, 4.000000, 4.000000, 4.000000, 0.000000, 4.000000, 4.000000, 4.000000, 4.000000, 4.000000, 4.000000, 4.000000
68.000000, 0.000000, 4187.179199, 4312.307617, 4173.333008, 4201.025391, 4210.769043, 4203.589844, 4201.538574, 4202.051270, 4201.538574, 4216.410156, 4191.794922, 4186.153809, 4108.717773, 4151.281738, 3549.000000, 8210.000000, 8163.000000, 0.000000, 0.000000, 0.000000, -20112.000000, 833.333313, 4.000000, 4.000000, 4.000000, 4.000000, 4.000000, 4.000000, 4.000000, 4.000000, 0.000000, 4.000000, 4.000000, 4.000000, 4.000000, 4.000000, 4.000000, 4.000000
69.000000, 0.000000, 4188.205078, 4314.871582, 4171.281738, 4200.512695, 4222.563965, 4207.179199, 4204.102539, 4217.948730, 4202.563965, 4218.461426, 4198.974121, 4190.769043, 4121.025391, 4157.436035, 3578.000000, 8215.000000, 8167.000000, 0.000000, 0.000000, 0.000000, -20112.000000, 841.538452, 4.000000, 4.000000, 4.000000, 4.000000, 4.000000, 4.000000, 4.000000, 4.000000, 0.000000, 4.000000, 4.000000, 4.000000, 4.000000, 4.000000, 4.000000, 4.000000
70.000000, 0.000000, 4200.000000, 4318.974121, 4178.974121, 4206.666504, 4225.127930, 4207.179199, 4202.563965, 4239.487305, 4203.076660, 4220.000000, 4205.127930, 4195.384277, 4130.256348, 4167.179199, 3572.000000, 8215.000000, 8167.000000, 0.000000, 0.000000, 0.000000, -20112.000000, 849.230774, 4.000000, 4.000000, 4.000000, 4.000000, 4.000000, 4.000000, 4.000000, 4.000000, 0.000000, 4.000000, 4.000000, 4.000000, 4.000000, 4.000000, 4.000000, 4.000000
71.000000, 0.000000, 4205.641113, 4313.333008, 4190.769043, 4218.974121, 4223.076660, 4208.717773, 4204.615234, 4226.153809, 4202.563965, 4215.384277, 4203.076660, 4200.512695, 4128.205078, 4172.820313, 3493.000000, 8216.000000, 8166.000000, 0.000000, 0.000000, 0.000000, -20112.000000, 857.435852, 4.000000, 4.000000, 4.000000, 4.000000, 4.000000, 4.000000, 4.000000, 4.000000, 0.000000, 4.000000, 4.000000, 4.000000, 4.000000, 4.000000, 4.000000, 4.000000
72.000000, 0.000000, 4204.615234, 4303.076660, 4198.461426, 4216.922852, 4225.127930, 4202.563965, 4199.487305, 4204.102539, 4202.051270, 4204.615234, 4195.384277, 4198.974121, 4124.615234, 4167.179199, 0.000000, 8216.000000, 8166.000000, 0.000000, 0.000000, 0.000000, -20112.000000, 865.128174, 4.000000, 4.000000, 4.000000, 4.000000, 4.000000, 4.000000, 4.000000, 4.000000, 0.000000, 4.000000, 4.000000, 4.000000, 4.000000, 4.000000, 4.000000, 4.000000
73.000000, 0.000000, 4199.487305, 4290.256348, 4195.384277, 4200.000000, 4215.384277, 4198.461426, 4195.897461, 4206.666504, 4201.538574, 4195.384277, 4185.641113, 4189.230469, 4112.820313, 4155.384277, 3149.000000, 8221.000000, 8163.000000, 0.000000, 0.000000, 0.000000, -20112.000000, 873.333313, 4.000000, 4.000000, 4.000000, 4.000000, 4.000000, 4.000000, 4.000000, 4.000000, 0.000000, 4.000000, 4.000000, 4.000000, 4.000000, 4.000000, 4.000000, 4.000000
74.000000, 0.000000, 4197.948730, 4285.641113, 4191.794922, 4201.025391, 4211.794922, 4201.538574, 4203.076660, 4204.615234, 4202.563965, 4194.358887, 4180.000000, 4190.256348, 4106.153809, 4157.436035, 3589.000000, 8221.000000, 8163.000000, 0.000000, 0.000000, 0.000000, -20112.000000, 881.025635, 4.000000, 4.000000, 4.000000, 4.000000, 4.000000, 4.000000, 4.000000, 4.000000, 0.000000, 4.000000, 4.000000, 4.000000, 4.000000, 4.000000, 4.000000, 4.000000
75.000000, 0.000000, 4206.153809, 4291.281738, 4195.897461, 4218.461426, 4223.589844, 4203.076660, 4206.153809, 4200.000000, 4202.051270, 4202.051270, 4191.794922, 4207.179199, 4124.102539, 4172.820313, 3557.000000, 8222.000000, 8162.000000, 0.000000, 0.000000, 0.000000, -20112.000000, 888.717957, 4.000000, 4.000000, 4.000000, 4.000000, 4.000000, 4.000000, 4.000000, 4.000000, 0.000000, 4.000000, 4.000000, 4.000000, 4.000000, 4.000000, 4.000000, 4.000000
76.000000, 0.000000, 4211.281738, 4292.307617, 4200.000000, 4221.025391, 4218.974121, 4201.025391, 4206.666504, 4221.025391, 4201.025391, 4215.897461, 4209.743652, 4217.948730, 4145.641113, 4183.076660, 3522.000000, 8222.000000, 8162.000000, 0.000000, 0.000000, 0.000000, -20112.000000, 896.923035, 4.000000, 4.000000, 4.000000, 4.000000, 4.000000, 4.000000, 4.000000, 4.000000, 0.000000, 4.000000, 4.000000, 4.000000, 4.000000, 4.000000, 4.000000, 4.000000
77.000000, 0.000000, 4209.743652, 4281.025391, 4196.410156, 4210.769043, 4209.230469, 4203.589844, 4217.948730, 4241.025391, 4203.076660, 4227.692383, 4216.410156, 4215.897461, 4153.846191, 4185.127930, 3459.000000, 8225.000000, 8163.000000, 0.000000, 0.000000, 0.000000, -20112.000000, 905.128174, 4.000000, 4.000000, 4.000000, 4.000000, 4.000000, 4.000000, 4.000000, 4.000000, 0.000000, 4.000000, 4.000000, 4.000000, 4.000000, 4.000000, 4.000000, 4.000000
78.000000, 0.000000, 4214.358887, 4273.333008, 4200.000000, 4212.307617, 4220.512695, 4214.871582, 4227.179199, 4233.333008, 4204.615234, 4234.358887, 4217.948730, 4219.487305, 4164.102539, 4189.230469, 3589.000000, 8225.000000, 8163.000000, 0.000000, 0.000000, 0.000000, -20112.000000, 912.820496, 4.000000, 4.000000, 4.000000, 4.000000, 4.000000, 4.000000, 4.000000, 4.000000, 0.000000, 4.000000, 4.000000, 4.000000, 4.000000, 4.000000, 4.000000, 4.000000
79.000000, 0.000000, 4216.922852, 4277.436035, 4205.641113, 4217.948730, 4221.538574, 4216.410156, 4222.051270, 4227.179199, 4203.076660, 4231.794922, 4221.025391, 4224.102539, 4175.897461, 4189.230469, 3557.000000, 8220.000000, 8166.000000, 0.000000, 0.000000, 0.000000, -20112.000000, 920.512817, 4.000000, 4.000000, 4.000000, 4.000000, 4.000000, 4.000000, 4.000000, 4.000000, 0.000000, 4.000000, 4.000000, 4.000000, 4.000000, 4.000000, 4.000000, 4.000000
80.000000, 0.000000, 4210.769043, 4273.846191, 4200.512695, 4216.410156, 4216.922852, 4206.666504, 4213.846191, 4235.384277, 4202.563965, 4222.563965, 4215.897461, 4221.538574, 4169.230469, 4185.127930, 3522.000000, 8220.000000, 8166.000000, 0.000000, 0.000000, 0.000000, -20112.000000, 928.205078, 4.000000, 4.000000, 4.000000, 4.000000, 4.000000, 4.000000, 4.000000, 4.000000, 0.000000, 4.000000, 4.000000, 4.000000, 4.000000, 4.000000, 4.000000, 4.000000
81.000000, 0.000000, 4210.769043, 4261.025391, 4201.538574, 4214.871582, 4225.127930, 4207.179199, 4215.384277, 4237.948730, 4204.102539, 4218.461426, 4204.102539, 4215.897461, 4155.897461, 4186.153809, 3459.000000, 8214.000000, 8161.000000, 0.000000, 0.000000, 0.000000, -20112.000000, 936.410217, 4.000000, 4.000000, 4.000000, 4.000000, 4.000000, 4.000000, 4.000000, 4.000000, 0.000000, 4.000000, 4.000000, 4.000000, 4.000000, 4.000000, 4.000000, 4.000000
82.000000, 0.000000, 4210.769043, 4254.358887, 4200.000000, 4209.230469, 4222.563965, 4212.820313, 4216.410156, 4230.769043, 4204.102539, 4218.974121, 4200.000000, 4209.230469, 4154.358887, 4183.076660, 3589.000000, 8214.000000, 8161.000000, 0.000000, 0.000000, 0.000000, -20112.000000, 944.102539, 4.000000, 4.000000, 4.000000, 4.000000, 4.000000, 4.000000, 4.000000, 4.000000, 0.000000, 4.000000, 4.000000, 4.000000, 4.000000, 4.000000, 4.000000, 4.000000
83.000000, 0.000000, 4200.000000, 4250.256348, 4186.153809, 4199.487305, 4212.307617, 4204.102539, 4206.666504, 4219.487305, 4202.051270, 4214.871582, 4201.025391, 4198.461426, 4154.358887, 4171.794922, 3557.000000, 8205.000000, 8160.000000, 0.000000, 0.000000, 0.000000, -20112.000000, 951.794861, 4.000000, 4.000000, 4.000000, 4.000000, 4.000000, 4.000000, 4.000000, 4.000000, 0.000000, 4.000000, 4.000000, 4.000000, 4.000000, 4.000000, 4.000000, 4.000000
84.000000, 0.000000, 4192.820313, 4245.641113, 4179.487305, 4195.384277, 4213.333008, 4195.897461, 4200.000000, 4216.410156, 4201.025391, 4212.307617, 4199.487305, 4190.769043, 4150.769043, 4166.153809, 3522.000000, 8205.000000, 8160.000000, 0.000000, 0.000000, 0.000000, -20112.000000, 960.000000, 4.000000, 4.000000, 4.000000, 4.000000, 4.000000, 4.000000, 4.000000, 4.000000, 0.000000, 4.000000, 4.000000, 4.000000, 4.000000, 4.000000, 4.000000, 4.000000
85.000000, 0.000000, 4197.948730, 4244.615234, 4185.127930, 4201.025391, 4223.076660, 4207.692383, 4203.076660, 4222.563965, 4202.563965, 4217.436035, 4199.487305, 4192.820313, 4149.743652, 4171.281738, 3459.000000, 8197.000000, 8161.000000, 0.000000, 0.000000, 0.000000, -20112.000000, 967.692261, 4.000000, 4.000000, 4.000000, 4.000000, 4.000000, 4.000000, 4.000000, 4.000000, 0.000000, 4.000000, 4.000000, 4.000000, 4.000000, 4.000000, 4.000000, 4.000000
86.000000, 0.000000, 4204.102539, 4244.615234, 4185.641113, 4203.589844, 4228.717773, 4221.538574, 4204.102539, 4224.102539, 4204.102539, 4222.051270, 4202.563965, 4197.948730, 4148.717773, 4172.307617, 3589.000000, 8197.000000, 8161.000000, 0.000000, 0.000000, 0.000000, -20112.000000, 975.897400, 4.000000, 4.000000, 4.000000, 4.000000, 4.000000, 4.000000, 4.000000, 4.000000, 0.000000, 4.000000, 4.000000, 4.000000, 4.000000, 4.000000, 4.000000, 4.000000
87.000000, 0.000000, 4195.897461, 4231.794922, 4178.974121, 4198.974121, 4220.512695, 4210.256348, 4202.563965, 4219.487305, 4203.589844, 4217.436035, 4198.974121, 4196.410156, 4141.025391, 4164.102539, 3557.000000, 8199.000000, 8160.000000, 0.000000, 0.000000, 0.000000, -20112.000000, 983.589722, 4.000000, 4.000000, 4.000000, 4.000000, 4.000000, 4.000000, 4.000000, 4.000000, 0.000000, 4.000000, 4.000000, 4.000000, 4.000000, 4.000000, 4.000000, 4.000000
88.000000, 0.000000, 4184.615234, 4220.512695, 4181.025391, 4196.410156, 4218.974121, 4196.922852, 4199.487305, 4215.897461, 4203.076660, 4214.358887, 4193.846191, 4193.846191, 4137.948730, 4161.538574, 3522.000000, 8199.000000, 8160.000000, 0.000000, 0.000000, 0.000000, -20112.000000, 991.794861, 4.000000, 4.000000, 4.000000, 4.000000, 4.000000, 4.000000, 4.000000, 4.000000, 0.000000, 4.000000, 4.000000, 4.000000, 4.000000, 4.000000, 4.000000, 4.000000
89.000000, 0.000000, 4190.769043, 4226.666504, 4187.692383, 4200.000000, 4228.717773, 4202.051270, 4191.281738, 4210.256348, 4202.051270, 4216.410156, 4196.922852, 4198.974121, 4143.589844, 4169.743652, 3459.000000, 8197.000000, 8159.000000, 0.000000, 0.000000, 0.000000, -20112.000000, 999.487183, 4.000000, 4.000000, 4.000000, 4.000000, 4.000000, 4.000000, 4.000000, 4.000000, 0.000000, 4.000000, 4.000000, 4.000000, 4.000000, 4.000000, 4.000000, 4.000000
90.000000, 0.000000, 4202.051270, 4229.230469, 4185.641113, 4203.589844, 4222.563965, 4197.948730, 4184.102539, 4202.563965, 4201.538574, 4214.871582, 4200.000000, 4196.922852, 4146.666504, 4172.820313, 3589.000000, 8197.000000, 8159.000000, 0.000000, 0.000000, 0.000000, -20111.000000, 7.179487, 4.000000, 4.000000, 4.000000, 4.000000, 4.000000, 4.000000, 4.000000, 4.000000, 0.000000, 4.000000, 4.000000, 4.000000, 4.000000, 4.000000, 4.000000, 4.000000
91.000000, 0.000000, 4201.025391, 4222.563965, 4183.589844, 4204.102539, 4209.230469, 4186.666504, 4182.563965, 4204.615234, 4202.563965, 4213.846191, 4198.461426, 4187.692383, 4149.230469, 4168.205078, 3557.000000, 8188.000000, 8164.000000, 0.000000, 0.000000, 0.000000, -20111.000000, 14.871795, 4.000000, 4.000000, 4.000000, 4.000000, 4.000000, 4.000000, 4.000000, 4.000000, 0.000000, 4.000000, 4.000000, 4.000000, 4.000000, 4.000000, 4.000000, 4.000000
92.000000, 0.000000, 4203.589844, 4221.025391, 4187.692383, 4207.179199, 4222.563965, 4195.897461, 4187.179199, 4214.871582, 4203.076660, 4220.000000, 4201.025391, 4193.333008, 4154.871582, 4175.384277, 3522.000000, 8188.000000, 8164.000000, 0.000000, 0.000000, 0.000000, -20111.000000, 23.076923, 4.000000, 4.000000, 4.000000, 4.000000, 4.000000, 4.000000, 4.000000, 4.000000, 0.000000, 4.000000, 4.000000, 4.000000, 4.000000, 4.000000, 4.000000, 4.000000
93.000000, 0.000000, 4213.333008, 4223.589844, 4188.717773, 4208.717773, 4234.358887, 4204.615234, 4190.769043, 4214.871582, 4202.051270, 4218.974121, 4204.615234, 4202.563965, 4160.000000, 4186.153809, 3459.000000, 8193.000000, 8162.000000, 0.000000, 0.000000, 0.000000, -20111.000000, 30.769230, 4.000000, 4.000000, 4.000000, 4.000000, 4.000000, 4.000000, 4.000000, 4.000000, 0.000000, 4.000000, 4.000000, 4.000000, 4.000000, 4.000000, 4.000000, 4.000000
94.000000, 0.000000, 4214.358887, 4223.589844, 4189.743652, 4209.230469, 4219.487305, 4196.410156, 4187.692383, 4202.051270, 4201.538574, 4212.820313, 4203.076660, 4201.538574, 4164.102539, 4187.692383, 3589.000000, 8193.000000, 8162.000000, 0.000000, 0.000000, 0.000000, -20111.000000, 38.461536, 4.000000, 4.000000, 4.000000, 4.000000, 4.000000, 4.000000, 4.000000, 4.000000, 0.000000, 4.000000, 4.000000, 4.000000, 4.000000, 4.000000, 4.000000, 4.000000
95.000000, 0.000000, 4214.871582, 4220.512695, 4198.974121, 4212.307617, 4214.358887, 4197.948730, 4186.666504, 4201.025391, 4202.563965, 4222.563965, 4204.615234, 4209.230469, 4170.256348, 4194.358887, 3557.000000, 8193.000000, 8159.000000, 0.000000, 0.000000, 0.000000, -20111.000000, 46.666664, 4.000000, 4.000000, 4.000000, 4.000000, 4.000000, 4.000000, 4.000000, 4.000000, 0.000000, 4.000000, 4.000000, 4.000000, 4.000000, 4.000000, 4.000000, 4.000000
96.000000, 0.000000, 4217.948730, 4214.871582, 4201.025391, 4211.281738, 4221.025391, 4205.641113, 4188.717773, 4214.871582, 4203.076660, 4231.794922, 4208.717773, 4222.051270, 4171.794922, 4200.000000, 3522.000000, 8193.000000, 8159.000000, 0.000000, 0.000000, 0.000000, -20111.000000, 54.358974, 4.000000, 4.000000, 4.000000, 4.000000, 4.000000, 4.000000, 4.000000, 4.000000, 0.000000, 4.000000, 4.000000, 4.000000, 4.000000, 4.000000, 4.000000, 4.000000
97.000000, 0.000000, 4214.871582, 4209.230469, 4194.871582, 4205.127930, 4211.281738, 4197.948730, 4185.641113, 4221.025391, 4203.076660, 4226.666504, 4206.666504, 4214.358887, 4168.717773, 4190.256348, 3459.000000, 8194.000000, 8158.000000, 0.000000, 0.000000, 0.000000, -20111.000000, 62.564102, 4.000000, 4.000000, 4.000000, 4.000000, 4.000000, 4.000000, 4.000000, 4.000000, 0.000000, 4.000000, 4.000000, 4.000000, 4.000000, 4.000000, 4.000000, 4.000000
98.000000, 0.000000, 4214.358887, 4211.281738, 4197.436035, 4209.230469, 4203.076660, 4194.871582, 4190.256348, 4217.948730, 4202.563965, 4229.230469, 4203.589844, 4201.025391, 4170.256348, 4182.563965, 3589.000000, 8194.000000, 8158.000000, 0.000000, 0.000000, 0.000000, -20111.000000, 70.256409, 4.000000, 4.000000, 4.000000, 4.000000, 4.000000, 4.000000, 4.000000, 4.000000, 0.000000, 4.000000, 4.000000, 4.000000, 4.000000, 4.000000, 4.000000, 4.000000
99.000000, 0.000000, 4216.922852, 4216.410156, 4204.615234, 4212.820313, 4214.871582, 4197.436035, 4198.974121, 4213.846191, 4203.076660, 4233.333008, 4202.563965, 4200.512695, 4171.281738, 4187.692383, 3557.000000, 8195.000000, 8154.000000, 0.000000, 0.000000, 0.000000, -20111.000000, 77.948715, 4.000000, 4.000000, 4.000000, 4.000000, 4.000000, 4.000000, 4.000000, 4.000000, 0.000000, 4.000000, 4.000000, 4.000000, 4.000000, 4.000000, 4.000000, 4.000000
100.000000, 0.000000, 4216.410156, 4213.333008, 4203.076660, 4206.153809, 4226.153809, 4189.743652, 4188.717773, 4212.820313, 4203.589844, 4223.589844, 4204.615234, 4205.127930, 4170.769043, 4192.307617, 3522.000000, 8195.000000, 8154.000000, 0.000000, 0.000000, 0.000000, -20111.000000, 86.153847, 4.000000, 4.000000, 4.000000, 4.000000, 4.000000, 4.000000, 4.000000, 4.000000, 0.000000, 4.000000, 4.000000, 4.000000, 4.000000, 4.000000, 4.000000, 4.000000
101.000000, 0.000000, 4217.436035, 4207.179199, 4203.076660, 4204.102539, 4216.410156, 4184.615234, 4178.974121, 4209.230469, 4202.563965, 4223.589844, 4205.127930, 4209.743652, 4173.846191, 4192.820313, 3459.000000, 8194.000000, 8156.000000, 0.000000, 0.000000, 0.000000, -20111.000000, 93.846153, 4.000000, 4.000000, 4.000000, 4.000000, 4.000000, 4.000000, 4.000000, 4.000000, 0.000000, 4.000000, 4.000000, 4.000000, 4.000000, 4.000000, 4.000000, 4.000000
102.000000, 0.000000, 4213.333008, 4202.563965, 4203.589844, 4199.487305, 4202.563965, 4189.743652, 4185.641113, 4201.025391, 4202.563965, 4229.230469, 4201.025391, 4207.692383, 4168.717773, 4188.717773, 3589.000000, 8194.000000, 8156.000000, 0.000000, 0.000000, 0.000000, -20111.000000, 101.538460, 4.000000, 4.000000, 4.000000, 4.000000, 4.000000, 4.000000, 4.000000, 4.000000, 0.000000, 4.000000, 4.000000, 4.000000, 4.000000, 4.000000, 4.000000, 4.000000
103.000000, 0.000000, 4203.076660, 4195.384277, 4194.871582, 4188.717773, 4198.974121, 4186.153809, 4185.127930, 4198.974121, 4203.589844, 4220.000000, 4200.000000, 4200.512695, 4160.512695, 4180.512695, 3557.000000, 8194.000000, 8159.000000, 0.000000, 0.000000, 0.000000, -20111.000000, 109.743584, 4.000000, 4.000000, 4.000000, 4.000000, 4.000000, 4.000000, 4.000000, 4.000000, 0.000000, 4.000000, 4.000000, 4.000000, 4.000000, 4.000000, 4.000000, 4.000000
104.000000, 0.000000, 4198.974121, 4193.333008, 4187.179199, 4188.717773, 4197.436035, 4180.512695, 4177.948730, 4198.974121, 4202.051270, 4212.307617, 4197.436035, 4193.846191, 4164.102539, 4175.384277, 3522.000000, 8194.000000, 8159.000000, 0.000000, 0.000000, 0.000000, -20111.000000, 117.435898, 4.000000, 4.000000, 4.000000, 4.000000, 4.000000, 4.000000, 4.000000, 4.000000, 0.000000, 4.000000, 4.000000, 4.000000, 4.000000, 4.000000, 4.000000, 4.000000
105.000000, 0.000000, 4201.025391, 4195.897461, 4190.769043, 4195.897461, 4201.538574, 4184.102539, 4182.051270, 4189.743652, 4201.025391, 4216.922852, 4190.256348, 4189.743652, 4169.230469, 4172.820313, 3459.000000, 8195.000000, 8142.000000, 0.000000, 0.000000, 0.000000, -20111.000000, 125.641022, 4.000000, 4.000000, 4.000000, 4.000000, 4.000000, 4.000000, 4.000000, 4.000000, 0.000000, 4.000000, 4.000000, 4.000000, 4.000000, 4.000000, 4.000000, 4.000000
106.000000, 0.000000, 4205.641113, 4201.025391, 4199.487305, 4203.589844, 4209.743652, 4185.641113, 4183.589844, 4191.794922, 4202.051270, 4217.948730, 4191.281738, 4193.846191, 4169.743652, 4176.922852, 3589.000000, 8195.000000, 8142.000000, 0.000000, 0.000000, 0.000000, -20111.000000, 133.333328, 4.000000, 4.000000, 4.000000, 4.000000, 4.000000, 4.000000, 4.000000, 4.000000, 0.000000, 4.000000, 4.000000, 4.000000, 4.000000, 4.000000, 4.000000, 4.000000
107.000000, 0.000000, 4211.281738, 4206.666504, 4206.153809, 4210.256348, 4215.384277, 4190.256348, 4183.589844, 4204.615234, 4202.563965, 4214.358887, 4199.487305, 4203.589844, 4172.820313, 4185.127930, 3557.000000, 8194.000000, 8129.000000, 0.000000, 0.000000, 0.000000, -20111.000000, 141.025635, 4.000000, 4.000000, 4.000000, 4.000000, 4.000000, 4.000000, 4.000000, 4.000000, 0.000000, 4.000000, 4.000000, 4.000000, 4.000000, 4.000000, 4.000000, 4.000000
108.000000, 0.000000, 4213.333008, 4206.666504, 4203.589844, 4208.717773, 4216.410156, 4203.076660, 4191.794922, 4205.127930, 4202.051270, 4211.794922, 4199.487305, 4204.615234, 4173.333008, 4188.205078, 3522.000000, 8194.000000, 8129.000000, 0.000000, 0.000000, 0.000000, -20111.000000, 149.230759, 4.000000, 4.000000, 4.000000, 4.000000, 4.000000, 4.000000, 4.000000, 4.000000, 0.000000, 4.000000, 4.000000, 4.000000, 4.000000, 4.000000, 4.000000, 4.000000
109.000000, 0.000000, 4212.307617, 4206.666504, 4196.922852, 4198.974121, 4218.461426, 4206.666504, 4191.794922, 4198.461426, 4203.076660, 4210.256348, 4195.897461, 4197.436035, 4172.307617, 4184.615234, 3459.000000, 8201.000000, 8102.000000, 0.000000, 0.000000, 0.000000, -20111.000000, 156.923080, 4.000000, 4.000000, 4.000000, 4.000000, 4.000000, 4.000000, 4.000000, 4.000000, 0.000000, 4.000000, 4.000000, 4.000000, 4.000000, 4.000000, 4.000000, 4.000000
110.000000, 0.000000, 4214.358887, 4209.743652, 4194.871582, 4200.000000, 4217.948730, 4204.102539, 4182.051270, 4198.974121, 4203.589844, 4214.358887, 4198.974121, 4197.436035, 4183.589844, 4185.127930, 3589.000000, 8201.000000, 8102.000000, 0.000000, 0.000000, 0.000000, -20111.000000, 164.615387, 4.000000, 4.000000, 4.000000, 4.000000, 4.000000, 4.000000, 4.000000, 4.000000, 0.000000, 4.000000, 4.000000, 4.000000, 4.000000, 4.000000, 4.000000, 4.000000
111.000000, 0.000000, 4215.384277, 4215.897461, 4198.461426, 4211.281738, 4212.307617, 4205.641113, 4183.589844, 4197.436035, 4202.051270, 4223.076660, 4201.025391, 4200.512695, 4195.384277, 4188.717773, 3557.000000, 8206.000000, 8085.000000, 0.000000, 0.000000, 0.000000, -20111.000000, 172.307693, 4.000000, 4.000000, 4.000000, 4.000000, 4.000000, 4.000000, 4.000000, 4.000000, 0.000000, 4.000000, 4.000000, 4.000000, 4.000000, 4.000000, 4.000000, 4.000000
112.000000, 0.000000, 4215.897461, 4223.589844, 4204.615234, 4217.948730, 4224.102539, 4203.076660, 4192.820313, 4191.281738, 4201.538574, 4222.051270, 4201.025391, 4201.538574, 4195.384277, 4189.230469, 3522.000000, 8206.000000, 8085.000000, 0.000000, 0.000000, 0.000000, -20111.000000, 180.512817, 4.000000, 4.000000, 4.000000, 4.000000, 4.000000, 4.000000, 4.000000, 4.000000, 0.000000, 4.000000, 4.000000, 4.000000, 4.000000, 4.000000, 4.000000, 4.000000
113.000000, 0.000000, 4215.897461, 4225.641113, 4204.102539, 4213.333008, 4237.436035, 4197.948730, 4189.230469, 4181.025391, 4202.051270, 4216.410156, 4203.076660, 4201.025391, 4195.897461, 4192.307617, 3459.000000, 8216.000000, 8071.000000, 0.000000, 0.000000, 0.000000, -20111.000000, 188.717941, 4.000000, 4.000000, 4.000000, 4.000000, 4.000000, 4.000000, 4.000000, 4.000000, 0.000000, 4.000000, 4.000000, 4.000000, 4.000000, 4.000000, 4.000000, 4.000000
114.000000, 0.000000, 4216.410156, 4224.102539, 4201.538574, 4207.692383, 4225.641113, 4198.974121, 4186.666504, 4174.358887, 4201.538574, 4222.563965, 4206.153809, 4201.025391, 4201.538574, 4197.436035, 3589.000000, 8216.000000, 8071.000000, 0.000000, 0.000000, 0.000000, -20111.000000, 196.410248, 4.000000, 4.000000, 4.000000, 4.000000, 4.000000, 4.000000, 4.000000, 4.000000, 0.000000, 4.000000, 4.000000, 4.000000, 4.000000, 4.000000, 4.000000, 4.000000
115.000000, 0.000000, 4225.641113, 4229.230469, 4207.179199, 4215.897461, 4213.333008, 4201.538574, 4196.410156, 4192.820313, 4201.538574, 4232.307617, 4213.846191, 4210.256348, 4206.666504, 4202.563965, 3557.000000, 8230.000000, 8066.000000, 0.000000, 0.000000, 0.000000, -20111.000000, 204.102554, 4.000000, 4.000000, 4.000000, 4.000000, 4.000000, 4.000000, 4.000000, 4.000000, 0.000000, 4.000000, 4.000000, 4.000000, 4.000000, 4.000000, 4.000000, 4.000000
116.000000, 0.000000, 4229.230469, 4238.461426, 4210.769043, 4220.512695, 4217.436035, 4205.127930, 4200.000000, 4219.487305, 4202.563965, 4232.820313, 4215.897461, 4216.922852, 4206.666504, 4204.615234, 3522.000000, 8230.000000, 8066.000000, 0.000000, 0.000000, 0.000000, -20111.000000, 211.794861, 4.000000, 4.000000, 4.000000, 4.000000, 4.000000, 4.000000, 4.000000, 4.000000, 0.000000, 4.000000, 4.000000, 4.000000, 4.000000, 4.000000, 4.000000, 4.000000
117.000000, 0.000000, 4221.025391, 4243.589844, 4204.102539, 4207.179199, 4220.512695, 4201.538574, 4188.717773, 4212.820313, 4203.076660, 4232.820313, 4206.153809, 4209.230469, 4204.615234, 4201.538574, 3459.000000, 8233.000000, 8068.000000, 0.000000, 0.000000, 0.000000, -20111.000000, 220.000000, 4.000000, 4.000000, 4.000000, 4.000000, 4.000000, 4.000000, 4.000000, 4.000000, 0.000000, 4.000000, 4.000000, 4.000000, 4.000000, 4.000000, 4.000000, 4.000000
118.000000, 0.000000, 4216.922852, 4242.563965, 4198.974121, 4201.538574, 4211.794922, 4188.205078, 4180.000000, 4193.846191, 4202.051270, 4231.281738, 4200.000000, 4201.025391, 4204.615234, 4199.487305, 3589.000000, 8233.000000, 8068.000000, 0.000000, 0.000000, 0.000000, -20111.000000, 227.692307, 4.000000, 4.000000, 4.000000, 4.000000, 4.000000, 4.000000, 4.000000, 4.000000, 0.000000, 4.000000, 4.000000, 4.000000, 4.000000, 4.000000, 4.000000, 4.000000
119.000000, 0.000000, 4218.461426, 4241.025391, 4201.025391, 4209.743652, 4207.692383, 4187.179199, 4186.666504, 4203.589844, 4202.051270, 4218.974121, 4204.102539, 4202.051270, 4205.127930, 4201.538574, 3557.000000, 8230.000000, 8074.000000, 0.000000, 0.000000, 0.000000, -20111.000000, 235.384613, 4.000000, 4.000000, 4.000000, 4.000000, 4.000000, 4.000000, 4.000000, 4.000000, 0.000000, 4.000000, 4.000000, 4.000000, 4.000000, 4.000000, 4.000000, 4.000000
120.000000, 0.000000, 4217.436035, 4242.051270, 4202.051270, 4211.794922, 4210.769043, 4201.538574, 4191.281738, 4220.512695, 4202.051270, 4213.846191, 4202.051270, 4204.102539, 4205.127930, 4198.461426, 3522.000000, 8230.000000, 8074.000000, 0.000000, 0.000000, 0.000000, -20111.000000, 243.589737, 4.000000, 4.000000, 4.000000, 4.000000, 4.000000, 4.000000, 4.000000, 4.000000, 0.000000, 4.000000, 4.000000, 4.000000, 4.000000, 4.000000, 4.000000, 4.000000
121.000000, 0.000000, 4214.871582, 4244.615234, 4198.461426, 4205.641113, 4208.205078, 4200.000000, 4185.641113, 4206.666504, 4200.512695, 4218.974121, 4189.743652, 4201.025391, 4197.948730, 4190.256348, 3459.000000, 8232.000000, 8084.000000, 0.000000, 0.000000, 0.000000, -20111.000000, 251.282043, 4.000000, 4.000000, 4.000000, 4.000000, 4.000000, 4.000000, 4.000000, 4.000000, 0.000000, 4.000000, 4.000000, 4.000000, 4.000000, 4.000000, 4.000000, 4.000000
122.000000, 0.000000, 4206.153809, 4243.076660, 4191.281738, 4195.384277, 4206.666504, 4190.256348, 4190.769043, 4184.615234, 4201.025391, 4212.307617, 4182.051270, 4193.846191, 4185.641113, 4181.538574, 3589.000000, 8232.000000, 8084.000000, 0.000000, 0.000000, 0.000000, -20111.000000, 258.974365, 4.000000, 4.000000, 4.000000, 4.000000, 4.000000, 4.000000, 4.000000, 4.000000, 0.000000, 4.000000, 4.000000, 4.000000, 4.000000, 4.000000, 4.000000, 4.000000
123.000000, 0.000000, 4200.000000, 4237.948730, 4182.051270, 4187.179199, 4213.333008, 4195.897461, 4199.487305, 4181.025391, 4202.051270, 4203.076660, 4180.512695, 4184.102539, 4182.051270, 4174.871582, 3557.000000, 8230.000000, 8102.000000, 0.000000, 0.000000, 0.000000, -20111.000000, 266.666656, 4.000000, 4.000000, 4.000000, 4.000000, 4.000000, 4.000000, 4.000000, 4.000000, 0.000000, 4.000000, 4.000000, 4.000000, 4.000000, 4.000000, 4.000000, 4.000000
124.000000, 0.000000, 4204.615234, 4246.153809, 4185.641113, 4192.820313, 4216.922852, 4204.615234, 4194.358887, 4185.127930, 4203.076660, 4206.666504, 4181.025391, 4183.589844, 4187.179199, 4174.871582, 3522.000000, 8230.000000, 8102.000000, 0.000000, 0.000000, 0.000000, -20111.000000, 274.871796, 4.000000, 4.000000, 4.000000, 4.000000, 4.000000, 4.000000, 4.000000, 4.000000, 0.000000, 4.000000, 4.000000, 4.000000, 4.000000, 4.000000, 4.000000, 4.000000
125.000000, 0.000000, 4207.179199, 4253.846191, 4195.384277, 4200.000000, 4208.717773, 4209.230469, 4187.692383, 4186.666504, 4203.589844, 4207.692383, 4185.127930, 4193.846191, 4188.717773, 4176.922852, 3459.000000, 8234.000000, 8108.000000, 0.000000, 0.000000, 0.000000, -20111.000000, 283.076904, 4.000000, 4.000000, 4.000000, 4.000000, 4.000000, 4.000000, 4.000000, 4.000000, 0.000000, 4.000000, 4.000000, 4.000000, 4.000000, 4.000000, 4.000000, 4.000000
126.000000, 0.000000, 4202.051270, 4244.102539, 4193.846191, 4191.281738, 4199.487305, 4208.205078, 4189.743652, 4182.563965, 4201.538574, 4199.487305, 4180.000000, 4195.384277, 4186.153809, 4172.307617, 3589.000000, 8234.000000, 8108.000000, 0.000000, 0.000000, 0.000000, -20111.000000, 290.769226, 4.000000, 4.000000, 4.000000, 4.000000, 4.000000, 4.000000, 4.000000, 4.000000, 0.000000, 4.000000, 4.000000, 4.000000, 4.000000, 4.000000, 4.000000, 4.000000
127.000000, 0.000000, 4194.871582, 4236.410156, 4185.127930, 4181.025391, 4197.948730, 4197.436035, 4193.333008, 4181.025391, 4201.538574, 4200.000000, 4174.358887, 4191.281738, 4183.076660, 4168.717773, 56.000000, 8226.000000, 8111.000000, 0.000000, 0.000000, 0.000000, -20111.000000, 298.461517, 4.000000, 4.000000, 4.000000, 4.000000, 4.000000, 4.000000, 4.000000, 4.000000, 0.000000, 4.000000, 4.000000, 4.000000, 4.000000, 4.000000, 4.000000, 4.000000
0.000000, 0.000000, 4193.333008, 4238.974121, 4180.512695, 4183.076660, 4202.563965, 4190.769043, 4194.358887, 4192.820313, 4203.076660, 4214.358887, 4181.025391, 4189.743652, 4184.102539, 4171.281738, 3186.000000, 8226.000000, 8111.000000, 0.000000, 0.000000, 0.000000, -20111.000000, 306.666656, 4.000000, 4.000000, 4.000000, 4.000000, 4.000000, 4.000000, 4.000000, 4.000000, 0.000000, 4.000000, 4.000000, 4.000000, 4.000000, 4.000000, 4.000000, 4.000000
1.000000, 0.000000, 4197.436035, 4242.051270, 4183.076660, 4184.615234, 4204.615234, 4189.743652, 4190.769043, 4205.127930, 4202.051270, 4226.666504, 4186.153809, 4187.179199, 4189.743652, 4172.307617, 3548.000000, 8216.000000, 8116.000000, 0.000000, 0.000000, 0.000000, -20111.000000, 314.358978, 4.000000, 4.000000, 4.000000, 4.000000, 4.000000, 4.000000, 4.000000, 4.000000, 0.000000, 4.000000, 4.000000, 4.000000, 4.000000, 4.000000, 4.000000, 4.000000
2.000000, 0.000000, 4203.076660, 4241.025391, 4191.281738, 4191.281738, 4198.974121, 4186.153809, 4184.102539, 4206.666504, 4202.051270, 4232.307617, 4188.717773, 4191.281738, 4199.487305, 4178.461426, 3572.000000, 8216.000000, 8116.000000, 0.000000, 0.000000, 0.000000, -20111.000000, 322.051270, 4.000000, 4.000000, 4.000000, 4.000000, 4.000000, 4.000000, 4.000000, 4.000000, 0.000000, 4.000000, 4.000000, 4.000000, 4.000000, 4.000000, 4.000000, 4.000000
3.000000, 0.000000, 4208.717773, 4242.563965, 4194.871582, 4200.512695, 4202.563965, 4189.230469, 4183.076660, 4204.102539, 4202.563965, 4239.487305, 4201.025391, 4197.436035, 4209.743652, 4187.692383, 2528.000000, 8212.000000, 8121.000000, 0.000000, 0.000000, 0.000000, -20111.000000, 329.743591, 4.000000, 4.000000, 4.000000, 4.000000, 4.000000, 4.000000, 4.000000, 4.000000, 0.000000, 4.000000, 4.000000, 4.000000, 4.000000, 4.000000, 4.000000, 4.000000
4.000000, 0.000000, 4217.948730, 4247.692383, 4196.922852, 4202.051270, 4214.871582, 4201.538574, 4190.769043, 4203.076660, 4201.025391, 4236.922852, 4202.051270, 4194.358887, 4209.743652, 4186.153809, 3558.000000, 8212.000000, 8121.000000, 0.000000, 0.000000, 0.000000, -20111.000000, 337.948700, 4.000000, 4.000000, 4.000000, 4.000000, 4.000000, 4.000000, 4.000000, 4.000000, 0.000000, 4.000000, 4.000000, 4.000000, 4.000000, 4.000000, 4.000000, 4.000000
5.000000, 0.000000, 4217.948730, 4246.153809, 4196.922852, 4198.461426, 4215.897461, 4206.153809, 4193.846191, 4199.487305, 4201.025391, 4223.076660, 4189.230469, 4193.333008, 4202.051270, 4185.127930, 3578.000000, 8213.000000, 8144.000000, 0.000000, 0.000000, 0.000000, -20111.000000, 345.641022, 4.000000, 4.000000, 4.000000, 4.000000, 4.000000, 4.000000, 4.000000, 4.000000, 0.000000, 4.000000, 4.000000, 4.000000, 4.000000, 4.000000, 4.000000, 4.000000
6.000000, 0.000000, 4205.127930, 4238.461426, 4189.743652, 4191.794922, 4203.076660, 4196.922852, 4191.281738, 4188.205078, 4203.076660, 4211.794922, 4183.076660, 4198.974121, 4196.922852, 4188.205078, 3534.000000, 8213.000000, 8144.000000, 0.000000, 0.000000, 0.000000, -20111.000000, 353.333313, 4.000000, 4.000000, 4.000000, 4.000000, 4.000000, 4.000000, 4.000000, 4.000000, 0.000000, 4.000000, 4.000000, 4.000000, 4.000000, 4.000000, 4.000000, 4.000000
7.000000, 0.000000, 4204.615234, 4236.410156, 4188.205078, 4189.230469, 4197.948730, 4190.256348, 4192.820313, 4180.512695, 4203.589844, 4210.256348, 4185.127930, 4198.461426, 4194.358887, 4187.179199, 3493.000000, 8217.000000, 8151.000000, 0.000000, 0.000000, 0.000000, -20111.000000, 361.025635, 4.000000, 4.000000, 4.000000, 4.000000, 4.000000, 4.000000, 4.000000, 4.000000, 0.000000, 4.000000, 4.000000, 4.000000, 4.000000, 4.000000, 4.000000, 4.000000
8.000000, 0.000000, 4216.410156, 4242.051270, 4196.410156, 4200.000000, 4207.692383, 4197.436035, 4198.974121, 4187.692383, 4202.563965, 4217.436035, 4193.333008, 4201.025391, 4204.102539, 4192.820313, 0.000000, 8217.000000, 8151.000000, 0.000000, 0.000000, 0.000000, -20111.000000, 369.230774, 4.000000, 4.000000, 4.000000, 4.000000, 4.000000, 4.000000, 4.000000, 4.000000, 0.000000, 4.000000, 4.000000, 4.000000, 4.000000, 4.000000, 4.000000, 4.000000
9.000000, 0.000000, 4221.538574, 4246.153809, 4196.410156, 4205.641113, 4207.692383, 4200.512695, 4200.000000, 4196.410156, 4203.589844, 4231.281738, 4206.153809, 4207.692383, 4219.487305, 4207.179199, 3064.000000, 8208.000000, 8157.000000, 0.000000, 0.000000, 0.000000, -20111.000000, 377.435883, 4.000000, 4.000000, 4.000000, 4.000000, 4.000000, 4.000000, 4.000000, 4.000000, 0.000000, 4.000000, 4.000000, 4.000000, 4.000000, 4.000000, 4.000000, 4.000000
10.000000, 0.000000, 4215.384277, 4240.000000, 4185.127930, 4193.846191, 4202.051270, 4198.974121, 4201.538574, 4203.589844, 4203.076660, 4235.384277, 4204.102539, 4197.948730, 4215.384277, 4203.589844, 3589.000000, 8208.000000, 8157.000000, 0.000000, 0.000000, 0.000000, -20111.000000, 385.128204, 4.000000, 4.000000, 4.000000, 4.000000, 4.000000, 4.000000, 4.000000, 4.000000, 0.000000, 4.000000, 4.000000, 4.000000, 4.000000, 4.000000, 4.000000, 4.000000
11.000000, 0.000000, 4202.051270, 4231.281738, 4176.410156, 4186.666504, 4215.384277, 4210.769043, 4206.153809, 4216.922852, 4202.051270, 4223.589844, 4188.717773, 4178.461426, 4193.846191, 4181.025391, 3557.000000, 8201.000000, 8163.000000, 0.000000, 0.000000, 0.000000, -20111.000000, 392.820496, 4.000000, 4.000000, 4.000000, 4.000000, 4.000000, 4.000000, 4.000000, 4.000000, 0.000000, 4.000000, 4.000000, 4.000000, 4.000000, 4.000000, 4.000000, 4.000000
12.000000, 0.000000, 4184.615234, 4226.153809, 4169.230469, 4184.615234, 4217.948730, 4220.512695, 4204.102539, 4213.333008, 4202.051270, 4214.871582, 4172.820313, 4167.179199, 4180.000000, 4165.127930, 3524.000000, 8201.000000, 8163.000000, 0.000000, 0.000000, 0.000000, -20111.000000, 401.025635, 4.000000, 4.000000, 4.000000, 4.000000, 4.000000, 4.000000, 4.000000, 4.000000, 0.000000, 4.000000, 4.000000, 4.000000, 4.000000, 4.000000, 4.000000, 4.000000
13.000000, 0.000000, 4182.051270, 4224.102539, 4169.230469, 4181.025391, 4201.538574, 4217.436035, 4203.076660, 4198.461426, 4204.615234, 4218.974121, 4165.127930, 4168.717773, 4177.948730, 4163.589844, 3462.000000, 8193.000000, 8162.000000, 0.000000, 0.000000, 0.000000, -20111.000000, 408.717926, 4.000000, 4.000000, 4.000000, 4.000000, 4.000000, 4.000000, 4.000000, 4.000000, 0.000000, 4.000000, 4.000000, 4.000000, 4.000000, 4.000000, 4.000000, 4.000000
14.000000, 0.000000, 4202.051270, 4229.230469, 4184.102539, 4187.692383, 4209.743652, 4215.384277, 4205.641113, 4201.025391, 4204.615234, 4219.487305, 4175.384277, 4180.512695, 4187.692383, 4173.846191, 3589.000000, 8193.000000, 8162.000000, 0.000000, 0.000000, 0.000000, -20111.000000, 416.410248, 4.000000, 4.000000, 4.000000, 4.000000, 4.000000, 4.000000, 4.000000, 4.000000, 0.000000, 4.000000, 4.000000, 4.000000, 4.000000, 4.000000, 4.000000, 4.000000
15.000000, 0.000000, 4218.461426, 4237.436035, 4196.410156, 4198.974121, 4218.461426, 4202.051270, 4198.461426, 4195.384277, 4202.563965, 4215.897461, 4194.358887, 4196.922852, 4207.179199, 4194.358887, 3557.000000, 8192.000000, 8166.000000, 0.000000, 0.000000, 0.000000, -20111.000000, 424.615387, 4.000000, 4.000000, 4.000000, 4.000000, 4.000000, 4.000000, 4.000000, 4.000000, 0.000000, 4.000000, 4.000000, 4.000000, 4.000000, 4.000000, 4.000000, 4.000000
16.000000, 0.000000, 4225.641113, 4241.538574, 4201.538574, 4203.589844, 4202.563965, 4187.179199, 4188.717773, 4165.127930, 4202.563965, 4219.487305, 4206.666504, 4208.205078, 4226.153809, 4213.846191, 0.000000, 8192.000000, 8166.000000, 0.000000, 0.000000, 0.000000, -20111.000000, 432.307678, 4.000000, 4.000000, 4.000000, 4.000000, 4.000000, 4.000000, 4.000000, 4.000000, 0.000000, 4.000000, 4.000000, 4.000000, 4.000000, 4.000000, 4.000000, 4.000000
17.000000, 0.000000, 4233.846191, 4241.025391, 4206.666504, 4204.102539, 4204.102539, 4195.384277, 4185.641113, 4158.974121, 4203.076660, 4223.589844, 4213.333008, 4211.794922, 4236.922852, 4219.487305, 0.000000, 8196.000000, 8167.000000, 0.000000, 0.000000, 0.000000, -20111.000000, 440.512817, 4.000000, 4.000000, 4.000000, 4.000000, 4.000000, 4.000000, 4.000000, 4.000000, 0.000000, 4.000000, 4.000000, 4.000000, 4.000000, 4.000000, 4.000000, 4.000000
18.000000, 0.000000, 4233.333008, 4240.512695, 4201.538574, 4204.615234, 4218.974121, 4206.666504, 4189.230469, 4181.025391, 4202.563965, 4216.922852, 4210.256348, 4210.256348, 4232.307617, 4216.410156, 0.000000, 8196.000000, 8167.000000, 0.000000, 0.000000, 0.000000, -20111.000000, 448.205109, 4.000000, 4.000000, 4.000000, 4.000000, 4.000000, 4.000000, 4.000000, 4.000000, 0.000000, 4.000000, 4.000000, 4.000000, 4.000000, 4.000000, 4.000000, 4.000000
19.000000, 0.000000, 4221.538574, 4235.897461, 4191.794922, 4196.410156, 4211.281738, 4201.025391, 4196.922852, 4184.102539, 4202.563965, 4208.205078, 4200.000000, 4205.127930, 4217.436035, 4212.307617, 0.000000, 8194.000000, 8169.000000, 0.000000, 0.000000, 0.000000, -20111.000000, 455.897430, 4.000000, 4.000000, 4.000000, 4.000000, 4.000000, 4.000000, 4.000000, 4.000000, 0.000000, 4.000000, 4.000000, 4.000000, 4.000000, 4.000000, 4.000000, 4.000000
20.000000, 0.000000, 4216.922852, 4231.794922, 4192.820313, 4189.743652, 4201.538574, 4201.025391, 4205.127930, 4197.948730, 4202.563965, 4217.948730, 4201.538574, 4208.205078, 4220.000000, 4210.769043, 0.000000, 8194.000000, 8169.000000, 0.000000, 0.000000, 0.000000, -20111.000000, 464.102539, 4.000000, 4.000000, 4.000000, 4.000000, 4.000000, 4.000000, 4.000000, 4.000000, 0.000000, 4.000000, 4.000000, 4.000000, 4.000000, 4.000000, 4.000000, 4.000000
21.000000, 0.000000, 4220.512695, 4236.410156, 4190.256348, 4191.794922, 4203.589844, 4205.127930, 4206.153809, 4233.846191, 4202.563965, 4231.794922, 4205.641113, 4212.820313, 4222.051270, 4204.615234, 0.000000, 8191.000000, 8159.000000, 0.000000, 0.000000, 0.000000, -20111.000000, 471.794861, 4.000000, 4.000000, 4.000000, 4.000000, 4.000000, 4.000000, 4.000000, 4.000000, 0.000000, 4.000000, 4.000000, 4.000000, 4.000000, 4.000000, 4.000000, 4.000000
22.000000, 0.000000, 4214.358887, 4234.871582, 4188.717773, 4187.692383, 4200.000000, 4198.461426, 4201.025391, 4242.563965, 4202.563965, 4233.846191, 4196.410156, 4207.692383, 4205.641113, 4194.358887, 0.000000, 8191.000000, 8159.000000, 0.000000, 0.000000, 0.000000, -20111.000000, 479.487183, 4.000000, 4.000000, 4.000000, 4.000000, 4.000000, 4.000000, 4.000000, 4.000000, 0.000000, 4.000000, 4.000000, 4.000000, 4.000000, 4.000000, 4.000000, 4.000000
23.000000, 0.000000, 4212.820313, 4227.179199, 4201.538574, 4191.794922, 4199.487305, 4196.410156, 4202.051270, 4234.358887, 4202.563965, 4238.974121, 4202.563965, 4207.692383, 4216.410156, 4201.538574, 0.000000, 8195.000000, 8151.000000, 0.000000, 0.000000, 0.000000, -20111.000000, 487.692291, 4.000000, 4.000000, 4.000000, 4.000000, 4.000000, 4.000000, 4.000000, 4.000000, 0.000000, 4.000000, 4.000000, 4.000000, 4.000000, 4.000000, 4.000000, 4.000000
24.000000, 0.000000, 4226.666504, 4232.820313, 4216.410156, 4203.589844, 4203.076660, 4202.051270, 4205.641113, 4231.794922, 4202.563965, 4242.563965, 4220.512695, 4215.897461, 4250.256348, 4217.948730, 0.000000, 8195.000000, 8151.000000, 0.000000, 0.000000, 0.000000, -20111.000000, 495.384613, 4.000000, 4.000000, 4.000000, 4.000000, 4.000000, 4.000000, 4.000000, 4.000000, 0.000000, 4.000000, 4.000000, 4.000000, 4.000000, 4.000000, 4.000000, 4.000000
25.000000, 0.000000, 4234.871582, 4238.974121, 4212.820313, 4204.615234, 4198.974121, 4202.563965, 4206.666504, 4211.281738, 4202.563965, 4230.769043, 4220.000000, 4211.794922, 4254.358887, 4221.025391, 0.000000, 8190.000000, 8149.000000, 0.000000, 0.000000, 0.000000, -20111.000000, 503.589722, 4.000000, 4.000000, 4.000000, 4.000000, 4.000000, 4.000000, 4.000000, 4.000000, 0.000000, 4.000000, 4.000000, 4.000000, 4.000000, 4.000000, 4.000000, 4.000000
26.000000, 0.000000, 4229.743652, 4235.384277, 4203.076660, 4197.436035, 4197.436035, 4198.974121, 4197.948730, 4185.641113, 4202.563965, 4216.410156, 4211.281738, 4204.102539, 4246.666504, 4221.538574, 0.000000, 8190.000000, 8149.000000, 0.000000, 0.000000, 0.000000, -20111.000000, 511.282043, 4.000000, 4.000000, 4.000000, 4.000000, 4.000000, 4.000000, 4.000000, 4.000000, 0.000000, 4.000000, 4.000000, 4.000000, 4.000000, 4.000000, 4.000000, 4.000000
27.000000, 0.000000, 4229.230469, 4236.410156, 4207.179199, 4196.922852, 4207.179199, 4197.948730, 4186.666504, 4176.410156, 4202.563965, 4212.307617, 4214.358887, 4212.307617, 4260.000000, 4229.743652, 0.000000, 8185.000000, 8156.000000, 0.000000, 0.000000, 0.000000, -20111.000000, 518.974365, 4.000000, 4.000000, 4.000000, 4.000000, 4.000000, 4.000000, 4.000000, 4.000000, 0.000000, 4.000000, 4.000000, 4.000000, 4.000000, 4.000000, 4.000000, 4.000000
28.000000, 0.000000, 4240.000000, 4241.538574, 4214.358887, 4202.563965, 4217.436035, 4200.512695, 4192.820313, 4167.692383, 4202.563965, 4212.820313, 4231.281738, 4228.717773, 4268.717773, 4242.563965, 0.000000, 8185.000000, 8156.000000, 0.000000, 0.000000, 0.000000, -20111.000000, 527.179504, 4.000000, 4.000000, 4.000000, 4.000000, 4.000000, 4.000000, 4.000000, 4.000000, 0.000000, 4.000000, 4.000000, 4.000000, 4.000000, 4.000000, 4.000000, 4.000000
29.000000, 0.000000, 4250.769043, 4243.076660, 4221.538574, 4206.666504, 4220.000000, 4202.563965, 4198.974121, 4165.641113, 4202.563965, 4220.000000, 4249.743652, 4244.615234, 4263.589844, 4260.000000, 0.000000, 8178.000000, 8166.000000, 0.000000, 0.000000, 0.000000, -20111.000000, 534.871765, 4.000000, 4.000000, 4.000000, 4.000000, 4.000000, 4.000000, 4.000000, 4.000000, 0.000000, 4.000000, 4.000000, 4.000000, 4.000000, 4.000000, 4.000000, 4.000000
30.000000, 0.000000, 4255.384277, 4244.102539, 4227.692383, 4208.717773, 4217.436035, 4208.717773, 4193.333008, 4181.538574, 4202.563965, 4232.820313, 4255.384277, 4253.333008, 4254.358887, 4268.717773, 0.000000, 8178.000000, 8166.000000, 0.000000, 0.000000, 0.000000, -20111.000000, 542.564087, 4.000000, 4.000000, 4.000000, 4.000000, 4.000000, 4.000000, 4.000000, 4.000000, 0.000000, 4.000000, 4.000000, 4.000000, 4.000000, 4.000000, 4.000000, 4.000000
31.000000, 0.000000, 4250.769043, 4241.025391, 4221.538574, 4204.102539, 4215.897461, 4210.256348, 4193.333008, 4200.000000, 4202.563965, 4241.538574, 4252.307617, 4246.666504, 4236.410156, 4256.922852, 0.000000, 8177.000000, 8169.000000, 0.000000, 0.000000, 0.000000, -20111.000000, 550.256409, 4.000000, 4.000000, 4.000000, 4.000000, 4.000000, 4.000000, 4.000000, 4.000000, 0.000000, 4.000000, 4.000000, 4.000000, 4.000000, 4.000000, 4.000000, 4.000000
32.000000, 0.000000, 4236.410156, 4233.333008, 4207.179199, 4194.358887, 4218.461426, 4203.076660, 4206.153809, 4212.307617, 4202.563965, 4246.153809, 4249.743652, 4232.820313, 4213.846191, 4242.563965, 0.000000, 8177.000000, 8169.000000, 0.000000, 0.000000, 0.000000, -20111.000000, 558.461548, 4.000000, 4.000000, 4.000000, 4.000000, 4.000000, 4.000000, 4.000000, 4.000000, 0.000000, 4.000000, 4.000000, 4.000000, 4.000000, 4.000000, 4.000000, 4.000000
33.000000, 0.000000, 4220.512695, 4226.153809, 4192.820313, 4185.127930, 4210.769043, 4200.512695, 4210.769043, 4220.512695, 4202.563965, 4246.153809, 4240.512695, 4220.512695, 4200.512695, 4232.820313, 0.000000, 8171.000000, 8178.000000, 0.000000, 0.000000, 0.000000, -20111.000000, 566.153809, 4.000000, 4.000000, 4.000000, 4.000000, 4.000000, 4.000000, 4.000000, 4.000000, 0.000000, 4.000000, 4.000000, 4.000000, 4.000000, 4.000000, 4.000000, 4.000000
34.000000, 0.000000, 4215.897461, 4231.281738, 4188.717773, 4183.589844, 4203.076660, 4199.487305, 4204.102539, 4232.307617, 4202.563965, 4245.641113, 4232.820313, 4215.384277, 4200.000000, 4226.153809, 0.000000, 8171.000000, 8178.000000, 0.000000, 0.000000, 0.000000, -20111.000000, 573.846130, 4.000000, 4.000000, 4.000000, 4.000000, 4.000000, 4.000000, 4.000000, 4.000000, 0.000000, 4.000000, 4.000000, 4.000000, 4.000000, 4.000000, 4.000000, 4.000000
35.000000, 0.000000, 4217.948730, 4237.436035, 4191.794922, 4185.127930, 4205.127930, 4191.281738, 4201.025391, 4231.794922, 4202.563965, 4242.563965, 4230.769043, 4213.846191, 4195.897461, 4225.641113, 0.000000, 8173.000000, 8173.000000, 0.000000, 0.000000, 0.000000, -20111.000000, 582.051270, 4.000000, 4.000000, 4.000000, 4.000000, 4.000000, 4.000000, 4.000000, 4.000000, 0.000000, 4.000000, 4.000000, 4.000000, 4.000000, 4.000000, 4.000000, 4.000000
36.000000, 0.000000, 4221.025391, 4233.846191, 4196.410156, 4185.127930, 4203.076660, 4188.205078, 4197.436035, 4213.333008, 4202.563965, 4230.769043, 4226.666504, 4214.358887, 4188.717773, 4226.153809, 0.000000, 8173.000000, 8173.000000, 0.000000, 0.000000, 0.000000, -20111.000000, 589.743591, 4.000000, 4.000000, 4.000000, 4.000000, 4.000000, 4.000000, 4.000000, 4.000000, 0.000000, 4.000000, 4.000000, 4.000000, 4.000000, 4.000000, 4.000000, 4.000000
37.000000, 0.000000, 4237.436035, 4240.000000, 4209.743652, 4195.384277, 4208.205078, 4200.512695, 4191.281738, 4205.641113, 4202.563965, 4226.666504, 4230.769043, 4227.692383, 4196.410156, 4233.846191, 0.000000, 8179.000000, 8170.000000, 0.000000, 0.000000, 0.000000, -20111.000000, 597.948730, 4.000000, 4.000000, 4.000000, 4.000000, 4.000000, 4.000000, 4.000000, 4.000000, 0.000000, 4.000000, 4.000000, 4.000000, 4.000000, 4.000000, 4.000000, 4.000000
38.000000, 0.000000, 4251.281738, 4248.717773, 4216.410156, 4204.102539, 4217.436035, 4202.563965, 4188.205078, 4204.102539, 4202.563965, 4232.307617, 4239.487305, 4238.974121, 4207.179199, 4243.589844, 0.000000, 8179.000000, 8170.000000, 0.000000, 0.000000, 0.000000, -20111.000000, 605.640991, 4.000000, 4.000000, 4.000000, 4.000000, 4.000000, 4.000000, 4.000000, 4.000000, 0.000000, 4.000000, 4.000000, 4.000000, 4.000000, 4.000000, 4.000000, 4.000000
39.000000, 0.000000, 4240.512695, 4242.563965, 4203.589844, 4193.333008, 4208.717773, 4184.615234, 4193.846191, 4183.076660, 4202.563965, 4225.127930, 4228.717773, 4229.230469, 4200.000000, 4237.436035, 0.000000, 8181.000000, 8164.000000, 0.000000, 0.000000, 0.000000, -20111.000000, 613.333313, 4.000000, 4.000000, 4.000000, 4.000000, 4.000000, 4.000000, 4.000000, 4.000000, 0.000000, 4.000000, 4.000000, 4.000000, 4.000000, 4.000000, 4.000000, 4.000000
40.000000, 0.000000, 4230.256348, 4232.820313, 4190.256348, 4183.076660, 4197.436035, 4177.948730, 4201.025391, 4178.974121, 4202.563965, 4212.820313, 4213.333008, 4212.820313, 4193.846191, 4224.615234, 0.000000, 8181.000000, 8164.000000, 0.000000, 0.000000, 0.000000, -20111.000000, 621.538452, 4.000000, 4.000000, 4.000000, 4.000000, 4.000000, 4.000000, 4.000000, 4.000000, 0.000000, 4.000000, 4.000000, 4.000000, 4.000000, 4.000000, 4.000000, 4.000000
41.000000, 0.000000, 4230.256348, 4229.230469, 4187.692383, 4185.127930, 4200.512695, 4191.281738, 4203.076660, 4197.436035, 4202.563965, 4209.743652, 4214.358887, 4205.641113, 4200.000000, 4215.897461, 0.000000, 8187.000000, 8153.000000, 0.000000, 0.000000, 0.000000, -20111.000000, 629.230774, 4.000000, 4.000000, 4.000000, 4.000000, 4.000000, 4.000000, 4.000000, 4.000000, 0.000000, 4.000000, 4.000000, 4.000000, 4.000000, 4.000000, 4.000000, 4.000000
42.000000, 0.000000, 4224.615234, 4226.666504, 4184.102539, 4182.051270, 4198.974121, 4205.641113, 4203.076660, 4202.051270, 4202.563965, 4206.153809, 4213.333008, 4201.025391, 4196.922852, 4207.179199, 0.000000, 8187.000000, 8153.000000, 0.000000, 0.000000, 0.000000, -20111.000000, 636.923035, 4.000000, 4.000000, 4.000000, 4.000000, 4.000000, 4.000000, 4.000000, 4.000000, 0.000000, 4.000000, 4.000000, 4.000000, 4.000000, 4.000000, 4.000000, 4.000000
43.000000, 0.000000, 4211.281738, 4221.025391, 4175.897461, 4171.281738, 4196.922852, 4200.512695, 4202.051270, 4194.871582, 4203.076660, 4200.000000, 4201.025391, 4191.281738, 4185.641113, 4197.948730, 0.000000, 8192.000000, 8150.000000, 0.000000, 0.000000, 0.000000, -20111.000000, 645.128174, 4.000000, 4.000000, 4.000000, 4.000000, 4.000000, 4.000000, 4.000000, 4.000000, 0.000000, 4.000000, 4.000000, 4.000000, 4.000000, 4.000000, 4.000000, 4.000000
44.000000, 0.000000, 4202.051270, 4213.333008, 4171.281738, 4166.666504, 4204.102539, 4190.769043, 4207.179199, 4195.384277, 4202.563965, 4204.102539, 4195.384277, 4184.615234, 4185.127930, 4195.384277, 0.000000, 8192.000000, 8150.000000, 0.000000, 0.000000, 0.000000, -20111.000000, 652.820496, 4.000000, 4.000000, 4.000000, 4.000000, 4.000000, 4.000000, 4.000000, 4.000000, 0.000000, 4.000000, 4.000000, 4.000000, 4.000000, 4.000000, 4.000000, 4.000000
45.000000, 0.000000, 4207.692383, 4215.897461, 4177.948730, 4171.794922, 4205.127930, 4197.948730, 4215.384277, 4210.256348, 4202.563965, 4220.512695, 4207.692383, 4193.846191, 4200.000000, 4204.102539, 0.000000, 8208.000000, 8142.000000, 0.000000, 0.000000, 0.000000, -20111.000000, 661.025635, 4.000000, 4.000000, 4.000000, 4.000000, 4.000000, 4.000000, 4.000000, 4.000000, 0.000000, 4.000000, 4.000000, 4.000000, 4.000000, 4.000000, 4.000000, 4.000000
46.000000, 0.000000, 4225.127930, 4225.127930, 4190.256348, 4180.000000, 4199.487305, 4208.205078, 4217.948730, 4231.281738, 4204.615234, 4234.871582, 4225.127930, 4209.230469, 4217.948730, 4216.410156, 0.000000, 8208.000000, 8142.000000, 0.000000, 0.000000, 0.000000, -20111.000000, 668.717957, 4.000000, 4.000000, 4.000000, 4.000000, 4.000000, 4.000000, 4.000000, 4.000000, 0.000000, 4.000000, 4.000000, 4.000000, 4.000000, 4.000000, 4.000000, 4.000000
47.000000, 0.000000, 4234.871582, 4227.692383, 4194.358887, 4184.615234, 4200.000000, 4207.179199, 4219.487305, 4239.487305, 4205.127930, 4235.897461, 4233.846191, 4215.897461, 4227.692383, 4222.563965, 0.000000, 8221.000000, 8135.000000, 0.000000, 0.000000, 0.000000, -20111.000000, 676.410217, 4.000000, 4.000000, 4.000000, 4.000000, 4.000000, 4.000000, 4.000000, 4.000000, 0.000000, 4.000000, 4.000000, 4.000000, 4.000000, 4.000000, 4.000000, 4.000000
48.000000, 0.000000, 4232.820313, 4230.256348, 4193.846191, 4186.666504, 4206.153809, 4203.076660, 4216.922852, 4226.153809, 4205.127930, 4233.333008, 4232.820313, 4220.512695, 4231.281738, 4225.641113, 0.000000, 8221.000000, 8135.000000, 0.000000, 0.000000, 0.000000, -20111.000000, 684.615356, 4.000000, 4.000000, 4.000000, 4.000000, 4.000000, 4.000000, 4.000000, 4.000000, 0.000000, 4.000000, 4.000000, 4.000000, 4.000000, 4.000000, 4.000000, 4.000000
49.000000, 0.000000, 4233.846191, 4233.846191, 4197.948730, 4188.717773, 4203.076660, 4201.025391, 4206.153809, 4206.153809, 4203.589844, 4232.820313, 4230.256348, 4225.127930, 4232.820313, 4229.743652, 0.000000, 8256.000000, 8129.000000, 0.000000, 0.000000, 0.000000, -20111.000000, 692.307678, 4.000000, 4.000000, 4.000000, 4.000000, 4.000000, 4.000000, 4.000000, 4.000000, 0.000000, 4.000000, 4.000000, 4.000000, 4.000000, 4.000000, 4.000000, 4.000000
50.000000, 0.000000, 4233.333008, 4226.153809, 4198.974121, 4191.281738, 4195.897461, 4197.436035, 4199.487305, 4195.897461, 4202.051270, 4231.281738, 4229.230469, 4226.153809, 4229.230469, 4228.205078, 0.000000, 8256.000000, 8129.000000, 0.000000, 0.000000, 0.000000, -20111.000000, 700.000000, 4.000000, 4.000000, 4.000000, 4.000000, 4.000000, 4.000000, 4.000000, 4.000000, 0.000000, 4.000000, 4.000000, 4.000000, 4.000000, 4.000000, 4.000000, 4.000000
51.000000, 0.000000, 4228.717773, 4222.051270, 4198.974121, 4190.769043, 4205.641113, 4200.000000, 4203.076660, 4201.025391, 4202.051270, 4237.948730, 4231.794922, 4229.230469, 4228.717773, 4228.205078, 0.000000, 8272.000000, 8119.000000, 0.000000, 0.000000, 0.000000, -20111.000000, 707.692261, 4.000000, 4.000000, 4.000000, 4.000000, 4.000000, 4.000000, 4.000000, 4.000000, 0.000000, 4.000000, 4.000000, 4.000000, 4.000000, 4.000000, 4.000000, 4.000000
52.000000, 0.000000, 4237.436035, 4235.384277, 4206.666504, 4188.717773, 4223.076660, 4202.051270, 4203.076660, 4205.127930, 4202.051270, 4252.307617, 4235.384277, 4236.922852, 4241.538574, 4235.897461, 0.000000, 8272.000000, 8119.000000, 0.000000, 0.000000, 0.000000, -20111.000000, 715.897400, 4.000000, 4.000000, 4.000000, 4.000000, 4.000000, 4.000000, 4.000000, 4.000000, 0.000000, 4.000000, 4.000000, 4.000000, 4.000000, 4.000000, 4.000000, 4.000000
53.000000, 0.000000, 4245.641113, 4235.384277, 4207.692383, 4192.307617, 4213.846191, 4188.717773, 4200.000000, 4200.000000, 4202.051270, 4254.358887, 4236.410156, 4236.922852, 4250.256348, 4236.410156, 0.000000, 8290.000000, 8134.000000, 0.000000, 0.000000, 0.000000, -20111.000000, 724.102539, 4.000000, 4.000000, 4.000000, 4.000000, 4.000000, 4.000000, 4.000000, 4.000000, 0.000000, 4.000000, 4.000000, 4.000000, 4.000000, 4.000000, 4.000000, 4.000000
54.000000, 0.000000, 4238.974121, 4222.051270, 4201.538574, 4198.974121, 4196.410156, 4180.512695, 4196.410156, 4204.615234, 4201.538574, 4251.281738, 4240.512695, 4231.281738, 4248.717773, 4235.384277, 0.000000, 8290.000000, 8134.000000, 0.000000, 0.000000, 0.000000, -20111.000000, 731.794861, 4.000000, 4.000000, 4.000000, 4.000000, 4.000000, 4.000000, 4.000000, 4.000000, 0.000000, 4.000000, 4.000000, 4.000000, 4.000000, 4.000000, 4.000000, 4.000000
55.000000, 0.000000, 4240.512695, 4224.615234, 4204.102539, 4199.487305, 4202.563965, 4194.358887, 4200.512695, 4212.820313, 4202.563965, 4256.922852, 4248.717773, 4238.974121, 4256.922852, 4242.051270, 0.000000, 8287.000000, 8154.000000, 0.000000, 0.000000, 0.000000, -20111.000000, 739.487183, 4.000000, 4.000000, 4.000000, 4.000000, 4.000000, 4.000000, 4.000000, 4.000000, 0.000000, 4.000000, 4.000000, 4.000000, 4.000000, 4.000000, 4.000000, 4.000000
56.000000, 0.000000, 4245.641113, 4229.743652, 4205.641113, 4190.256348, 4200.000000, 4200.512695, 4212.820313, 4223.076660, 4203.589844, 4255.897461, 4246.666504, 4244.615234, 4262.051270, 4244.102539, 0.000000, 8287.000000, 8154.000000, 0.000000, 0.000000, 0.000000, -20111.000000, 747.179443, 4.000000, 4.000000, 4.000000, 4.000000, 4.000000, 4.000000, 4.000000, 4.000000, 0.000000, 4.000000, 4.000000, 4.000000, 4.000000, 4.000000, 4.000000, 4.000000
57.000000, 0.000000, 4236.410156, 4220.512695, 4198.974121, 4184.102539, 4185.127930, 4188.717773, 4211.794922, 4234.358887, 4203.589844, 4247.692383, 4236.410156, 4233.846191, 4253.333008, 4234.871582, 0.000000, 8277.000000, 8172.000000, 0.000000, 0.000000, 0.000000, -20111.000000, 755.384583, 4.000000, 4.000000, 4.000000, 4.000000, 4.000000, 4.000000, 4.000000, 4.000000, 0.000000, 4.000000, 4.000000, 4.000000, 4.000000, 4.000000, 4.000000, 4.000000
58.000000, 0.000000, 4228.205078, 4212.307617, 4193.333008, 4184.615234, 4201.025391, 4193.333008, 4197.436035, 4224.615234, 4202.051270, 4249.743652, 4233.846191, 4224.102539, 4247.179199, 4227.179199, 0.000000, 8277.000000, 8172.000000, 0.000000, 0.000000, 0.000000, -20111.000000, 763.076904, 4.000000, 4.000000, 4.000000, 4.000000, 4.000000, 4.000000, 4.000000, 4.000000, 0.000000, 4.000000, 4.000000, 4.000000, 4.000000, 4.000000, 4.000000, 4.000000
59.000000, 0.000000, 4225.127930, 4211.281738, 4190.769043, 4184.615234, 4228.205078, 4202.563965, 4193.846191, 4202.563965, 4202.051270, 4248.205078, 4231.794922, 4221.025391, 4242.051270, 4218.974121, 0.000000, 8266.000000, 8184.000000, 0.000000, 0.000000, 0.000000, -20111.000000, 770.769226, 4.000000, 4.000000, 4.000000, 4.000000, 4.000000, 4.000000, 4.000000, 4.000000, 0.000000, 4.000000, 4.000000, 4.000000, 4.000000, 4.000000, 4.000000, 4.000000
60.000000, 0.000000, 4216.922852, 4211.794922, 4187.179199, 4181.025391, 4219.487305, 4190.769043, 4201.025391, 4208.205078, 4202.051270, 4238.974121, 4225.127930, 4213.846191, 4230.256348, 4212.307617, 0.000000, 8266.000000, 8184.000000, 0.000000, 0.000000, 0.000000, -20111.000000, 778.974365, 4.000000, 4.000000, 4.000000, 4.000000, 4.000000, 4.000000, 4.000000, 4.000000, 0.000000, 4.000000, 4.000000, 4.000000, 4.000000, 4.000000, 4.000000, 4.000000
61.000000, 0.000000, 4221.025391, 4210.769043, 4185.127930, 4182.563965, 4201.025391, 4186.153809, 4202.563965, 4226.666504, 4202.563965, 4242.051270, 4225.641113, 4211.794922, 4235.897461, 4215.897461, 0.000000, 8246.000000, 8196.000000, 0.000000, 0.000000, 0.000000, -20111.000000, 786.666626, 4.000000, 4.000000, 4.000000, 4.000000, 4.000000, 4.000000, 4.000000, 4.000000, 0.000000, 4.000000, 4.000000, 4.000000, 4.000000, 4.000000, 4.000000, 4.000000
62.000000, 0.000000, 4231.794922, 4212.307617, 4191.281738, 4186.666504, 4203.589844, 4193.333008, 4198.974121, 4213.333008, 4203.589844, 4245.641113, 4232.307617, 4216.410156, 4246.153809, 4220.000000, 0.000000, 8246.000000, 8196.000000, 0.000000, 0.000000, 0.000000, -20111.000000, 794.358948, 4.000000, 4.000000, 4.000000, 4.000000, 4.000000, 4.000000, 4.000000, 4.000000, 0.000000, 4.000000, 4.000000, 4.000000, 4.000000, 4.000000, 4.000000, 4.000000
63.000000, 0.000000, 4225.127930, 4211.794922, 4195.384277, 4185.641113, 4205.641113, 4190.256348, 4197.948730, 4203.589844, 4203.076660, 4235.384277, 4230.256348, 4215.897461, 4238.461426, 4217.948730, 0.000000, 8189.000000, 8215.000000, 0.000000, 0.000000, 0.000000, -20111.000000, 802.564087, 4.000000, 4.000000, 4.000000, 4.000000, 4.000000, 4.000000, 4.000000, 4.000000, 0.000000, 4.000000, 4.000000, 4.000000, 4.000000, 4.000000, 4.000000, 4.000000
64.000000, 0.000000, 4216.922852, 4204.615234, 4189.743652, 4185.127930, 4197.436035, 4191.281738, 4199.487305, 4216.410156, 4202.051270, 4232.307617, 4220.512695, 4211.281738, 4230.256348, 4215.897461, 3188.000000, 8189.000000, 8215.000000, 0.000000, 0.000000, 0.000000, -20111.000000, 810.769226, 4.000000, 4.000000, 4.000000, 4.000000, 4.000000, 4.000000, 4.000000, 4.000000, 0.000000, 4.000000, 4.000000, 4.000000, 4.000000, 4.000000, 4.000000, 4.000000
65.000000, 0.000000, 4217.948730, 4199.487305, 4183.076660, 4183.076660, 4195.384277, 4202.051270, 4202.051270, 4215.897461, 4203.076660, 4233.846191, 4215.897461, 4206.153809, 4225.641113, 4208.205078, 3549.000000, 8159.000000, 8224.000000, 0.000000, 0.000000, 0.000000, -20111.000000, 818.461548, 4.000000, 4.000000, 4.000000, 4.000000, 4.000000, 4.000000, 4.000000, 4.000000, 0.000000, 4.000000, 4.000000, 4.000000, 4.000000, 4.000000, 4.000000, 4.000000
66.000000, 0.000000, 4216.410156, 4201.025391, 4181.025391, 4173.846191, 4202.051270, 4202.051270, 4200.512695, 4200.512695, 4202.563965, 4222.051270, 4217.436035, 4201.538574, 4215.897461, 4200.512695, 3572.000000, 8159.000000, 8224.000000, 0.000000, 0.000000, 0.000000, -20111.000000, 826.153809, 4.000000, 4.000000, 4.000000, 4.000000, 4.000000, 4.000000, 4.000000, 4.000000, 0.000000, 4.000000, 4.000000, 4.000000, 4.000000, 4.000000, 4.000000, 4.000000
67.000000, 0.000000, 4213.846191, 4197.948730, 4183.076660, 4169.230469, 4206.153809, 4196.922852, 4201.538574, 4196.410156, 4200.512695, 4212.820313, 4215.897461, 4200.000000, 4211.794922, 4198.974121, 2543.000000, 8129.000000, 8227.000000, 0.000000, 0.000000, 0.000000, -20111.000000, 834.358948, 4.000000, 4.000000, 4.000000, 4.000000, 4.000000, 4.000000, 4.000000, 4.000000, 0.000000, 4.000000, 4.000000, 4.000000, 4.000000, 4.000000, 4.000000, 4.000000
68.000000, 0.000000, 4212.307617, 4192.820313, 4183.076660, 4173.333008, 4198.974121, 4197.948730, 4202.563965, 4199.487305, 4202.051270, 4214.871582, 4211.281738, 4203.076660, 4213.333008, 4201.025391, 3546.000000, 8129.000000, 8227.000000, 0.000000, 0.000000, 0.000000, -20111.000000, 842.051270, 4.000000, 4.000000, 4.000000, 4.000000, 4.000000, 4.000000, 4.000000, 4.000000, 0.000000, 4.000000, 4.000000, 4.000000, 4.000000, 4.000000, 4.000000, 4.000000
69.000000, 0.000000, 4218.461426, 4197.436035, 4185.641113, 4179.487305, 4202.563965, 4202.051270, 4198.974121, 4204.615234, 4202.563965, 4217.436035, 4215.897461, 4213.333008, 4213.333008, 4208.205078, 3579.000000, 8090.000000, 8236.000000, 0.000000, 0.000000, 0.000000, -20111.000000, 850.256409, 4.000000, 4.000000, 4.000000, 4.000000, 4.000000, 4.000000, 4.000000, 4.000000, 0.000000, 4.000000, 4.000000, 4.000000, 4.000000, 4.000000, 4.000000, 4.000000
70.000000, 0.000000, 4231.794922, 4198.974121, 4198.461426, 4184.615234, 4213.846191, 4199.487305, 4202.051270, 4214.871582, 4201.025391, 4217.436035, 4224.102539, 4221.025391, 4216.410156, 4217.948730, 3453.000000, 8090.000000, 8236.000000, 0.000000, 0.000000, 0.000000, -20111.000000, 857.948669, 4.000000, 4.000000, 4.000000, 4.000000, 4.000000, 4.000000, 4.000000, 4.000000, 0.000000, 4.000000, 4.000000, 4.000000, 4.000000, 4.000000, 4.000000, 4.000000
71.000000, 0.000000, 4227.692383, 4185.641113, 4200.000000, 4178.461426, 4199.487305, 4189.230469, 4202.563965, 4216.922852, 4202.051270, 4214.358887, 4220.000000, 4217.436035, 4215.897461, 4215.897461, 3499.000000, 8094.000000, 8227.000000, 0.000000, 0.000000, 0.000000, -20111.000000, 865.640991, 4.000000, 4.000000, 4.000000, 4.000000, 4.000000, 4.000000, 4.000000, 4.000000, 0.000000, 4.000000, 4.000000, 4.000000, 4.000000, 4.000000, 4.000000, 4.000000
72.000000, 0.000000, 4216.922852, 4184.102539, 4191.794922, 4169.743652, 4187.692383, 4189.743652, 4200.512695, 4217.948730, 4204.615234, 4212.820313, 4215.897461, 4214.871582, 4212.307617, 4211.794922, 0.000000, 8094.000000, 8227.000000, 0.000000, 0.000000, 0.000000, -20111.000000, 873.846130, 4.000000, 4.000000, 4.000000, 4.000000, 4.000000, 4.000000, 4.000000, 4.000000, 0.000000, 4.000000, 4.000000, 4.000000, 4.000000, 4.000000, 4.000000, 4.000000
73.000000, 0.000000, 4224.615234, 4192.820313, 4195.897461, 4181.025391, 4206.153809, 4204.615234, 4203.589844, 4223.076660, 4205.127930, 4217.436035, 4225.641113, 4222.051270, 4221.025391, 4219.487305, 2999.000000, 8100.000000, 8173.000000, 0.000000, 0.000000, 0.000000, -20111.000000, 881.538452, 4.000000, 4.000000, 4.000000, 4.000000, 4.000000, 4.000000, 4.000000, 4.000000, 0.000000, 4.000000, 4.000000, 4.000000, 4.000000, 4.000000, 4.000000, 4.000000
74.000000, 0.000000, 4225.641113, 4187.179199, 4196.410156, 4187.179199, 4211.281738, 4201.538574, 4202.563965, 4222.051270, 4202.563965, 4217.436035, 4227.692383, 4221.025391, 4226.153809, 4216.410156, 3584.000000, 8100.000000, 8173.000000, 0.000000, 0.000000, 0.000000, -20111.000000, 889.230774, 4.000000, 4.000000, 4.000000, 4.000000, 4.000000, 4.000000, 4.000000, 4.000000, 0.000000, 4.000000, 4.000000, 4.000000, 4.000000, 4.000000, 4.000000, 4.000000
75.000000, 0.000000, 4210.256348, 4178.974121, 4182.563965, 4170.256348, 4195.384277, 4184.102539, 4194.871582, 4217.948730, 4202.563965, 4211.794922, 4216.410156, 4210.256348, 4217.948730, 4202.051270, 3557.000000, 8122.000000, 8139.000000, 0.000000, 0.000000, 0.000000, -20111.000000, 896.923035, 4.000000, 4.000000, 4.000000, 4.000000, 4.000000, 4.000000, 4.000000, 4.000000, 0.000000, 4.000000, 4.000000, 4.000000, 4.000000, 4.000000, 4.000000, 4.000000
76.000000, 0.000000, 4208.717773, 4177.948730, 4177.948730, 4165.127930, 4199.487305, 4191.794922, 4197.436035, 4211.794922, 4203.076660, 4212.820313, 4212.307617, 4202.051270, 4213.846191, 4197.948730, 3523.000000, 8122.000000, 8139.000000, 0.000000, 0.000000, 0.000000, -20111.000000, 905.128174, 4.000000, 4.000000, 4.000000, 4.000000, 4.000000, 4.000000, 4.000000, 4.000000, 0.000000, 4.000000, 4.000000, 4.000000, 4.000000, 4.000000, 4.000000, 4.000000
77.000000, 0.000000, 4218.974121, 4183.589844, 4186.153809, 4177.948730, 4200.512695, 4203.589844, 4200.512695, 4211.794922, 4202.563965, 4216.410156, 4211.794922, 4201.025391, 4223.076660, 4197.436035, 3462.000000, 8150.000000, 8112.000000, 0.000000, 0.000000, 0.000000, -20111.000000, 912.820496, 4.000000, 4.000000, 4.000000, 4.000000, 4.000000, 4.000000, 4.000000, 4.000000, 0.000000, 4.000000, 4.000000, 4.000000, 4.000000, 4.000000, 4.000000, 4.000000
78.000000, 0.000000, 4220.000000, 4195.384277, 4186.666504, 4183.589844, 4188.717773, 4191.281738, 4196.410156, 4216.410156, 4201.538574, 4213.333008, 4207.692383, 4202.563965, 4230.769043, 4191.794922, 3584.000000, 8150.000000, 8112.000000, 0.000000, 0.000000, 0.000000, -20111.000000, 920.512817, 4.000000, 4.000000, 4.000000, 4.000000, 4.000000, 4.000000, 4.000000, 4.000000, 0.000000, 4.000000, 4.000000, 4.000000, 4.000000, 4.000000, 4.000000, 4.000000
79.000000, 0.000000, 4217.948730, 4197.436035, 4182.051270, 4182.051270, 4203.589844, 4186.666504, 4199.487305, 4209.743652, 4202.563965, 4213.333008, 4203.589844, 4196.922852, 4226.153809, 4187.179199, 3557.000000, 8209.000000, 8055.000000, 0.000000, 0.000000, 0.000000, -20111.000000, 928.717896, 4.000000, 4.000000, 4.000000, 4.000000, 4.000000, 4.000000, 4.000000, 4.000000, 0.000000, 4.000000, 4.000000, 4.000000, 4.000000, 4.000000, 4.000000, 4.000000
80.000000, 0.000000, 4216.922852, 4188.717773, 4186.666504, 4182.563965, 4217.436035, 4200.000000, 4206.153809, 4200.512695, 4203.076660, 4214.871582, 4199.487305, 4189.230469, 4221.025391, 4183.589844, 3523.000000, 8209.000000, 8055.000000, 0.000000, 0.000000, 0.000000, -20111.000000, 936.410217, 4.000000, 4.000000, 4.000000, 4.000000, 4.000000, 4.000000, 4.000000, 4.000000, 0.000000, 4.000000, 4.000000, 4.000000, 4.000000, 4.000000, 4.000000, 4.000000
81.000000, 0.000000, 4221.538574, 4190.256348, 4193.333008, 4184.102539, 4208.205078, 4208.205078, 4207.692383, 4205.127930, 4201.538574, 4215.897461, 4203.589844, 4196.410156, 4229.743652, 4187.692383, 3462.000000, 8246.000000, 8035.000000, 0.000000, 0.000000, 0.000000, -20111.000000, 944.615356, 4.000000, 4.000000, 4.000000, 4.000000, 4.000000, 4.000000, 4.000000, 4.000000, 0.000000, 4.000000, 4.000000, 4.000000, 4.000000, 4.000000, 4.000000, 4.000000
82.000000, 0.000000, 4230.256348, 4200.000000, 4195.897461, 4187.692383, 4214.358887, 4213.846191, 4213.846191, 4221.538574, 4202.563965, 4222.563965, 4215.384277, 4212.307617, 4243.076660, 4197.436035, 3584.000000, 8246.000000, 8035.000000, 0.000000, 0.000000, 0.000000, -20111.000000, 952.307678, 4.000000, 4.000000, 4.000000, 4.000000, 4.000000, 4.000000, 4.000000, 4.000000, 0.000000, 4.000000, 4.000000, 4.000000, 4.000000, 4.000000, 4.000000, 4.000000
83.000000, 0.000000, 4225.641113, 4194.358887, 4195.897461, 4186.666504, 4218.461426, 4215.897461, 4217.948730, 4228.205078, 4204.102539, 4233.846191, 4212.307617, 4211.281738, 4239.487305, 4193.846191, 3557.000000, 8303.000000, 8034.000000, 0.000000, 0.000000, 0.000000, -20111.000000, 960.000000, 4.000000, 4.000000, 4.000000, 4.000000, 4.000000, 4.000000, 4.000000, 4.000000, 0.000000, 4.000000, 4.000000, 4.000000, 4.000000, 4.000000, 4.000000, 4.000000
84.000000, 0.000000, 4214.871582, 4186.153809, 4191.281738, 4178.974121, 4198.974121, 4205.641113, 4209.743652, 4210.769043, 4203.076660, 4233.333008, 4201.025391, 4200.512695, 4227.692383, 4182.563965, 3523.000000, 8303.000000, 8034.000000, 0.000000, 0.000000, 0.000000, -20111.000000, 968.205078, 4.000000, 4.000000, 4.000000, 4.000000, 4.000000, 4.000000, 4.000000, 4.000000, 0.000000, 4.000000, 4.000000, 4.000000, 4.000000, 4.000000, 4.000000, 4.000000
85.000000, 0.000000, 4209.743652, 4190.256348, 4185.127930, 4176.922852, 4196.922852, 4197.436035, 4200.512695, 4194.358887, 4202.563965, 4217.436035, 4196.410156, 4195.384277, 4216.410156, 4178.974121, 3462.000000, 8337.000000, 8027.000000, 0.000000, 0.000000, 0.000000, -20111.000000, 975.897400, 4.000000, 4.000000, 4.000000, 4.000000, 4.000000, 4.000000, 4.000000, 4.000000, 0.000000, 4.000000, 4.000000, 4.000000, 4.000000, 4.000000, 4.000000, 4.000000
86.000000, 0.000000, 4214.871582, 4193.846191, 4189.230469, 4183.076660, 4217.436035, 4198.974121, 4198.461426, 4206.153809, 4203.589844, 4215.897461, 4196.922852, 4195.384277, 4215.384277, 4181.538574, 3584.000000, 8337.000000, 8027.000000, 0.000000, 0.000000, 0.000000, -20111.000000, 983.589722, 4.000000, 4.000000, 4.000000, 4.000000, 4.000000, 4.000000, 4.000000, 4.000000, 0.000000, 4.000000, 4.000000, 4.000000, 4.000000, 4.000000, 4.000000, 4.000000
87.000000, 0.000000, 4226.666504, 4202.051270, 4198.974121, 4189.230469, 4223.076660, 4205.127930, 4197.436035, 4224.102539, 4203.589844, 4233.846191, 4203.589844, 4203.076660, 4228.717773, 4190.256348, 3557.000000, 8407.000000, 8033.000000, 0.000000, 0.000000, 0.000000, -20111.000000, 991.794861, 4.000000, 4.000000, 4.000000, 4.000000, 4.000000, 4.000000, 4.000000, 4.000000, 0.000000, 4.000000, 4.000000, 4.000000, 4.000000, 4.000000, 4.000000, 4.000000
88.000000, 0.000000, 4227.179199, 4206.666504, 4194.871582, 4188.717773, 4211.281738, 4208.717773, 4195.897461, 4215.897461, 4203.076660, 4233.846191, 4208.205078, 4207.692383, 4233.846191, 4192.820313, 3523.000000, 8407.000000, 8033.000000, 0.000000, 0.000000, 0.000000, -20111.000000, 999.487183, 4.000000, 4.000000, 4.000000, 4.000000, 4.000000, 4.000000, 4.000000, 4.000000, 0.000000, 4.000000, 4.000000, 4.000000, 4.000000, 4.000000, 4.000000, 4.000000
89.000000, 0.000000, 4213.333008, 4198.974121, 4181.538574, 4181.538574, 4204.615234, 4202.051270, 4198.461426, 4199.487305, 4202.563965, 4216.922852, 4200.000000, 4199.487305, 4222.051270, 4184.615234, 3462.000000, 8435.000000, 8052.000000, 0.000000, 0.000000, 0.000000, -20110.000000, 7.692307, 4.000000, 4.000000, 4.000000, 4.000000, 4.000000, 4.000000, 4.000000, 4.000000, 0.000000, 4.000000, 4.000000, 4.000000, 4.000000, 4.000000, 4.000000, 4.000000
90.000000, 0.000000, 4213.333008, 4202.051270, 4186.153809, 4180.512695, 4213.846191, 4195.384277, 4196.922852, 4200.000000, 4202.563965, 4221.025391, 4198.461426, 4198.461426, 4223.076660, 4185.641113, 3584.000000, 8435.000000, 8052.000000, 0.000000, 0.000000, 0.000000, -20110.000000, 15.384615, 4.000000, 4.000000, 4.000000, 4.000000, 4.000000, 4.000000, 4.000000, 4.000000, 0.000000, 4.000000, 4.000000, 4.000000, 4.000000, 4.000000, 4.000000, 4.000000
91.000000, 0.000000, 4228.205078, 4212.820313, 4200.000000, 4190.256348, 4214.358887, 4197.436035, 4187.179199, 4208.205078, 4202.563965, 4236.922852, 4211.794922, 4207.692383, 4243.589844, 4196.410156, 3557.000000, 8446.000000, 8077.000000, 0.000000, 0.000000, 0.000000, -20110.000000, 23.076923, 4.000000, 4.000000, 4.000000, 4.000000, 4.000000, 4.000000, 4.000000, 4.000000, 0.000000, 4.000000, 4.000000, 4.000000, 4.000000, 4.000000, 4.000000, 4.000000
92.000000, 0.000000, 4234.871582, 4213.333008, 4201.025391, 4197.948730, 4200.512695, 4196.922852, 4186.666504, 4207.179199, 4202.051270, 4235.384277, 4217.948730, 4207.179199, 4249.230469, 4201.025391, 3523.000000, 8446.000000, 8077.000000, 0.000000, 0.000000, 0.000000, -20110.000000, 31.282051, 4.000000, 4.000000, 4.000000, 4.000000, 4.000000, 4.000000, 4.000000, 4.000000, 0.000000, 4.000000, 4.000000, 4.000000, 4.000000, 4.000000, 4.000000, 4.000000
93.000000, 0.000000, 4227.179199, 4213.846191, 4197.948730, 4197.436035, 4202.051270, 4195.897461, 4200.000000, 4202.051270, 4202.051270, 4230.256348, 4210.256348, 4203.076660, 4236.922852, 4197.436035, 3462.000000, 8441.000000, 8114.000000, 0.000000, 0.000000, 0.000000, -20110.000000, 38.974358, 4.000000, 4.000000, 4.000000, 4.000000, 4.000000, 4.000000, 4.000000, 4.000000, 0.000000, 4.000000, 4.000000, 4.000000, 4.000000, 4.000000, 4.000000, 4.000000
94.000000, 0.000000, 4220.512695, 4215.384277, 4194.358887, 4194.358887, 4220.000000, 4197.436035, 4204.615234, 4201.538574, 4202.563965, 4227.179199, 4202.563965, 4197.948730, 4228.205078, 4189.743652, 3584.000000, 8441.000000, 8114.000000, 0.000000, 0.000000, 0.000000, -20110.000000, 46.666664, 4.000000, 4.000000, 4.000000, 4.000000, 4.000000, 4.000000, 4.000000, 4.000000, 0.000000, 4.000000, 4.000000, 4.000000, 4.000000, 4.000000, 4.000000, 4.000000
95.000000, 0.000000, 4216.410156, 4206.153809, 4188.717773, 4187.692383, 4219.487305, 4198.974121, 4198.461426, 4200.512695, 4202.563965, 4223.076660, 4202.051270, 4189.230469, 4226.666504, 4183.589844, 3557.000000, 8445.000000, 8127.000000, 0.000000, 0.000000, 0.000000, -20110.000000, 54.358974, 4.000000, 4.000000, 4.000000, 4.000000, 4.000000, 4.000000, 4.000000, 4.000000, 0.000000, 4.000000, 4.000000, 4.000000, 4.000000, 4.000000, 4.000000, 4.000000
96.000000, 0.000000, 4206.153809, 4192.820313, 4185.641113, 4181.025391, 4202.051270, 4204.102539, 4199.487305, 4202.563965, 4202.563965, 4226.153809, 4203.589844, 4187.692383, 4226.666504, 4184.102539, 3523.000000, 8445.000000, 8127.000000, 0.000000, 0.000000, 0.000000, -20110.000000, 62.564102, 4.000000, 4.000000, 4.000000, 4.000000, 4.000000, 4.000000, 4.000000, 4.000000, 0.000000, 4.000000, 4.000000, 4.000000, 4.000000, 4.000000, 4.000000, 4.000000
97.000000, 0.000000, 4202.563965, 4192.820313, 4185.127930, 4183.076660, 4204.615234, 4205.641113, 4196.922852, 4204.102539, 4204.102539, 4230.769043, 4204.102539, 4188.717773, 4227.692383, 4183.076660, 3462.000000, 8473.000000, 8128.000000, 0.000000, 0.000000, 0.000000, -20110.000000, 70.769226, 4.000000, 4.000000, 4.000000, 4.000000, 4.000000, 4.000000, 4.000000, 4.000000, 0.000000, 4.000000, 4.000000, 4.000000, 4.000000, 4.000000, 4.000000, 4.000000
98.000000, 0.000000, 4214.358887, 4209.230469, 4186.153809, 4190.256348, 4221.538574, 4200.512695, 4187.179199, 4205.641113, 4202.563965, 4231.281738, 4208.717773, 4187.692383, 4232.307617, 4186.153809, 3584.000000, 8473.000000, 8128.000000, 0.000000, 0.000000, 0.000000, -20110.000000, 78.461540, 4.000000, 4.000000, 4.000000, 4.000000, 4.000000, 4.000000, 4.000000, 4.000000, 0.000000, 4.000000, 4.000000, 4.000000, 4.000000, 4.000000, 4.000000, 4.000000
99.000000, 0.000000, 4224.615234, 4215.897461, 4191.794922, 4196.410156, 4209.230469, 4196.922852, 4189.743652, 4214.358887, 4201.025391, 4234.871582, 4212.820313, 4188.717773, 4236.922852, 4191.794922, 3557.000000, 8509.000000, 8129.000000, 0.000000, 0.000000, 0.000000, -20110.000000, 86.153847, 4.000000, 4.000000, 4.000000, 4.000000, 4.000000, 4.000000, 4.000000, 4.000000, 0.000000, 4.000000, 4.000000, 4.000000, 4.000000, 4.000000, 4.000000, 4.000000
100.000000, 0.000000, 4227.692383, 4206.153809, 4197.436035, 4200.000000, 4188.717773, 4199.487305, 4200.000000, 4215.897461, 4203.589844, 4237.436035, 4207.179199, 4190.769043, 4235.897461, 4190.256348, 3523.000000, 8509.000000, 8129.000000, 0.000000, 0.000000, 0.000000, -20110.000000, 93.846153, 4.000000, 4.000000, 4.000000, 4.000000, 4.000000, 4.000000, 4.000000, 4.000000, 0.000000, 4.000000, 4.000000, 4.000000, 4.000000, 4.000000, 4.000000, 4.000000
101.000000, 0.000000, 4229.743652, 4206.666504, 4191.794922, 4201.538574, 4206.153809, 4204.102539, 4202.051270, 4206.666504, 4204.615234, 4233.333008, 4194.871582, 4184.615234, 4228.205078, 4180.512695, 3462.000000, 8559.000000, 8126.000000, 0.000000, 0.000000, 0.000000, -20110.000000, 102.051277, 4.000000, 4.000000, 4.000000, 4.000000, 4.000000, 4.000000, 4.000000, 4.000000, 0.000000, 4.000000, 4.000000, 4.000000, 4.000000, 4.000000, 4.000000, 4.000000
102.000000, 0.000000, 4225.641113, 4224.102539, 4187.692383, 4200.512695, 4225.127930, 4201.538574, 4200.000000, 4205.641113, 4202.563965, 4227.692383, 4185.641113, 4175.384277, 4220.000000, 4170.769043, 3584.000000, 8559.000000, 8126.000000, 0.000000, 0.000000, 0.000000, -20110.000000, 109.743584, 4.000000, 4.000000, 4.000000, 4.000000, 4.000000, 4.000000, 4.000000, 4.000000, 0.000000, 4.000000, 4.000000, 4.000000, 4.000000, 4.000000, 4.000000, 4.000000
103.000000, 0.000000, 4222.563965, 4231.281738, 4187.179199, 4201.538574, 4214.871582, 4196.410156, 4202.563965, 4207.179199, 4202.563965, 4233.333008, 4183.589844, 4171.281738, 4217.436035, 4167.692383, 3557.000000, 8653.000000, 8119.000000, 0.000000, 0.000000, 0.000000, -20110.000000, 117.435898, 4.000000, 4.000000, 4.000000, 4.000000, 4.000000, 4.000000, 4.000000, 4.000000, 0.000000, 4.000000, 4.000000, 4.000000, 4.000000, 4.000000, 4.000000, 4.000000
104.000000, 0.000000, 4231.281738, 4226.153809, 4184.102539, 4211.281738, 4214.871582, 4201.538574, 4203.589844, 4202.563965, 4203.076660, 4245.127930, 4182.051270, 4172.820313, 4218.461426, 4172.820313, 3523.000000, 8653.000000, 8119.000000, 0.000000, 0.000000, 0.000000, -20110.000000, 125.641022, 4.000000, 4.000000, 4.000000, 4.000000, 4.000000, 4.000000, 4.000000, 4.000000, 0.000000, 4.000000, 4.000000, 4.000000, 4.000000, 4.000000, 4.000000, 4.000000
105.000000, 0.000000, 4235.384277, 4231.281738, 4184.615234, 4215.384277, 4216.410156, 4204.102539, 4196.922852, 4201.025391, 4203.076660, 4242.051270, 4174.358887, 4168.717773, 4212.820313, 4170.256348, 3462.000000, 8686.000000, 8125.000000, 0.000000, 0.000000, 0.000000, -20110.000000, 133.333328, 4.000000, 4.000000, 4.000000, 4.000000, 4.000000, 4.000000, 4.000000, 4.000000, 0.000000, 4.000000, 4.000000, 4.000000, 4.000000, 4.000000, 4.000000, 4.000000
106.000000, 0.000000, 4226.666504, 4237.436035, 4183.589844, 4208.717773, 4208.205078, 4191.281738, 4190.769043, 4197.436035, 4203.076660, 4228.717773, 4166.153809, 4160.000000, 4202.563965, 4158.461426, 3584.000000, 8686.000000, 8125.000000, 0.000000, 0.000000, 0.000000, -20110.000000, 141.538452, 4.000000, 4.000000, 4.000000, 4.000000, 4.000000, 4.000000, 4.000000, 4.000000, 0.000000, 4.000000, 4.000000, 4.000000, 4.000000, 4.000000, 4.000000, 4.000000
107.000000, 0.000000, 4231.794922, 4244.102539, 4185.641113, 4213.333008, 4214.871582, 4182.051270, 4188.717773, 4197.436035, 4203.076660, 4230.256348, 4168.205078, 4163.589844, 4202.051270, 4161.538574, 3557.000000, 8748.000000, 8144.000000, 0.000000, 0.000000, 0.000000, -20110.000000, 149.230759, 4.000000, 4.000000, 4.000000, 4.000000, 4.000000, 4.000000, 4.000000, 4.000000, 0.000000, 4.000000, 4.000000, 4.000000, 4.000000, 4.000000, 4.000000, 4.000000
108.000000, 0.000000, 4256.410156, 4257.436035, 4201.025391, 4231.794922, 4220.512695, 4191.794922, 4187.692383, 4209.230469, 4203.076660, 4237.948730, 4173.333008, 4175.897461, 4204.615234, 4175.384277, 3523.000000, 8748.000000, 8144.000000, 0.000000, 0.000000, 0.000000, -20110.000000, 156.923080, 4.000000, 4.000000, 4.000000, 4.000000, 4.000000, 4.000000, 4.000000, 4.000000, 0.000000, 4.000000, 4.000000, 4.000000, 4.000000, 4.000000, 4.000000, 4.000000
109.000000, 0.000000, 4258.974121, 4255.384277, 4208.717773, 4234.358887, 4218.461426, 4201.025391, 4190.769043, 4207.179199, 4203.076660, 4233.333008, 4170.769043, 4176.922852, 4197.436035, 4175.897461, 3462.000000, 8767.000000, 8158.000000, 0.000000, 0.000000, 0.000000, -20110.000000, 165.128204, 4.000000, 4.000000, 4.000000, 4.000000, 4.000000, 4.000000, 4.000000, 4.000000, 0.000000, 4.000000, 4.000000, 4.000000, 4.000000, 4.000000, 4.000000, 4.000000
110.000000, 0.000000, 4237.948730, 4240.000000, 4197.948730, 4223.589844, 4221.025391, 4196.410156, 4197.948730, 4189.230469, 4202.563965, 4229.230469, 4160.512695, 4170.256348, 4189.743652, 4167.692383, 3584.000000, 8767.000000, 8158.000000, 0.000000, 0.000000, 0.000000, -20110.000000, 172.820511, 4.000000, 4.000000, 4.000000, 4.000000, 4.000000, 4.000000, 4.000000, 4.000000, 0.000000, 4.000000, 4.000000, 4.000000, 4.000000, 4.000000, 4.000000, 4.000000
111.000000, 0.000000, 4229.230469, 4230.769043, 4185.127930, 4215.897461, 4209.230469, 4196.410156, 4198.974121, 4188.717773, 4202.051270, 4230.769043, 4154.358887, 4168.717773, 4187.179199, 4161.538574, 3557.000000, 8748.000000, 8191.000000, 0.000000, 0.000000, 0.000000, -20110.000000, 181.025635, 4.000000, 4.000000, 4.000000, 4.000000, 4.000000, 4.000000, 4.000000, 4.000000, 0.000000, 4.000000, 4.000000, 4.000000, 4.000000, 4.000000, 4.000000, 4.000000
112.000000, 0.000000, 4230.256348, 4228.205078, 4183.076660, 4207.179199, 4203.589844, 4204.102539, 4207.179199, 4197.436035, 4201.538574, 4229.230469, 4156.410156, 4169.230469, 4186.666504, 4158.974121, 3523.000000, 8748.000000, 8191.000000, 0.000000, 0.000000, 0.000000, -20110.000000, 188.717941, 4.000000, 4.000000, 4.000000, 4.000000, 4.000000, 4.000000, 4.000000, 4.000000, 0.000000, 4.000000, 4.000000, 4.000000, 4.000000, 4.000000, 4.000000, 4.000000
113.000000, 0.000000, 4218.974121, 4221.538574, 4184.615234, 4200.000000, 4226.153809, 4206.153809, 4216.922852, 4195.897461, 4202.051270, 4230.256348, 4160.512695, 4164.615234, 4191.281738, 4162.563965, 3462.000000, 8733.000000, 8204.000000, 0.000000, 0.000000, 0.000000, -20110.000000, 196.923065, 4.000000, 4.000000, 4.000000, 4.000000, 4.000000, 4.000000, 4.000000, 4.000000, 0.000000, 4.000000, 4.000000, 4.000000, 4.000000, 4.000000, 4.000000, 4.000000
114.000000, 0.000000, 4216.410156, 4215.897461, 4183.589844, 4204.102539, 4231.794922, 4207.179199, 4209.743652, 4196.922852, 4202.051270, 4228.717773, 4160.512695, 4161.025391, 4194.871582, 4164.615234, 3584.000000, 8733.000000, 8204.000000, 0.000000, 0.000000, 0.000000, -20110.000000, 204.615387, 4.000000, 4.000000, 4.000000, 4.000000, 4.000000, 4.000000, 4.000000, 4.000000, 0.000000, 4.000000, 4.000000, 4.000000, 4.000000, 4.000000, 4.000000, 4.000000
115.000000, 0.000000, 4227.179199, 4219.487305, 4186.153809, 4216.922852, 4213.846191, 4216.922852, 4206.666504, 4200.512695, 4201.538574, 4217.948730, 4155.897461, 4165.641113, 4185.127930, 4160.000000, 3557.000000, 8716.000000, 8217.000000, 0.000000, 0.000000, 0.000000, -20110.000000, 212.307693, 4.000000, 4.000000, 4.000000, 4.000000, 4.000000, 4.000000, 4.000000, 4.000000, 0.000000, 4.000000, 4.000000, 4.000000, 4.000000, 4.000000, 4.000000, 4.000000
116.000000, 0.000000, 4226.153809, 4219.487305, 4190.256348, 4216.410156, 4217.948730, 4220.000000, 4218.974121, 4197.436035, 4202.051270, 4209.743652, 4153.333008, 4169.230469, 4174.358887, 4155.897461, 3523.000000, 8716.000000, 8217.000000, 0.000000, 0.000000, 0.000000, -20110.000000, 220.512817, 4.000000, 4.000000, 4.000000, 4.000000, 4.000000, 4.000000, 4.000000, 4.000000, 0.000000, 4.000000, 4.000000, 4.000000, 4.000000, 4.000000, 4.000000, 4.000000
117.000000, 0.000000, 4215.384277, 4205.127930, 4186.153809, 4202.563965, 4220.000000, 4214.871582, 4215.384277, 4201.025391, 4202.051270, 4217.436035, 4154.871582, 4167.179199, 4177.436035, 4156.410156, 3462.000000, 8680.000000, 8223.000000, 0.000000, 0.000000, 0.000000, -20110.000000, 228.205124, 4.000000, 4.000000, 4.000000, 4.000000, 4.000000, 4.000000, 4.000000, 4.000000, 0.000000, 4.000000, 4.000000, 4.000000, 4.000000, 4.000000, 4.000000, 4.000000
118.000000, 0.000000, 4213.333008, 4189.230469, 4181.538574, 4196.410156, 4206.666504, 4212.307617, 4202.563965, 4203.076660, 4201.538574, 4233.846191, 4156.410156, 4168.205078, 4189.230469, 4155.384277, 3584.000000, 8680.000000, 8223.000000, 0.000000, 0.000000, 0.000000, -20110.000000, 235.897430, 4.000000, 4.000000, 4.000000, 4.000000, 4.000000, 4.000000, 4.000000, 4.000000, 0.000000, 4.000000, 4.000000, 4.000000, 4.000000, 4.000000, 4.000000, 4.000000
119.000000, 0.000000, 4217.436035, 4190.256348, 4183.589844, 4198.974121, 4212.820313, 4206.666504, 4202.051270, 4189.230469, 4203.076660, 4243.589844, 4160.512695, 4168.717773, 4200.512695, 4153.333008, 3557.000000, 8663.000000, 8223.000000, 0.000000, 0.000000, 0.000000, -20110.000000, 244.102554, 4.000000, 4.000000, 4.000000, 4.000000, 4.000000, 4.000000, 4.000000, 4.000000, 0.000000, 4.000000, 4.000000, 4.000000, 4.000000, 4.000000, 4.000000, 4.000000
120.000000, 0.000000, 4217.948730, 4200.000000, 4184.615234, 4199.487305, 4216.922852, 4197.436035, 4204.102539, 4182.563965, 4204.102539, 4245.127930, 4167.692383, 4166.153809, 4204.102539, 4156.410156, 3523.000000, 8663.000000, 8223.000000, 0.000000, 0.000000, 0.000000, -20110.000000, 251.794861, 4.000000, 4.000000, 4.000000, 4.000000, 4.000000, 4.000000, 4.000000, 4.000000, 0.000000, 4.000000, 4.000000, 4.000000, 4.000000, 4.000000, 4.000000, 4.000000
121.000000, 0.000000, 4218.461426, 4193.333008, 4183.076660, 4197.436035, 4197.436035, 4198.974121, 4205.641113, 4193.333008, 4202.051270, 4245.641113, 4169.743652, 4172.307617, 4204.102539, 4164.102539, 3462.000000, 8639.000000, 8214.000000, 0.000000, 0.000000, 0.000000, -20110.000000, 260.000000, 4.000000, 4.000000, 4.000000, 4.000000, 4.000000, 4.000000, 4.000000, 4.000000, 0.000000, 4.000000, 4.000000, 4.000000, 4.000000, 4.000000, 4.000000, 4.000000
122.000000, 0.000000, 4224.615234, 4180.512695, 4189.743652, 4200.000000, 4197.436035, 4203.589844, 4214.358887, 4203.076660, 4202.051270, 4248.717773, 4171.794922, 4184.102539, 4213.333008, 4173.846191, 3584.000000, 8639.000000, 8214.000000, 0.000000, 0.000000, 0.000000, -20110.000000, 267.692291, 4.000000, 4.000000, 4.000000, 4.000000, 4.000000, 4.000000, 4.000000, 4.000000, 0.000000, 4.000000, 4.000000, 4.000000, 4.000000, 4.000000, 4.000000, 4.000000
123.000000, 0.000000, 4233.333008, 4190.256348, 4202.563965, 4208.717773, 4211.794922, 4204.615234, 4221.025391, 4205.127930, 4202.563965, 4252.820313, 4183.589844, 4197.948730, 4229.230469, 4185.127930, 3557.000000, 8626.000000, 8210.000000, 0.000000, 0.000000, 0.000000, -20110.000000, 275.384613, 4.000000, 4.000000, 4.000000, 4.000000, 4.000000, 4.000000, 4.000000, 4.000000, 0.000000, 4.000000, 4.000000, 4.000000, 4.000000, 4.000000, 4.000000, 4.000000
124.000000, 0.000000, 4234.358887, 4201.538574, 4204.102539, 4213.333008, 4200.000000, 4202.051270, 4209.743652, 4204.102539, 4201.538574, 4250.256348, 4187.179199, 4200.000000, 4233.333008, 4190.256348, 3523.000000, 8626.000000, 8210.000000, 0.000000, 0.000000, 0.000000, -20110.000000, 283.589722, 4.000000, 4.000000, 4.000000, 4.000000, 4.000000, 4.000000, 4.000000, 4.000000, 0.000000, 4.000000, 4.000000, 4.000000, 4.000000, 4.000000, 4.000000, 4.000000
125.000000, 0.000000, 4223.076660, 4191.794922, 4190.256348, 4202.563965, 4188.717773, 4196.410156, 4197.948730, 4203.076660, 4200.512695, 4249.230469, 4174.358887, 4185.641113, 4227.692383, 4181.538574, 3462.000000, 8616.000000, 8206.000000, 0.000000, 0.000000, 0.000000, -20110.000000, 291.282043, 4.000000, 4.000000, 4.000000, 4.000000, 4.000000, 4.000000, 4.000000, 4.000000, 0.000000, 4.000000, 4.000000, 4.000000, 4.000000, 4.000000, 4.000000, 4.000000
126.000000, 0.000000, 4215.897461, 4185.127930, 4182.051270, 4189.743652, 4203.589844, 4197.436035, 4209.230469, 4198.974121, 4201.025391, 4256.922852, 4168.205078, 4178.974121, 4228.205078, 4171.281738, 3584.000000, 8616.000000, 8206.000000, 0.000000, 0.000000, 0.000000, -20110.000000, 299.487183, 4.000000, 4.000000, 4.000000, 4.000000, 4.000000, 4.000000, 4.000000, 4.000000, 0.000000, 4.000000, 4.000000, 4.000000, 4.000000, 4.000000, 4.000000, 4.000000
127.000000, 0.000000, 4217.948730, 4184.102539, 4189.230469, 4191.794922, 4208.205078, 4204.102539, 4215.897461, 4198.461426, 4201.538574, 4256.410156, 4172.307617, 4184.102539, 4231.281738, 4177.948730, 56.000000, 8593.000000, 8184.000000, 0.000000, 0.000000, 0.000000, -20110.000000, 307.179474, 4.000000, 4.000000, 4.000000, 4.000000, 4.000000, 4.000000, 4.000000, 4.000000, 0.000000, 4.000000, 4.000000, 4.000000, 4.000000, 4.000000, 4.000000, 4.000000
0.000000, 0.000000, 4224.615234, 4176.922852, 4198.461426, 4200.000000, 4193.333008, 4205.641113, 4207.179199, 4212.820313, 4201.025391, 4248.205078, 4172.820313, 4187.692383, 4231.281738, 4184.102539, 3188.000000, 8593.000000, 8184.000000, 0.000000, 0.000000, 0.000000, -20110.000000, 314.871796, 4.000000, 4.000000, 4.000000, 4.000000, 4.000000, 4.000000, 4.000000, 4.000000, 0.000000, 4.000000, 4.000000, 4.000000, 4.000000, 4.000000, 4.000000, 4.000000
1.000000, 0.000000, 4230.256348, 4175.897461, 4201.025391, 4201.538574, 4194.358887, 4208.205078, 4209.230469, 4217.436035, 4201.538574, 4256.410156, 4176.410156, 4193.333008, 4236.410156, 4187.179199, 3548.000000, 8579.000000, 8180.000000, 0.000000, 0.000000, 0.000000, -20110.000000, 323.076904, 4.000000, 4.000000, 4.000000, 4.000000, 4.000000, 4.000000, 4.000000, 4.000000, 0.000000, 4.000000, 4.000000, 4.000000, 4.000000, 4.000000, 4.000000, 4.000000
2.000000, 0.000000, 4232.820313, 4185.127930, 4202.051270, 4204.102539, 4206.153809, 4217.948730, 4219.487305, 4200.512695, 4203.076660, 4265.641113, 4187.692383, 4203.589844, 4251.794922, 4198.461426, 3572.000000, 8579.000000, 8180.000000, 0.000000, 0.000000, 0.000000, -20110.000000, 330.769226, 4.000000, 4.000000, 4.000000, 4.000000, 4.000000, 4.000000, 4.000000, 4.000000, 0.000000, 4.000000, 4.000000, 4.000000, 4.000000, 4.000000, 4.000000, 4.000000
3.000000, 0.000000, 4228.205078, 4188.717773, 4200.000000, 4207.179199, 4203.076660, 4215.384277, 4217.436035, 4194.871582, 4204.102539, 4256.410156, 4191.281738, 4198.461426, 4253.333008, 4197.948730, 2543.000000, 8541.000000, 8173.000000, 0.000000, 0.000000, 0.000000, -20110.000000, 338.461517, 4.000000, 4.000000, 4.000000, 4.000000, 4.000000, 4.000000, 4.000000, 4.000000, 0.000000, 4.000000, 4.000000, 4.000000, 4.000000, 4.000000, 4.000000, 4.000000
4.000000, 0.000000, 4218.974121, 4186.666504, 4188.717773, 4200.512695, 4203.076660, 4205.127930, 4213.333008, 4204.615234, 4203.076660, 4247.179199, 4177.948730, 4179.487305, 4234.358887, 4175.384277, 3553.000000, 8541.000000, 8173.000000, 0.000000, 0.000000, 0.000000, -20110.000000, 346.666656, 4.000000, 4.000000, 4.000000, 4.000000, 4.000000, 4.000000, 4.000000, 4.000000, 0.000000, 4.000000, 4.000000, 4.000000, 4.000000, 4.000000, 4.000000, 4.000000
5.000000, 0.000000, 4214.358887, 4184.102539, 4183.076660, 4192.307617, 4215.384277, 4206.666504, 4213.846191, 4201.538574, 4202.051270, 4240.000000, 4166.666504, 4167.692383, 4210.769043, 4160.000000, 3579.000000, 8525.000000, 8171.000000, 0.000000, 0.000000, 0.000000, -20110.000000, 354.358978, 4.000000, 4.000000, 4.000000, 4.000000, 4.000000, 4.000000, 4.000000, 4.000000, 0.000000, 4.000000, 4.000000, 4.000000, 4.000000, 4.000000, 4.000000, 4.000000
6.000000, 0.000000, 4215.384277, 4187.179199, 4191.794922, 4197.948730, 4221.025391, 4215.897461, 4213.846191, 4196.922852, 4201.538574, 4229.743652, 4166.666504, 4172.820313, 4190.256348, 4163.076660, 3446.000000, 8525.000000, 8171.000000, 0.000000, 0.000000, 0.000000, -20110.000000, 362.051270, 4.000000, 4.000000, 4.000000, 4.000000, 4.000000, 4.000000, 4.000000, 4.000000, 0.000000, 4.000000, 4.000000, 4.000000, 4.000000, 4.000000, 4.000000, 4.000000
7.000000, 0.000000, 4217.948730, 4197.436035, 4200.512695, 4206.666504, 4215.897461, 4218.461426, 4208.717773, 4202.563965, 4201.025391, 4227.692383, 4169.743652, 4182.563965, 4173.846191, 4167.692383, 3510.000000, 8508.000000, 8177.000000, 0.000000, 0.000000, 0.000000, -20110.000000, 370.256409, 4.000000, 4.000000, 4.000000, 4.000000, 4.000000, 4.000000, 4.000000, 4.000000, 0.000000, 4.000000, 4.000000, 4.000000, 4.000000, 4.000000, 4.000000, 4.000000
8.000000, 0.000000, 4222.051270, 4204.102539, 4202.051270, 4202.051270, 4215.384277, 4206.153809, 4201.025391, 4205.127930, 4201.025391, 4234.871582, 4173.333008, 4185.641113, 4166.666504, 4169.743652, 0.000000, 8508.000000, 8177.000000, 0.000000, 0.000000, 0.000000, -20110.000000, 377.948700, 4.000000, 4.000000, 4.000000, 4.000000, 4.000000, 4.000000, 4.000000, 4.000000, 0.000000, 4.000000, 4.000000, 4.000000, 4.000000, 4.000000, 4.000000, 4.000000
9.000000, 0.000000, 4227.692383, 4198.461426, 4196.922852, 4196.922852, 4218.461426, 4197.436035, 4200.000000, 4209.230469, 4201.025391, 4240.000000, 4180.000000, 4187.179199, 4166.666504, 4173.333008, 2994.000000, 8480.000000, 8185.000000, 0.000000, 0.000000, 0.000000, -20110.000000, 386.153839, 4.000000, 4.000000, 4.000000, 4.000000, 4.000000, 4.000000, 4.000000, 4.000000, 0.000000, 4.000000, 4.000000, 4.000000, 4.000000, 4.000000, 4.000000, 4.000000
10.000000, 0.000000, 4223.076660, 4191.281738, 4189.230469, 4198.974121, 4212.820313, 4205.641113, 4202.563965, 4208.205078, 4202.051270, 4237.948730, 4179.487305, 4183.589844, 4164.102539, 4174.358887, 3586.000000, 8480.000000, 8185.000000, 0.000000, 0.000000, 0.000000, -20110.000000, 393.846130, 4.000000, 4.000000, 4.000000, 4.000000, 4.000000, 4.000000, 4.000000, 4.000000, 0.000000, 4.000000, 4.000000, 4.000000, 4.000000, 4.000000, 4.000000, 4.000000
11.000000, 0.000000, 4217.436035, 4192.307617, 4185.127930, 4201.025391, 4204.102539, 4213.846191, 4206.666504, 4203.076660, 4203.076660, 4233.846191, 4171.281738, 4172.307617, 4162.051270, 4170.769043, 3557.000000, 8460.000000, 8179.000000, 0.000000, 0.000000, 0.000000, -20110.000000, 401.538452, 4.000000, 4.000000, 4.000000, 4.000000, 4.000000, 4.000000, 4.000000, 4.000000, 0.000000, 4.000000, 4.000000, 4.000000, 4.000000, 4.000000, 4.000000, 4.000000
12.000000, 0.000000, 4224.615234, 4198.974121, 4182.563965, 4202.051270, 4210.769043, 4213.333008, 4212.307617, 4202.051270, 4203.589844, 4234.358887, 4170.769043, 4167.692383, 4166.666504, 4168.205078, 3523.000000, 8460.000000, 8179.000000, 0.000000, 0.000000, 0.000000, -20110.000000, 409.743591, 4.000000, 4.000000, 4.000000, 4.000000, 4.000000, 4.000000, 4.000000, 4.000000, 0.000000, 4.000000, 4.000000, 4.000000, 4.000000, 4.000000, 4.000000, 4.000000
13.000000, 0.000000, 4235.897461, 4204.102539, 4186.153809, 4204.102539, 4231.794922, 4215.384277, 4214.871582, 4202.563965, 4202.563965, 4234.871582, 4176.410156, 4176.922852, 4171.281738, 4176.922852, 3465.000000, 8431.000000, 8158.000000, 0.000000, 0.000000, 0.000000, -20110.000000, 417.435883, 4.000000, 4.000000, 4.000000, 4.000000, 4.000000, 4.000000, 4.000000, 4.000000, 0.000000, 4.000000, 4.000000, 4.000000, 4.000000, 4.000000, 4.000000, 4.000000
14.000000, 0.000000, 4235.897461, 4197.948730, 4193.333008, 4202.563965, 4231.794922, 4220.512695, 4215.897461, 4205.127930, 4202.563965, 4227.179199, 4174.871582, 4188.205078, 4167.692383, 4185.641113, 3586.000000, 8431.000000, 8158.000000, 0.000000, 0.000000, 0.000000, -20110.000000, 425.128204, 4.000000, 4.000000, 4.000000, 4.000000, 4.000000, 4.000000, 4.000000, 4.000000, 0.000000, 4.000000, 4.000000, 4.000000, 4.000000, 4.000000, 4.000000, 4.000000
15.000000, 0.000000, 4230.769043, 4193.333008, 4192.820313, 4199.487305, 4207.692383, 4211.794922, 4215.897461, 4199.487305, 4203.076660, 4223.076660, 4173.333008, 4189.743652, 4170.256348, 4184.615234, 3557.000000, 8417.000000, 8151.000000, 0.000000, 0.000000, 0.000000, -20110.000000, 432.820496, 4.000000, 4.000000, 4.000000, 4.000000, 4.000000, 4.000000, 4.000000, 4.000000, 0.000000, 4.000000, 4.000000, 4.000000, 4.000000, 4.000000, 4.000000, 4.000000
16.000000, 0.000000, 4231.794922, 4200.512695, 4186.666504, 4198.974121, 4203.589844, 4203.589844, 4212.307617, 4188.205078, 4203.076660, 4227.692383, 4181.025391, 4187.179199, 4182.563965, 4184.102539, 0.000000, 8417.000000, 8151.000000, 0.000000, 0.000000, 0.000000, -20110.000000, 441.025635, 4.000000, 4.000000, 4.000000, 4.000000, 4.000000, 4.000000, 4.000000, 4.000000, 0.000000, 4.000000, 4.000000, 4.000000, 4.000000, 4.000000, 4.000000, 4.000000
