title:WinkRight6, recorded:21.05.18 17.21.26, timestamp started:2018-05-12T20:28:52.032863+02:00            , sampling:128, subject:Noé, labels:COUNTER INTERPOLATED AF3 F7 F3 FC5 T7 P7 O1 O2 P8 T8 FC6 F4 F8 AF4 RAW_CQ GYROX GYROY MARKER MARKER_HARDWARE SYNC TIME_STAMP_s TIME_STAMP_ms CQ_AF3 CQ_F7 CQ_F3 CQ_FC5 CQ_T7 CQ_P7 CQ_O1 CQ_O2 CQ_P8 CQ_T8 CQ_FC6 CQ_F4 CQ_F8 CQ_AF4 CQ_CMS CQ_DRL, chan:40, samples:2184, units:emotiv
79.000000, 0.000000, 4088.717773, 4168.205078, 4208.205078, 4206.666504, 4180.000000, 4203.589844, 4200.512695, 4197.436035, 4202.563965, 4196.410156, 4167.692383, 4184.102539, 4031.281982, 3593.845947, 3617.000000, 8241.000000, 8256.000000, 0.000000, 0.000000, 0.000000, -20077.000000, 220.512817, 4.000000, 4.000000, 4.000000, 4.000000, 4.000000, 4.000000, 4.000000, 4.000000, 0.000000, 4.000000, 4.000000, 4.000000, 4.000000, 4.000000, 4.000000, 4.000000
80.000000, 0.000000, 4095.384521, 4157.948730, 4215.384277, 4217.948730, 4188.717773, 4213.846191, 4217.436035, 4206.153809, 4204.102539, 4198.461426, 4168.717773, 4190.769043, 4026.153809, 3603.076904, 3511.000000, 8241.000000, 8256.000000, 0.000000, 0.000000, 0.000000, -20077.000000, 228.205124, 4.000000, 4.000000, 4.000000, 4.000000, 4.000000, 4.000000, 4.000000, 4.000000, 0.000000, 4.000000, 4.000000, 4.000000, 4.000000, 4.000000, 4.000000, 4.000000
81.000000, 0.000000, 4105.127930, 4155.384277, 4220.000000, 4227.692383, 4196.922852, 4222.051270, 4216.922852, 4203.076660, 4203.076660, 4203.076660, 4172.307617, 4203.589844, 4024.102539, 3610.256348, 3458.000000, 8251.000000, 8287.000000, 0.000000, 0.000000, 0.000000, -20077.000000, 236.410248, 4.000000, 4.000000, 4.000000, 4.000000, 4.000000, 4.000000, 4.000000, 4.000000, 0.000000, 4.000000, 4.000000, 4.000000, 4.000000, 4.000000, 4.000000, 4.000000
82.000000, 0.000000, 4100.000000, 4159.487305, 4226.153809, 4230.256348, 4182.563965, 4212.307617, 4199.487305, 4198.461426, 4201.025391, 4205.127930, 4182.563965, 4210.769043, 4025.128174, 3606.666504, 3590.000000, 8251.000000, 8287.000000, 0.000000, 0.000000, 0.000000, -20077.000000, 244.102554, 4.000000, 4.000000, 4.000000, 4.000000, 4.000000, 4.000000, 4.000000, 4.000000, 0.000000, 4.000000, 4.000000, 4.000000, 4.000000, 4.000000, 4.000000, 4.000000
83.000000, 0.000000, 4091.794678, 4156.922852, 4230.256348, 4232.307617, 4183.076660, 4211.794922, 4205.641113, 4207.692383, 4201.025391, 4209.230469, 4185.641113, 4210.256348, 4026.666504, 3605.128174, 3617.000000, 8250.000000, 8307.000000, 0.000000, 0.000000, 0.000000, -20077.000000, 251.794861, 4.000000, 4.000000, 4.000000, 4.000000, 4.000000, 4.000000, 4.000000, 4.000000, 0.000000, 4.000000, 4.000000, 4.000000, 4.000000, 4.000000, 4.000000, 4.000000
84.000000, 0.000000, 4092.307617, 4155.384277, 4221.025391, 4228.717773, 4199.487305, 4222.051270, 4221.538574, 4220.512695, 4202.051270, 4208.205078, 4177.436035, 4201.538574, 4020.000000, 3604.615234, 3511.000000, 8250.000000, 8307.000000, 0.000000, 0.000000, 0.000000, -20077.000000, 259.487183, 4.000000, 4.000000, 4.000000, 4.000000, 4.000000, 4.000000, 4.000000, 4.000000, 0.000000, 4.000000, 4.000000, 4.000000, 4.000000, 4.000000, 4.000000, 4.000000
85.000000, 0.000000, 4094.358887, 4162.051270, 4207.179199, 4221.538574, 4208.717773, 4221.025391, 4217.436035, 4227.692383, 4202.563965, 4202.563965, 4169.743652, 4189.743652, 4010.256348, 3590.256348, 3458.000000, 8256.000000, 8326.000000, 0.000000, 0.000000, 0.000000, -20077.000000, 267.692291, 4.000000, 4.000000, 4.000000, 4.000000, 4.000000, 4.000000, 4.000000, 4.000000, 0.000000, 4.000000, 4.000000, 4.000000, 4.000000, 4.000000, 4.000000, 4.000000
86.000000, 0.000000, 4075.897217, 4155.897461, 4207.179199, 4216.410156, 4191.794922, 4214.358887, 4214.871582, 4225.127930, 4201.538574, 4201.025391, 4168.205078, 4183.589844, 4007.692139, 3580.512695, 3590.000000, 8256.000000, 8326.000000, 0.000000, 0.000000, 0.000000, -20077.000000, 275.384613, 4.000000, 4.000000, 4.000000, 4.000000, 4.000000, 4.000000, 4.000000, 4.000000, 0.000000, 4.000000, 4.000000, 4.000000, 4.000000, 4.000000, 4.000000, 4.000000
87.000000, 0.000000, 4049.230713, 4133.333008, 4211.281738, 4216.922852, 4172.307617, 4216.410156, 4221.538574, 4215.897461, 4201.538574, 4201.538574, 4168.205078, 4184.615234, 4009.230713, 3594.358887, 3617.000000, 8250.000000, 8371.000000, 0.000000, 0.000000, 0.000000, -20077.000000, 283.589722, 4.000000, 4.000000, 4.000000, 4.000000, 4.000000, 4.000000, 4.000000, 4.000000, 0.000000, 4.000000, 4.000000, 4.000000, 4.000000, 4.000000, 4.000000, 4.000000
88.000000, 0.000000, 4053.845947, 4129.230469, 4203.076660, 4216.410156, 4186.666504, 4217.436035, 4216.410156, 4213.333008, 4202.051270, 4201.025391, 4166.666504, 4184.615234, 4003.589600, 3615.897461, 3511.000000, 8250.000000, 8371.000000, 0.000000, 0.000000, 0.000000, -20077.000000, 291.282043, 4.000000, 4.000000, 4.000000, 4.000000, 4.000000, 4.000000, 4.000000, 4.000000, 0.000000, 4.000000, 4.000000, 4.000000, 4.000000, 4.000000, 4.000000, 4.000000
89.000000, 0.000000, 4080.512695, 4142.563965, 4198.974121, 4214.358887, 4204.102539, 4216.922852, 4215.384277, 4216.922852, 4202.051270, 4202.563965, 4165.641113, 4183.076660, 3996.410156, 3640.512695, 3458.000000, 8250.000000, 8383.000000, 0.000000, 0.000000, 0.000000, -20077.000000, 299.487183, 4.000000, 4.000000, 4.000000, 4.000000, 4.000000, 4.000000, 4.000000, 4.000000, 0.000000, 4.000000, 4.000000, 4.000000, 4.000000, 4.000000, 4.000000, 4.000000
90.000000, 0.000000, 4080.512695, 4137.436035, 4208.717773, 4219.487305, 4200.512695, 4224.102539, 4226.666504, 4220.000000, 4202.051270, 4212.307617, 4171.794922, 4188.205078, 4009.743408, 3678.461426, 3590.000000, 8250.000000, 8383.000000, 0.000000, 0.000000, 0.000000, -20077.000000, 307.179474, 4.000000, 4.000000, 4.000000, 4.000000, 4.000000, 4.000000, 4.000000, 4.000000, 0.000000, 4.000000, 4.000000, 4.000000, 4.000000, 4.000000, 4.000000, 4.000000
91.000000, 0.000000, 4066.666504, 4128.205078, 4219.487305, 4229.743652, 4198.974121, 4224.102539, 4222.051270, 4219.487305, 4202.051270, 4218.974121, 4185.127930, 4202.563965, 4024.102539, 3713.845947, 3617.000000, 8246.000000, 8375.000000, 0.000000, 0.000000, 0.000000, -20077.000000, 315.384613, 4.000000, 4.000000, 4.000000, 4.000000, 4.000000, 4.000000, 4.000000, 4.000000, 0.000000, 4.000000, 4.000000, 4.000000, 4.000000, 4.000000, 4.000000, 4.000000
92.000000, 0.000000, 4059.487061, 4123.589844, 4217.436035, 4233.333008, 4191.794922, 4211.281738, 4202.051270, 4198.461426, 4202.051270, 4212.820313, 4190.256348, 4208.717773, 4018.974365, 3725.128174, 3511.000000, 8246.000000, 8375.000000, 0.000000, 0.000000, 0.000000, -20077.000000, 323.076904, 4.000000, 4.000000, 4.000000, 4.000000, 4.000000, 4.000000, 4.000000, 4.000000, 0.000000, 4.000000, 4.000000, 4.000000, 4.000000, 4.000000, 4.000000, 4.000000
93.000000, 0.000000, 4053.845947, 4108.205078, 4212.820313, 4227.692383, 4179.487305, 4212.307617, 4196.922852, 4171.281738, 4202.051270, 4211.794922, 4184.615234, 4206.153809, 4019.487061, 3731.281982, 3458.000000, 8247.000000, 8373.000000, 0.000000, 0.000000, 0.000000, -20077.000000, 330.769226, 4.000000, 4.000000, 4.000000, 4.000000, 4.000000, 4.000000, 4.000000, 4.000000, 0.000000, 4.000000, 4.000000, 4.000000, 4.000000, 4.000000, 4.000000, 4.000000
94.000000, 0.000000, 4062.563965, 4105.127930, 4220.000000, 4222.051270, 4194.358887, 4218.461426, 4203.076660, 4175.897461, 4201.538574, 4220.000000, 4184.102539, 4207.179199, 4034.358887, 3749.230713, 3590.000000, 8247.000000, 8373.000000, 0.000000, 0.000000, 0.000000, -20077.000000, 338.461517, 4.000000, 4.000000, 4.000000, 4.000000, 4.000000, 4.000000, 4.000000, 4.000000, 0.000000, 4.000000, 4.000000, 4.000000, 4.000000, 4.000000, 4.000000, 4.000000
95.000000, 0.000000, 4067.179443, 4112.820313, 4220.000000, 4217.436035, 4200.512695, 4205.127930, 4200.000000, 4195.384277, 4202.051270, 4213.333008, 4181.025391, 4208.717773, 4022.051270, 3749.743408, 3617.000000, 8248.000000, 8383.000000, 0.000000, 0.000000, 0.000000, -20077.000000, 346.666656, 4.000000, 4.000000, 4.000000, 4.000000, 4.000000, 4.000000, 4.000000, 4.000000, 0.000000, 4.000000, 4.000000, 4.000000, 4.000000, 4.000000, 4.000000, 4.000000
96.000000, 0.000000, 4049.230713, 4102.563965, 4212.820313, 4216.410156, 4183.076660, 4201.538574, 4201.538574, 4201.538574, 4202.051270, 4208.717773, 4168.717773, 4210.256348, 4002.563965, 3733.845947, 3511.000000, 8248.000000, 8383.000000, 0.000000, 0.000000, 0.000000, -20077.000000, 354.358978, 4.000000, 4.000000, 4.000000, 4.000000, 4.000000, 4.000000, 4.000000, 4.000000, 0.000000, 4.000000, 4.000000, 4.000000, 4.000000, 4.000000, 4.000000, 4.000000
97.000000, 0.000000, 4045.128174, 4096.410156, 4222.563965, 4224.102539, 4190.256348, 4215.897461, 4208.205078, 4199.487305, 4201.538574, 4218.974121, 4174.871582, 4217.436035, 4027.692139, 3742.051270, 3458.000000, 8252.000000, 8398.000000, 0.000000, 0.000000, 0.000000, -20077.000000, 362.051270, 4.000000, 4.000000, 4.000000, 4.000000, 4.000000, 4.000000, 4.000000, 4.000000, 0.000000, 4.000000, 4.000000, 4.000000, 4.000000, 4.000000, 4.000000, 4.000000
98.000000, 0.000000, 4062.051270, 4103.076660, 4235.384277, 4232.820313, 4208.717773, 4217.948730, 4207.692383, 4197.948730, 4202.563965, 4223.589844, 4196.410156, 4219.487305, 4053.845947, 3765.640869, 3590.000000, 8252.000000, 8398.000000, 0.000000, 0.000000, 0.000000, -20077.000000, 370.256409, 4.000000, 4.000000, 4.000000, 4.000000, 4.000000, 4.000000, 4.000000, 4.000000, 0.000000, 4.000000, 4.000000, 4.000000, 4.000000, 4.000000, 4.000000, 4.000000
99.000000, 0.000000, 4067.692139, 4098.974121, 4225.641113, 4230.256348, 4205.641113, 4211.794922, 4207.179199, 4199.487305, 4204.102539, 4224.102539, 4199.487305, 4217.436035, 4049.743408, 3763.589600, 3617.000000, 8263.000000, 8408.000000, 0.000000, 0.000000, 0.000000, -20077.000000, 377.948700, 4.000000, 4.000000, 4.000000, 4.000000, 4.000000, 4.000000, 4.000000, 4.000000, 0.000000, 4.000000, 4.000000, 4.000000, 4.000000, 4.000000, 4.000000, 4.000000
100.000000, 0.000000, 4049.743408, 4075.384521, 4219.487305, 4220.000000, 4189.743652, 4206.153809, 4210.256348, 4201.025391, 4202.563965, 4225.127930, 4187.179199, 4213.333008, 4050.256348, 3745.640869, 3511.000000, 8263.000000, 8408.000000, 0.000000, 0.000000, 0.000000, -20077.000000, 386.153839, 4.000000, 4.000000, 4.000000, 4.000000, 4.000000, 4.000000, 4.000000, 4.000000, 0.000000, 4.000000, 4.000000, 4.000000, 4.000000, 4.000000, 4.000000, 4.000000
101.000000, 0.000000, 4032.820313, 4051.281982, 4227.179199, 4218.461426, 4183.589844, 4199.487305, 4207.692383, 4200.000000, 4200.512695, 4227.179199, 4183.076660, 4205.127930, 4053.845947, 3740.000000, 3458.000000, 8282.000000, 8388.000000, 0.000000, 0.000000, 0.000000, -20077.000000, 393.846130, 4.000000, 4.000000, 4.000000, 4.000000, 4.000000, 4.000000, 4.000000, 4.000000, 0.000000, 4.000000, 4.000000, 4.000000, 4.000000, 4.000000, 4.000000, 4.000000
102.000000, 0.000000, 4039.487061, 4057.435791, 4223.076660, 4224.102539, 4190.769043, 4200.000000, 4203.076660, 4202.051270, 4201.538574, 4227.692383, 4184.615234, 4201.538574, 4050.769043, 3747.179443, 3590.000000, 8282.000000, 8388.000000, 0.000000, 0.000000, 0.000000, -20077.000000, 401.538452, 4.000000, 4.000000, 4.000000, 4.000000, 4.000000, 4.000000, 4.000000, 4.000000, 0.000000, 4.000000, 4.000000, 4.000000, 4.000000, 4.000000, 4.000000, 4.000000
103.000000, 0.000000, 4052.820313, 4073.845947, 4215.384277, 4228.205078, 4205.127930, 4208.205078, 4205.641113, 4196.922852, 4201.538574, 4224.102539, 4186.153809, 4205.641113, 4058.974365, 3753.333252, 3617.000000, 8284.000000, 8375.000000, 0.000000, 0.000000, 0.000000, -20077.000000, 409.743591, 4.000000, 4.000000, 4.000000, 4.000000, 4.000000, 4.000000, 4.000000, 4.000000, 0.000000, 4.000000, 4.000000, 4.000000, 4.000000, 4.000000, 4.000000, 4.000000
104.000000, 0.000000, 4043.589600, 4066.666504, 4217.436035, 4228.205078, 4210.256348, 4212.307617, 4210.769043, 4191.281738, 4200.512695, 4223.076660, 4186.153809, 4204.615234, 4067.692139, 3751.794678, 3511.000000, 8284.000000, 8375.000000, 0.000000, 0.000000, 0.000000, -20077.000000, 417.435883, 4.000000, 4.000000, 4.000000, 4.000000, 4.000000, 4.000000, 4.000000, 4.000000, 0.000000, 4.000000, 4.000000, 4.000000, 4.000000, 4.000000, 4.000000, 4.000000
105.000000, 0.000000, 4032.307617, 4049.743408, 4218.461426, 4231.281738, 4193.846191, 4216.410156, 4216.922852, 4206.666504, 4202.563965, 4228.717773, 4191.281738, 4207.692383, 4069.743408, 3757.948730, 3458.000000, 8282.000000, 8359.000000, 0.000000, 0.000000, 0.000000, -20077.000000, 425.641022, 4.000000, 4.000000, 4.000000, 4.000000, 4.000000, 4.000000, 4.000000, 4.000000, 0.000000, 4.000000, 4.000000, 4.000000, 4.000000, 4.000000, 4.000000, 4.000000
106.000000, 0.000000, 4029.743408, 4036.410156, 4217.948730, 4234.358887, 4184.615234, 4217.436035, 4219.487305, 4214.871582, 4204.615234, 4223.076660, 4197.436035, 4215.897461, 4074.871582, 3772.307617, 3590.000000, 8282.000000, 8359.000000, 0.000000, 0.000000, 0.000000, -20077.000000, 433.333313, 4.000000, 4.000000, 4.000000, 4.000000, 4.000000, 4.000000, 4.000000, 4.000000, 0.000000, 4.000000, 4.000000, 4.000000, 4.000000, 4.000000, 4.000000, 4.000000
107.000000, 0.000000, 4020.512695, 4031.794678, 4216.922852, 4223.076660, 4197.436035, 4212.820313, 4214.871582, 4197.948730, 4202.563965, 4218.461426, 4192.820313, 4211.281738, 4072.820313, 3771.794678, 3617.000000, 8278.000000, 8355.000000, 0.000000, 0.000000, 0.000000, -20077.000000, 441.538452, 4.000000, 4.000000, 4.000000, 4.000000, 4.000000, 4.000000, 4.000000, 4.000000, 0.000000, 4.000000, 4.000000, 4.000000, 4.000000, 4.000000, 4.000000, 4.000000
108.000000, 0.000000, 4015.384521, 4038.461426, 4205.127930, 4213.846191, 4211.794922, 4215.384277, 4216.410156, 4196.410156, 4201.538574, 4242.563965, 4183.589844, 4203.076660, 4071.281982, 3764.615234, 3511.000000, 8278.000000, 8355.000000, 0.000000, 0.000000, 0.000000, -20077.000000, 449.230743, 4.000000, 4.000000, 4.000000, 4.000000, 4.000000, 4.000000, 4.000000, 4.000000, 0.000000, 4.000000, 4.000000, 4.000000, 4.000000, 4.000000, 4.000000, 4.000000
109.000000, 0.000000, 4013.845947, 4033.333252, 4197.436035, 4216.410156, 4203.589844, 4217.436035, 4218.974121, 4212.820313, 4202.563965, 4243.589844, 4190.769043, 4201.025391, 4073.845947, 3765.128174, 3458.000000, 8264.000000, 8348.000000, 0.000000, 0.000000, 0.000000, -20077.000000, 456.923065, 4.000000, 4.000000, 4.000000, 4.000000, 4.000000, 4.000000, 4.000000, 4.000000, 0.000000, 4.000000, 4.000000, 4.000000, 4.000000, 4.000000, 4.000000, 4.000000
110.000000, 0.000000, 4004.615234, 4015.897217, 4207.692383, 4215.897461, 4196.410156, 4213.333008, 4218.461426, 4215.897461, 4202.051270, 4215.384277, 4204.102539, 4203.076660, 4069.230713, 3765.128174, 3590.000000, 8264.000000, 8348.000000, 0.000000, 0.000000, 0.000000, -20077.000000, 464.615387, 4.000000, 4.000000, 4.000000, 4.000000, 4.000000, 4.000000, 4.000000, 4.000000, 0.000000, 4.000000, 4.000000, 4.000000, 4.000000, 4.000000, 4.000000, 4.000000
111.000000, 0.000000, 4005.128174, 4018.461426, 4213.333008, 4213.846191, 4200.512695, 4214.358887, 4225.641113, 4215.384277, 4201.025391, 4220.512695, 4196.922852, 4203.589844, 4061.538330, 3762.051270, 3617.000000, 8228.000000, 8349.000000, 0.000000, 0.000000, 0.000000, -20077.000000, 472.820496, 4.000000, 4.000000, 4.000000, 4.000000, 4.000000, 4.000000, 4.000000, 4.000000, 0.000000, 4.000000, 4.000000, 4.000000, 4.000000, 4.000000, 4.000000, 4.000000
112.000000, 0.000000, 4005.640869, 4014.871582, 4204.615234, 4218.461426, 4192.820313, 4221.538574, 4236.410156, 4215.897461, 4200.512695, 4236.922852, 4182.051270, 4202.563965, 4056.410156, 3761.538330, 3511.000000, 8228.000000, 8349.000000, 0.000000, 0.000000, 0.000000, -20077.000000, 480.512817, 4.000000, 4.000000, 4.000000, 4.000000, 4.000000, 4.000000, 4.000000, 4.000000, 0.000000, 4.000000, 4.000000, 4.000000, 4.000000, 4.000000, 4.000000, 4.000000
113.000000, 0.000000, 3987.179443, 4001.538330, 4198.974121, 4213.333008, 4183.589844, 4223.076660, 4232.820313, 4212.307617, 4202.563965, 4226.153809, 4181.538574, 4201.538574, 4052.307617, 3758.461426, 3458.000000, 8219.000000, 8356.000000, 0.000000, 0.000000, 0.000000, -20077.000000, 488.205109, 4.000000, 4.000000, 4.000000, 4.000000, 4.000000, 4.000000, 4.000000, 4.000000, 0.000000, 4.000000, 4.000000, 4.000000, 4.000000, 4.000000, 4.000000, 4.000000
114.000000, 0.000000, 3985.128174, 4001.025635, 4204.102539, 4205.641113, 4186.153809, 4219.487305, 4228.205078, 4221.538574, 4204.102539, 4215.384277, 4185.127930, 4202.051270, 4045.128174, 3760.000000, 3590.000000, 8219.000000, 8356.000000, 0.000000, 0.000000, 0.000000, -20077.000000, 495.897430, 4.000000, 4.000000, 4.000000, 4.000000, 4.000000, 4.000000, 4.000000, 4.000000, 0.000000, 4.000000, 4.000000, 4.000000, 4.000000, 4.000000, 4.000000, 4.000000
115.000000, 0.000000, 4002.563965, 3996.410156, 4208.205078, 4212.820313, 4193.333008, 4220.512695, 4238.461426, 4231.281738, 4203.589844, 4217.948730, 4184.102539, 4202.563965, 4039.487061, 3761.025635, 3617.000000, 8194.000000, 8369.000000, 0.000000, 0.000000, 0.000000, -20077.000000, 504.102539, 4.000000, 4.000000, 4.000000, 4.000000, 4.000000, 4.000000, 4.000000, 4.000000, 0.000000, 4.000000, 4.000000, 4.000000, 4.000000, 4.000000, 4.000000, 4.000000
116.000000, 0.000000, 4001.025635, 3994.358887, 4201.538574, 4216.922852, 4197.948730, 4218.461426, 4236.922852, 4225.127930, 4202.563965, 4213.846191, 4184.615234, 4200.512695, 4035.384521, 3756.923096, 3511.000000, 8194.000000, 8369.000000, 0.000000, 0.000000, 0.000000, -20077.000000, 512.307678, 4.000000, 4.000000, 4.000000, 4.000000, 4.000000, 4.000000, 4.000000, 4.000000, 0.000000, 4.000000, 4.000000, 4.000000, 4.000000, 4.000000, 4.000000, 4.000000
117.000000, 0.000000, 3988.205078, 3996.410156, 4200.000000, 4213.846191, 4196.922852, 4206.153809, 4212.820313, 4207.179199, 4202.563965, 4212.820313, 4177.436035, 4196.410156, 4025.128174, 3752.307617, 3458.000000, 8187.000000, 8365.000000, 0.000000, 0.000000, 0.000000, -20077.000000, 520.000000, 4.000000, 4.000000, 4.000000, 4.000000, 4.000000, 4.000000, 4.000000, 4.000000, 0.000000, 4.000000, 4.000000, 4.000000, 4.000000, 4.000000, 4.000000, 4.000000
118.000000, 0.000000, 3985.128174, 3990.769043, 4210.256348, 4216.410156, 4197.948730, 4202.563965, 4204.102539, 4203.076660, 4203.076660, 4217.436035, 4174.358887, 4200.000000, 4024.615234, 3752.820313, 3590.000000, 8187.000000, 8365.000000, 0.000000, 0.000000, 0.000000, -20077.000000, 527.692322, 4.000000, 4.000000, 4.000000, 4.000000, 4.000000, 4.000000, 4.000000, 4.000000, 0.000000, 4.000000, 4.000000, 4.000000, 4.000000, 4.000000, 4.000000, 4.000000
119.000000, 0.000000, 3991.281982, 3989.743408, 4214.871582, 4220.000000, 4195.384277, 4215.384277, 4217.436035, 4216.410156, 4203.076660, 4215.897461, 4192.307617, 4214.358887, 4042.563965, 3766.666504, 3617.000000, 8170.000000, 8371.000000, 0.000000, 0.000000, 0.000000, -20077.000000, 535.897400, 4.000000, 4.000000, 4.000000, 4.000000, 4.000000, 4.000000, 4.000000, 4.000000, 0.000000, 4.000000, 4.000000, 4.000000, 4.000000, 4.000000, 4.000000, 4.000000
120.000000, 0.000000, 4002.563965, 3991.281982, 4209.230469, 4221.538574, 4192.820313, 4217.436035, 4224.615234, 4221.025391, 4203.076660, 4224.102539, 4201.025391, 4220.000000, 4051.794678, 3780.000000, 3511.000000, 8170.000000, 8371.000000, 0.000000, 0.000000, 0.000000, -20077.000000, 543.589722, 4.000000, 4.000000, 4.000000, 4.000000, 4.000000, 4.000000, 4.000000, 4.000000, 0.000000, 4.000000, 4.000000, 4.000000, 4.000000, 4.000000, 4.000000, 4.000000
121.000000, 0.000000, 4008.717773, 3990.256348, 4209.230469, 4227.692383, 4200.512695, 4207.179199, 4218.461426, 4213.846191, 4203.076660, 4232.820313, 4194.871582, 4213.846191, 4049.743408, 3781.025635, 3458.000000, 8158.000000, 8378.000000, 0.000000, 0.000000, 0.000000, -20077.000000, 551.282043, 4.000000, 4.000000, 4.000000, 4.000000, 4.000000, 4.000000, 4.000000, 4.000000, 0.000000, 4.000000, 4.000000, 4.000000, 4.000000, 4.000000, 4.000000, 4.000000
122.000000, 0.000000, 4005.640869, 3994.871582, 4217.436035, 4230.769043, 4200.512695, 4212.307617, 4217.436035, 4213.846191, 4203.076660, 4228.717773, 4199.487305, 4215.384277, 4053.845947, 3781.025635, 3590.000000, 8158.000000, 8378.000000, 0.000000, 0.000000, 0.000000, -20077.000000, 558.974365, 4.000000, 4.000000, 4.000000, 4.000000, 4.000000, 4.000000, 4.000000, 4.000000, 0.000000, 4.000000, 4.000000, 4.000000, 4.000000, 4.000000, 4.000000, 4.000000
123.000000, 0.000000, 4001.538330, 3993.845947, 4221.025391, 4230.256348, 4187.179199, 4216.922852, 4219.487305, 4215.384277, 4203.076660, 4215.897461, 4204.102539, 4221.025391, 4048.205078, 3777.435791, 3617.000000, 8138.000000, 8382.000000, 0.000000, 0.000000, 0.000000, -20077.000000, 567.179443, 4.000000, 4.000000, 4.000000, 4.000000, 4.000000, 4.000000, 4.000000, 4.000000, 0.000000, 4.000000, 4.000000, 4.000000, 4.000000, 4.000000, 4.000000, 4.000000
124.000000, 0.000000, 3998.974365, 3987.692139, 4216.922852, 4228.205078, 4190.256348, 4205.127930, 4212.820313, 4202.051270, 4203.076660, 4205.127930, 4200.512695, 4217.948730, 4036.410156, 3764.615234, 3511.000000, 8138.000000, 8382.000000, 0.000000, 0.000000, 0.000000, -20077.000000, 574.871765, 4.000000, 4.000000, 4.000000, 4.000000, 4.000000, 4.000000, 4.000000, 4.000000, 0.000000, 4.000000, 4.000000, 4.000000, 4.000000, 4.000000, 4.000000, 4.000000
125.000000, 0.000000, 3984.102539, 3989.230713, 4210.769043, 4227.179199, 4205.127930, 4199.487305, 4204.102539, 4190.256348, 4202.051270, 4208.717773, 4193.333008, 4208.717773, 4036.410156, 3757.948730, 3458.000000, 8129.000000, 8412.000000, 0.000000, 0.000000, 0.000000, -20077.000000, 582.564087, 4.000000, 4.000000, 4.000000, 4.000000, 4.000000, 4.000000, 4.000000, 4.000000, 0.000000, 4.000000, 4.000000, 4.000000, 4.000000, 4.000000, 4.000000, 4.000000
126.000000, 0.000000, 3973.845947, 3992.307617, 4202.563965, 4229.230469, 4191.281738, 4204.615234, 4200.000000, 4188.717773, 4202.051270, 4215.897461, 4187.179199, 4202.563965, 4034.358887, 3764.615234, 3590.000000, 8129.000000, 8412.000000, 0.000000, 0.000000, 0.000000, -20077.000000, 590.256409, 4.000000, 4.000000, 4.000000, 4.000000, 4.000000, 4.000000, 4.000000, 4.000000, 0.000000, 4.000000, 4.000000, 4.000000, 4.000000, 4.000000, 4.000000, 4.000000
127.000000, 0.000000, 3979.487061, 3990.769043, 4196.922852, 4223.076660, 4166.153809, 4205.127930, 4194.871582, 4180.000000, 4202.051270, 4199.487305, 4184.615234, 4194.871582, 4025.128174, 3763.076904, 56.000000, 8142.000000, 8436.000000, 0.000000, 0.000000, 0.000000, -20077.000000, 598.461548, 4.000000, 4.000000, 4.000000, 4.000000, 4.000000, 4.000000, 4.000000, 4.000000, 0.000000, 4.000000, 4.000000, 4.000000, 4.000000, 4.000000, 4.000000, 4.000000
0.000000, 0.000000, 3975.384521, 3978.974365, 4195.384277, 4215.897461, 4173.333008, 4193.846191, 4192.307617, 4166.153809, 4201.025391, 4178.974121, 4177.948730, 4187.179199, 4014.358887, 3752.820313, 3188.000000, 8142.000000, 8436.000000, 0.000000, 0.000000, 0.000000, -20077.000000, 606.153809, 4.000000, 4.000000, 4.000000, 4.000000, 4.000000, 4.000000, 4.000000, 4.000000, 0.000000, 4.000000, 4.000000, 4.000000, 4.000000, 4.000000, 4.000000, 4.000000
1.000000, 0.000000, 3968.205078, 3975.384521, 4196.410156, 4223.589844, 4202.051270, 4188.717773, 4195.897461, 4175.384277, 4201.025391, 4189.230469, 4175.897461, 4189.743652, 4014.871582, 3755.897461, 3542.000000, 8187.000000, 8466.000000, 0.000000, 0.000000, 0.000000, -20077.000000, 614.358948, 4.000000, 4.000000, 4.000000, 4.000000, 4.000000, 4.000000, 4.000000, 4.000000, 0.000000, 4.000000, 4.000000, 4.000000, 4.000000, 4.000000, 4.000000, 4.000000
2.000000, 0.000000, 3974.871582, 3993.333252, 4202.051270, 4232.820313, 4204.102539, 4196.410156, 4203.076660, 4209.230469, 4203.076660, 4204.102539, 4186.153809, 4201.025391, 4024.102539, 3768.717773, 3589.000000, 8187.000000, 8466.000000, 0.000000, 0.000000, 0.000000, -20077.000000, 622.051270, 4.000000, 4.000000, 4.000000, 4.000000, 4.000000, 4.000000, 4.000000, 4.000000, 0.000000, 4.000000, 4.000000, 4.000000, 4.000000, 4.000000, 4.000000, 4.000000
3.000000, 0.000000, 3979.487061, 4000.000000, 4210.769043, 4230.769043, 4182.563965, 4202.563965, 4209.230469, 4222.563965, 4204.615234, 4202.051270, 4187.179199, 4208.717773, 4023.589600, 3776.410156, 2559.000000, 8199.000000, 8449.000000, 0.000000, 0.000000, 0.000000, -20077.000000, 630.256409, 4.000000, 4.000000, 4.000000, 4.000000, 4.000000, 4.000000, 4.000000, 4.000000, 0.000000, 4.000000, 4.000000, 4.000000, 4.000000, 4.000000, 4.000000, 4.000000
4.000000, 0.000000, 3978.461426, 3995.384521, 4218.461426, 4231.281738, 4190.769043, 4200.512695, 4209.230469, 4206.153809, 4203.076660, 4205.127930, 4190.769043, 4215.384277, 4026.666504, 3782.563965, 3555.000000, 8199.000000, 8449.000000, 0.000000, 0.000000, 0.000000, -20077.000000, 637.948730, 4.000000, 4.000000, 4.000000, 4.000000, 4.000000, 4.000000, 4.000000, 4.000000, 0.000000, 4.000000, 4.000000, 4.000000, 4.000000, 4.000000, 4.000000, 4.000000
5.000000, 0.000000, 3983.589600, 4001.538330, 4218.974121, 4236.410156, 4204.615234, 4198.974121, 4204.102539, 4189.743652, 4201.538574, 4208.205078, 4212.307617, 4218.461426, 4045.128174, 3791.794678, 3586.000000, 8198.000000, 8410.000000, 0.000000, 0.000000, 0.000000, -20077.000000, 646.153809, 4.000000, 4.000000, 4.000000, 4.000000, 4.000000, 4.000000, 4.000000, 4.000000, 0.000000, 4.000000, 4.000000, 4.000000, 4.000000, 4.000000, 4.000000, 4.000000
6.000000, 0.000000, 3982.563965, 3994.871582, 4212.820313, 4236.410156, 4185.127930, 4201.025391, 4202.563965, 4177.948730, 4201.538574, 4199.487305, 4212.307617, 4208.205078, 4050.769043, 3786.666504, 3445.000000, 8198.000000, 8410.000000, 0.000000, 0.000000, 0.000000, -20077.000000, 653.846130, 4.000000, 4.000000, 4.000000, 4.000000, 4.000000, 4.000000, 4.000000, 4.000000, 0.000000, 4.000000, 4.000000, 4.000000, 4.000000, 4.000000, 4.000000, 4.000000
7.000000, 0.000000, 3969.230713, 3990.769043, 4209.743652, 4234.871582, 4182.051270, 4203.589844, 4203.589844, 4166.153809, 4202.051270, 4196.410156, 4187.179199, 4199.487305, 4038.461426, 3775.897461, 3501.000000, 8209.000000, 8344.000000, 0.000000, 0.000000, 0.000000, -20077.000000, 661.538452, 4.000000, 4.000000, 4.000000, 4.000000, 4.000000, 4.000000, 4.000000, 4.000000, 0.000000, 4.000000, 4.000000, 4.000000, 4.000000, 4.000000, 4.000000, 4.000000
8.000000, 0.000000, 3971.794678, 4012.307617, 4213.333008, 4233.846191, 4206.666504, 4207.692383, 4200.000000, 4171.281738, 4202.051270, 4204.615234, 4181.025391, 4201.538574, 4040.000000, 3783.589600, 0.000000, 8209.000000, 8344.000000, 0.000000, 0.000000, 0.000000, -20077.000000, 669.743591, 4.000000, 4.000000, 4.000000, 4.000000, 4.000000, 4.000000, 4.000000, 4.000000, 0.000000, 4.000000, 4.000000, 4.000000, 4.000000, 4.000000, 4.000000, 4.000000
9.000000, 0.000000, 3981.538330, 4015.897217, 4216.922852, 4234.871582, 4209.743652, 4205.641113, 4200.512695, 4183.589844, 4202.051270, 4198.974121, 4186.666504, 4201.025391, 4049.743408, 3791.794678, 2980.000000, 8228.000000, 8329.000000, 0.000000, 0.000000, 0.000000, -20077.000000, 677.435852, 4.000000, 4.000000, 4.000000, 4.000000, 4.000000, 4.000000, 4.000000, 4.000000, 0.000000, 4.000000, 4.000000, 4.000000, 4.000000, 4.000000, 4.000000, 4.000000
10.000000, 0.000000, 3974.871582, 4006.153809, 4216.922852, 4238.461426, 4197.948730, 4201.025391, 4203.076660, 4186.153809, 4202.051270, 4188.717773, 4185.127930, 4198.974121, 4050.769043, 3786.153809, 3602.000000, 8228.000000, 8329.000000, 0.000000, 0.000000, 0.000000, -20077.000000, 685.128174, 4.000000, 4.000000, 4.000000, 4.000000, 4.000000, 4.000000, 4.000000, 4.000000, 0.000000, 4.000000, 4.000000, 4.000000, 4.000000, 4.000000, 4.000000, 4.000000
11.000000, 0.000000, 3963.076904, 4014.358887, 4216.922852, 4231.794922, 4192.307617, 4202.051270, 4202.051270, 4183.076660, 4202.051270, 4190.769043, 4188.717773, 4201.538574, 4050.769043, 3784.102539, 3602.000000, 8236.000000, 8333.000000, 0.000000, 0.000000, 0.000000, -20077.000000, 693.333313, 4.000000, 4.000000, 4.000000, 4.000000, 4.000000, 4.000000, 4.000000, 4.000000, 0.000000, 4.000000, 4.000000, 4.000000, 4.000000, 4.000000, 4.000000, 4.000000
12.000000, 0.000000, 3955.384521, 4018.974365, 4215.897461, 4219.487305, 4172.307617, 4200.000000, 4198.461426, 4180.512695, 4202.051270, 4191.281738, 4185.641113, 4198.461426, 4046.153809, 3783.076904, 3527.000000, 8236.000000, 8333.000000, 0.000000, 0.000000, 0.000000, -20077.000000, 701.025635, 4.000000, 4.000000, 4.000000, 4.000000, 4.000000, 4.000000, 4.000000, 4.000000, 0.000000, 4.000000, 4.000000, 4.000000, 4.000000, 4.000000, 4.000000, 4.000000
13.000000, 0.000000, 3951.794678, 4016.410156, 4209.230469, 4217.436035, 4164.102539, 4197.948730, 4199.487305, 4181.025391, 4202.563965, 4182.051270, 4174.871582, 4188.717773, 4030.769043, 3775.897461, 3463.000000, 8249.000000, 8334.000000, 0.000000, 0.000000, 0.000000, -20077.000000, 709.230774, 4.000000, 4.000000, 4.000000, 4.000000, 4.000000, 4.000000, 4.000000, 4.000000, 0.000000, 4.000000, 4.000000, 4.000000, 4.000000, 4.000000, 4.000000, 4.000000
14.000000, 0.000000, 3942.563965, 4015.384521, 4200.000000, 4221.025391, 4179.487305, 4201.538574, 4210.256348, 4184.102539, 4203.076660, 4179.487305, 4170.256348, 4185.127930, 4015.897217, 3765.640869, 3602.000000, 8249.000000, 8334.000000, 0.000000, 0.000000, 0.000000, -20077.000000, 716.923035, 4.000000, 4.000000, 4.000000, 4.000000, 4.000000, 4.000000, 4.000000, 4.000000, 0.000000, 4.000000, 4.000000, 4.000000, 4.000000, 4.000000, 4.000000, 4.000000
15.000000, 0.000000, 3932.820313, 4004.102539, 4194.871582, 4216.922852, 4184.615234, 4192.307617, 4211.281738, 4187.692383, 4203.076660, 4184.615234, 4161.538574, 4183.589844, 4015.384521, 3757.435791, 3602.000000, 8269.000000, 8345.000000, 0.000000, 0.000000, 0.000000, -20077.000000, 724.615356, 4.000000, 4.000000, 4.000000, 4.000000, 4.000000, 4.000000, 4.000000, 4.000000, 0.000000, 4.000000, 4.000000, 4.000000, 4.000000, 4.000000, 4.000000, 4.000000
16.000000, 0.000000, 3932.820313, 4003.589600, 4194.358887, 4212.820313, 4193.333008, 4184.615234, 4207.692383, 4187.179199, 4203.076660, 4187.692383, 4162.051270, 4182.563965, 4029.743408, 3767.692139, 0.000000, 8269.000000, 8345.000000, 0.000000, 0.000000, 0.000000, -20077.000000, 732.820496, 4.000000, 4.000000, 4.000000, 4.000000, 4.000000, 4.000000, 4.000000, 4.000000, 0.000000, 4.000000, 4.000000, 4.000000, 4.000000, 4.000000, 4.000000, 4.000000
17.000000, 0.000000, 3939.487061, 4029.230713, 4197.436035, 4215.384277, 4201.025391, 4201.538574, 4220.512695, 4184.102539, 4203.589844, 4186.666504, 4181.538574, 4187.179199, 4042.563965, 3784.102539, 0.000000, 8293.000000, 8352.000000, 0.000000, 0.000000, 0.000000, -20077.000000, 740.512817, 4.000000, 4.000000, 4.000000, 4.000000, 4.000000, 4.000000, 4.000000, 4.000000, 0.000000, 4.000000, 4.000000, 4.000000, 4.000000, 4.000000, 4.000000, 4.000000
18.000000, 0.000000, 3950.769043, 4038.461426, 4202.051270, 4211.794922, 4179.487305, 4206.153809, 4226.666504, 4193.333008, 4204.102539, 4186.153809, 4188.717773, 4189.743652, 4044.615234, 3784.615234, 0.000000, 8293.000000, 8352.000000, 0.000000, 0.000000, 0.000000, -20077.000000, 748.717957, 4.000000, 4.000000, 4.000000, 4.000000, 4.000000, 4.000000, 4.000000, 4.000000, 0.000000, 4.000000, 4.000000, 4.000000, 4.000000, 4.000000, 4.000000, 4.000000
19.000000, 0.000000, 3948.205078, 4019.487061, 4203.589844, 4208.205078, 4161.538574, 4192.820313, 4206.666504, 4201.538574, 4203.589844, 4192.307617, 4181.538574, 4188.717773, 4049.743408, 3786.153809, 0.000000, 8305.000000, 8353.000000, 0.000000, 0.000000, 0.000000, -20077.000000, 756.410217, 4.000000, 4.000000, 4.000000, 4.000000, 4.000000, 4.000000, 4.000000, 4.000000, 0.000000, 4.000000, 4.000000, 4.000000, 4.000000, 4.000000, 4.000000, 4.000000
20.000000, 0.000000, 3932.820313, 4017.435791, 4203.589844, 4211.794922, 4180.000000, 4196.410156, 4194.358887, 4183.589844, 4201.538574, 4201.538574, 4185.641113, 4192.820313, 4061.025635, 3796.923096, 0.000000, 8305.000000, 8353.000000, 0.000000, 0.000000, 0.000000, -20077.000000, 764.102539, 4.000000, 4.000000, 4.000000, 4.000000, 4.000000, 4.000000, 4.000000, 4.000000, 0.000000, 4.000000, 4.000000, 4.000000, 4.000000, 4.000000, 4.000000, 4.000000
21.000000, 0.000000, 3931.794678, 4032.820313, 4208.205078, 4212.820313, 4191.281738, 4200.000000, 4201.538574, 4163.076660, 4201.538574, 4202.563965, 4188.717773, 4202.051270, 4064.615234, 3806.666504, 0.000000, 8302.000000, 8348.000000, 0.000000, 0.000000, 0.000000, -20077.000000, 772.307678, 4.000000, 4.000000, 4.000000, 4.000000, 4.000000, 4.000000, 4.000000, 4.000000, 0.000000, 4.000000, 4.000000, 4.000000, 4.000000, 4.000000, 4.000000, 4.000000
22.000000, 0.000000, 3945.640869, 4038.974365, 4213.846191, 4215.384277, 4179.487305, 4191.794922, 4207.692383, 4166.666504, 4203.589844, 4196.410156, 4184.615234, 4202.563965, 4062.051270, 3818.461426, 0.000000, 8302.000000, 8348.000000, 0.000000, 0.000000, 0.000000, -20077.000000, 780.000000, 4.000000, 4.000000, 4.000000, 4.000000, 4.000000, 4.000000, 4.000000, 4.000000, 0.000000, 4.000000, 4.000000, 4.000000, 4.000000, 4.000000, 4.000000, 4.000000
23.000000, 0.000000, 3948.205078, 4039.487061, 4208.717773, 4217.948730, 4186.153809, 4198.974121, 4208.205078, 4177.436035, 4202.563965, 4186.666504, 4187.692383, 4193.846191, 4056.410156, 3818.461426, 0.000000, 8298.000000, 8350.000000, 0.000000, 0.000000, 0.000000, -20077.000000, 788.205139, 4.000000, 4.000000, 4.000000, 4.000000, 4.000000, 4.000000, 4.000000, 4.000000, 0.000000, 4.000000, 4.000000, 4.000000, 4.000000, 4.000000, 4.000000, 4.000000
24.000000, 0.000000, 3928.205078, 4037.948730, 4193.846191, 4207.692383, 4190.769043, 4207.692383, 4216.922852, 4185.641113, 4201.025391, 4173.333008, 4173.846191, 4181.025391, 4037.435791, 3796.410156, 0.000000, 8298.000000, 8350.000000, 0.000000, 0.000000, 0.000000, -20077.000000, 796.410217, 4.000000, 4.000000, 4.000000, 4.000000, 4.000000, 4.000000, 4.000000, 4.000000, 0.000000, 4.000000, 4.000000, 4.000000, 4.000000, 4.000000, 4.000000, 4.000000
25.000000, 0.000000, 3918.461426, 4041.025635, 4187.692383, 4195.897461, 4169.743652, 4201.538574, 4227.179199, 4189.230469, 4202.563965, 4165.127930, 4150.769043, 4171.281738, 4024.102539, 3788.205078, 0.000000, 8279.000000, 8284.000000, 0.000000, 0.000000, 0.000000, -20077.000000, 804.102539, 4.000000, 4.000000, 4.000000, 4.000000, 4.000000, 4.000000, 4.000000, 4.000000, 0.000000, 4.000000, 4.000000, 4.000000, 4.000000, 4.000000, 4.000000, 4.000000
26.000000, 0.000000, 3925.128174, 4035.897217, 4201.025391, 4205.641113, 4162.051270, 4201.025391, 4224.615234, 4190.769043, 4203.589844, 4174.358887, 4156.922852, 4174.358887, 4041.538330, 3803.589600, 0.000000, 8279.000000, 8284.000000, 0.000000, 0.000000, 0.000000, -20077.000000, 812.307678, 4.000000, 4.000000, 4.000000, 4.000000, 4.000000, 4.000000, 4.000000, 4.000000, 0.000000, 4.000000, 4.000000, 4.000000, 4.000000, 4.000000, 4.000000, 4.000000
27.000000, 0.000000, 3930.256348, 4023.589600, 4215.897461, 4218.974121, 4175.897461, 4199.487305, 4219.487305, 4188.205078, 4202.563965, 4186.666504, 4180.512695, 4188.205078, 4062.051270, 3817.435791, 0.000000, 8256.000000, 8225.000000, 0.000000, 0.000000, 0.000000, -20077.000000, 820.000000, 4.000000, 4.000000, 4.000000, 4.000000, 4.000000, 4.000000, 4.000000, 4.000000, 0.000000, 4.000000, 4.000000, 4.000000, 4.000000, 4.000000, 4.000000, 4.000000
28.000000, 0.000000, 3934.871582, 4032.820313, 4214.871582, 4217.948730, 4171.281738, 4185.641113, 4214.358887, 4164.102539, 4201.538574, 4185.641113, 4186.666504, 4198.974121, 4069.230713, 3829.230713, 0.000000, 8256.000000, 8225.000000, 0.000000, 0.000000, 0.000000, -20077.000000, 828.205078, 4.000000, 4.000000, 4.000000, 4.000000, 4.000000, 4.000000, 4.000000, 4.000000, 0.000000, 4.000000, 4.000000, 4.000000, 4.000000, 4.000000, 4.000000, 4.000000
29.000000, 0.000000, 3944.102539, 4057.435791, 4207.179199, 4214.871582, 4160.000000, 4184.102539, 4203.076660, 4140.512695, 4201.025391, 4181.025391, 4184.615234, 4200.512695, 4082.051270, 3841.538330, 0.000000, 8224.000000, 8164.000000, 0.000000, 0.000000, 0.000000, -20077.000000, 835.897400, 4.000000, 4.000000, 4.000000, 4.000000, 4.000000, 4.000000, 4.000000, 4.000000, 0.000000, 4.000000, 4.000000, 4.000000, 4.000000, 4.000000, 4.000000, 4.000000
30.000000, 0.000000, 3945.640869, 4060.512695, 4212.307617, 4216.922852, 4172.307617, 4188.717773, 4196.410156, 4152.307617, 4201.025391, 4185.127930, 4186.666504, 4195.897461, 4094.871582, 3843.589600, 0.000000, 8224.000000, 8164.000000, 0.000000, 0.000000, 0.000000, -20077.000000, 843.589722, 4.000000, 4.000000, 4.000000, 4.000000, 4.000000, 4.000000, 4.000000, 4.000000, 0.000000, 4.000000, 4.000000, 4.000000, 4.000000, 4.000000, 4.000000, 4.000000
31.000000, 0.000000, 3935.897461, 4037.435791, 4215.384277, 4212.307617, 4168.717773, 4184.615234, 4198.974121, 4169.743652, 4202.051270, 4185.127930, 4182.051270, 4190.769043, 4092.820313, 3842.051270, 0.000000, 8183.000000, 8127.000000, 0.000000, 0.000000, 0.000000, -20077.000000, 851.794861, 4.000000, 4.000000, 4.000000, 4.000000, 4.000000, 4.000000, 4.000000, 4.000000, 0.000000, 4.000000, 4.000000, 4.000000, 4.000000, 4.000000, 4.000000, 4.000000
32.000000, 0.000000, 3938.461426, 4030.256348, 4206.153809, 4204.102539, 4141.538574, 4182.051270, 4199.487305, 4173.333008, 4204.102539, 4178.461426, 4175.384277, 4187.179199, 4085.128174, 3845.640869, 0.000000, 8183.000000, 8127.000000, 0.000000, 0.000000, 0.000000, -20077.000000, 859.487183, 4.000000, 4.000000, 4.000000, 4.000000, 4.000000, 4.000000, 4.000000, 4.000000, 0.000000, 4.000000, 4.000000, 4.000000, 4.000000, 4.000000, 4.000000, 4.000000
33.000000, 0.000000, 3942.563965, 4047.179443, 4201.538574, 4205.641113, 4141.025391, 4184.102539, 4198.461426, 4178.461426, 4204.102539, 4180.512695, 4173.333008, 4185.641113, 4078.974365, 3844.615234, 0.000000, 8197.000000, 8127.000000, 0.000000, 0.000000, 0.000000, -20077.000000, 867.179443, 4.000000, 4.000000, 4.000000, 4.000000, 4.000000, 4.000000, 4.000000, 4.000000, 0.000000, 4.000000, 4.000000, 4.000000, 4.000000, 4.000000, 4.000000, 4.000000
34.000000, 0.000000, 3931.794678, 4053.845947, 4196.922852, 4208.205078, 4161.025391, 4184.102539, 4201.025391, 4172.820313, 4202.051270, 4182.563965, 4168.717773, 4183.589844, 4065.640869, 3833.333252, 0.000000, 8197.000000, 8127.000000, 0.000000, 0.000000, 0.000000, -20077.000000, 875.384583, 4.000000, 4.000000, 4.000000, 4.000000, 4.000000, 4.000000, 4.000000, 4.000000, 0.000000, 4.000000, 4.000000, 4.000000, 4.000000, 4.000000, 4.000000, 4.000000
35.000000, 0.000000, 3925.128174, 4045.640869, 4191.794922, 4200.512695, 4167.692383, 4183.076660, 4200.512695, 4160.000000, 4201.538574, 4175.897461, 4164.615234, 4181.538574, 4057.435791, 3828.205078, 0.000000, 8200.000000, 8108.000000, 0.000000, 0.000000, 0.000000, -20077.000000, 883.076904, 4.000000, 4.000000, 4.000000, 4.000000, 4.000000, 4.000000, 4.000000, 4.000000, 0.000000, 4.000000, 4.000000, 4.000000, 4.000000, 4.000000, 4.000000, 4.000000
36.000000, 0.000000, 3929.743408, 4037.948730, 4192.820313, 4197.436035, 4166.666504, 4185.641113, 4199.487305, 4164.615234, 4203.076660, 4178.974121, 4171.794922, 4181.025391, 4067.179443, 3837.435791, 0.000000, 8200.000000, 8108.000000, 0.000000, 0.000000, 0.000000, -20077.000000, 891.282043, 4.000000, 4.000000, 4.000000, 4.000000, 4.000000, 4.000000, 4.000000, 4.000000, 0.000000, 4.000000, 4.000000, 4.000000, 4.000000, 4.000000, 4.000000, 4.000000
37.000000, 0.000000, 3935.897461, 4042.563965, 4201.025391, 4209.743652, 4164.615234, 4186.153809, 4196.922852, 4172.307617, 4203.589844, 4192.820313, 4182.051270, 4189.743652, 4079.487061, 3851.794678, 0.000000, 8185.000000, 8104.000000, 0.000000, 0.000000, 0.000000, -20077.000000, 898.974365, 4.000000, 4.000000, 4.000000, 4.000000, 4.000000, 4.000000, 4.000000, 4.000000, 0.000000, 4.000000, 4.000000, 4.000000, 4.000000, 4.000000, 4.000000, 4.000000
38.000000, 0.000000, 3947.179443, 4054.358887, 4211.281738, 4221.538574, 4161.538574, 4186.153809, 4197.948730, 4169.743652, 4203.076660, 4201.025391, 4192.820313, 4211.794922, 4089.743408, 3868.205078, 0.000000, 8185.000000, 8104.000000, 0.000000, 0.000000, 0.000000, -20077.000000, 906.666626, 4.000000, 4.000000, 4.000000, 4.000000, 4.000000, 4.000000, 4.000000, 4.000000, 0.000000, 4.000000, 4.000000, 4.000000, 4.000000, 4.000000, 4.000000, 4.000000
39.000000, 0.000000, 3958.461426, 4060.000000, 4218.461426, 4220.512695, 4163.076660, 4191.794922, 4201.538574, 4173.846191, 4201.538574, 4206.666504, 4209.230469, 4227.692383, 4100.512695, 3882.563965, 0.000000, 8185.000000, 8111.000000, 0.000000, 0.000000, 0.000000, -20077.000000, 914.871765, 4.000000, 4.000000, 4.000000, 4.000000, 4.000000, 4.000000, 4.000000, 4.000000, 0.000000, 4.000000, 4.000000, 4.000000, 4.000000, 4.000000, 4.000000, 4.000000
40.000000, 0.000000, 3959.487061, 4062.051270, 4212.820313, 4215.897461, 4166.153809, 4192.820313, 4198.974121, 4184.102539, 4200.512695, 4215.897461, 4215.384277, 4225.127930, 4096.410156, 3884.615234, 0.000000, 8185.000000, 8111.000000, 0.000000, 0.000000, 0.000000, -20077.000000, 922.564087, 4.000000, 4.000000, 4.000000, 4.000000, 4.000000, 4.000000, 4.000000, 4.000000, 0.000000, 4.000000, 4.000000, 4.000000, 4.000000, 4.000000, 4.000000, 4.000000
41.000000, 0.000000, 3956.410156, 4067.692139, 4205.641113, 4216.922852, 4167.692383, 4187.179199, 4196.922852, 4188.205078, 4202.051270, 4216.922852, 4211.794922, 4216.922852, 4076.410156, 3885.128174, 0.000000, 8235.000000, 8093.000000, 0.000000, 0.000000, 0.000000, -20077.000000, 930.256409, 4.000000, 4.000000, 4.000000, 4.000000, 4.000000, 4.000000, 4.000000, 4.000000, 0.000000, 4.000000, 4.000000, 4.000000, 4.000000, 4.000000, 4.000000, 4.000000
42.000000, 0.000000, 3958.461426, 4076.410156, 4213.333008, 4218.974121, 4171.281738, 4184.615234, 4203.589844, 4193.333008, 4203.076660, 4207.692383, 4211.794922, 4215.384277, 4060.000000, 3892.307617, 0.000000, 8235.000000, 8093.000000, 0.000000, 0.000000, 0.000000, -20077.000000, 938.461487, 4.000000, 4.000000, 4.000000, 4.000000, 4.000000, 4.000000, 4.000000, 4.000000, 0.000000, 4.000000, 4.000000, 4.000000, 4.000000, 4.000000, 4.000000, 4.000000
43.000000, 0.000000, 3966.666504, 4082.051270, 4220.512695, 4218.461426, 4171.794922, 4189.743652, 4206.153809, 4193.846191, 4201.538574, 4204.102539, 4211.794922, 4221.025391, 4054.871582, 3898.974365, 0.000000, 8262.000000, 8081.000000, 0.000000, 0.000000, 0.000000, -20077.000000, 946.153809, 4.000000, 4.000000, 4.000000, 4.000000, 4.000000, 4.000000, 4.000000, 4.000000, 0.000000, 4.000000, 4.000000, 4.000000, 4.000000, 4.000000, 4.000000, 4.000000
44.000000, 0.000000, 3973.845947, 4086.153809, 4216.922852, 4222.563965, 4170.256348, 4189.743652, 4200.000000, 4183.076660, 4200.512695, 4205.127930, 4204.615234, 4218.974121, 4044.615234, 3893.845947, 0.000000, 8262.000000, 8081.000000, 0.000000, 0.000000, 0.000000, -20077.000000, 953.846130, 4.000000, 4.000000, 4.000000, 4.000000, 4.000000, 4.000000, 4.000000, 4.000000, 0.000000, 4.000000, 4.000000, 4.000000, 4.000000, 4.000000, 4.000000, 4.000000
45.000000, 0.000000, 3965.128174, 4091.281982, 4215.897461, 4228.717773, 4171.281738, 4178.461426, 4198.974121, 4173.333008, 4201.538574, 4201.025391, 4193.846191, 4205.641113, 4031.794678, 3884.102539, 0.000000, 8303.000000, 8073.000000, 0.000000, 0.000000, 0.000000, -20077.000000, 961.538452, 4.000000, 4.000000, 4.000000, 4.000000, 4.000000, 4.000000, 4.000000, 4.000000, 0.000000, 4.000000, 4.000000, 4.000000, 4.000000, 4.000000, 4.000000, 4.000000
46.000000, 0.000000, 3956.410156, 4095.384521, 4221.025391, 4230.256348, 4162.051270, 4173.333008, 4202.051270, 4166.153809, 4202.563965, 4197.948730, 4192.820313, 4206.153809, 4034.871582, 3881.538330, 0.000000, 8303.000000, 8073.000000, 0.000000, 0.000000, 0.000000, -20077.000000, 969.743591, 4.000000, 4.000000, 4.000000, 4.000000, 4.000000, 4.000000, 4.000000, 4.000000, 0.000000, 4.000000, 4.000000, 4.000000, 4.000000, 4.000000, 4.000000, 4.000000
47.000000, 0.000000, 3965.128174, 4103.589844, 4221.025391, 4229.230469, 4159.487305, 4179.487305, 4200.000000, 4156.410156, 4202.051270, 4201.538574, 4195.897461, 4213.333008, 4041.538330, 3881.025635, 0.000000, 8297.000000, 8056.000000, 0.000000, 0.000000, 0.000000, -20077.000000, 977.435852, 4.000000, 4.000000, 4.000000, 4.000000, 4.000000, 4.000000, 4.000000, 4.000000, 0.000000, 4.000000, 4.000000, 4.000000, 4.000000, 4.000000, 4.000000, 4.000000
48.000000, 0.000000, 3972.820313, 4114.871582, 4213.333008, 4229.230469, 4172.820313, 4188.717773, 4200.000000, 4161.025391, 4202.051270, 4204.615234, 4191.281738, 4205.641113, 4032.307617, 3877.948730, 0.000000, 8297.000000, 8056.000000, 0.000000, 0.000000, 0.000000, -20077.000000, 985.128174, 4.000000, 4.000000, 4.000000, 4.000000, 4.000000, 4.000000, 4.000000, 4.000000, 0.000000, 4.000000, 4.000000, 4.000000, 4.000000, 4.000000, 4.000000, 4.000000
49.000000, 0.000000, 3975.384521, 4120.512695, 4210.769043, 4230.256348, 4167.692383, 4184.615234, 4202.051270, 4173.846191, 4202.051270, 4196.410156, 4183.076660, 4196.410156, 4024.102539, 3874.358887, 0.000000, 8273.000000, 7982.000000, 0.000000, 0.000000, 0.000000, -20077.000000, 993.333313, 4.000000, 4.000000, 4.000000, 4.000000, 4.000000, 4.000000, 4.000000, 4.000000, 0.000000, 4.000000, 4.000000, 4.000000, 4.000000, 4.000000, 4.000000, 4.000000
50.000000, 0.000000, 3971.281982, 4121.538574, 4216.410156, 4229.230469, 4159.487305, 4175.897461, 4200.000000, 4169.743652, 4201.025391, 4186.153809, 4181.025391, 4200.000000, 4025.128174, 3867.692139, 0.000000, 8273.000000, 7982.000000, 0.000000, 0.000000, 0.000000, -20076.000000, 1.025641, 4.000000, 4.000000, 4.000000, 4.000000, 4.000000, 4.000000, 4.000000, 4.000000, 0.000000, 4.000000, 4.000000, 4.000000, 4.000000, 4.000000, 4.000000, 4.000000
51.000000, 0.000000, 3958.974365, 4123.076660, 4216.410156, 4228.717773, 4179.487305, 4181.025391, 4198.461426, 4161.025391, 4201.025391, 4190.769043, 4181.025391, 4203.076660, 4027.179443, 3864.102539, 0.000000, 8267.000000, 7939.000000, 0.000000, 0.000000, 0.000000, -20076.000000, 8.717949, 4.000000, 4.000000, 4.000000, 4.000000, 4.000000, 4.000000, 4.000000, 4.000000, 0.000000, 4.000000, 4.000000, 4.000000, 4.000000, 4.000000, 4.000000, 4.000000
52.000000, 0.000000, 3963.076904, 4140.512695, 4213.333008, 4230.769043, 4188.717773, 4194.358887, 4204.615234, 4176.922852, 4202.563965, 4206.666504, 4190.769043, 4210.769043, 4047.692139, 3878.461426, 0.000000, 8267.000000, 7939.000000, 0.000000, 0.000000, 0.000000, -20076.000000, 16.410255, 4.000000, 4.000000, 4.000000, 4.000000, 4.000000, 4.000000, 4.000000, 4.000000, 0.000000, 4.000000, 4.000000, 4.000000, 4.000000, 4.000000, 4.000000, 4.000000
53.000000, 0.000000, 3985.128174, 4164.615234, 4219.487305, 4233.333008, 4173.333008, 4201.538574, 4212.307617, 4197.436035, 4202.563965, 4214.871582, 4210.769043, 4227.179199, 4085.640869, 3903.076904, 0.000000, 8262.000000, 7904.000000, 0.000000, 0.000000, 0.000000, -20076.000000, 24.615383, 4.000000, 4.000000, 4.000000, 4.000000, 4.000000, 4.000000, 4.000000, 4.000000, 0.000000, 4.000000, 4.000000, 4.000000, 4.000000, 4.000000, 4.000000, 4.000000
54.000000, 0.000000, 3992.820313, 4171.794922, 4220.512695, 4232.820313, 4168.717773, 4195.897461, 4209.230469, 4191.281738, 4201.538574, 4214.358887, 4221.025391, 4233.333008, 4105.641113, 3916.410156, 0.000000, 8262.000000, 7904.000000, 0.000000, 0.000000, 0.000000, -20076.000000, 32.307690, 4.000000, 4.000000, 4.000000, 4.000000, 4.000000, 4.000000, 4.000000, 4.000000, 0.000000, 4.000000, 4.000000, 4.000000, 4.000000, 4.000000, 4.000000, 4.000000
55.000000, 0.000000, 3988.205078, 4163.589844, 4220.512695, 4227.692383, 4166.153809, 4186.153809, 4197.948730, 4179.487305, 4202.051270, 4221.025391, 4227.179199, 4237.436035, 4114.358887, 3926.153809, 0.000000, 8231.000000, 7842.000000, 0.000000, 0.000000, 0.000000, -20076.000000, 40.000000, 4.000000, 4.000000, 4.000000, 4.000000, 4.000000, 4.000000, 4.000000, 4.000000, 0.000000, 4.000000, 4.000000, 4.000000, 4.000000, 4.000000, 4.000000, 4.000000
56.000000, 0.000000, 3988.717773, 4155.897461, 4227.692383, 4221.025391, 4158.461426, 4183.589844, 4197.436035, 4192.307617, 4203.589844, 4232.307617, 4235.897461, 4246.153809, 4130.256348, 3937.948730, 0.000000, 8231.000000, 7842.000000, 0.000000, 0.000000, 0.000000, -20076.000000, 48.205128, 4.000000, 4.000000, 4.000000, 4.000000, 4.000000, 4.000000, 4.000000, 4.000000, 0.000000, 4.000000, 4.000000, 4.000000, 4.000000, 4.000000, 4.000000, 4.000000
57.000000, 0.000000, 3989.743408, 4155.897461, 4227.179199, 4217.436035, 4164.615234, 4192.820313, 4212.307617, 4207.692383, 4203.589844, 4235.897461, 4237.436035, 4248.205078, 4143.076660, 3944.615234, 0.000000, 8217.000000, 7844.000000, 0.000000, 0.000000, 0.000000, -20076.000000, 55.897434, 4.000000, 4.000000, 4.000000, 4.000000, 4.000000, 4.000000, 4.000000, 4.000000, 0.000000, 4.000000, 4.000000, 4.000000, 4.000000, 4.000000, 4.000000, 4.000000
58.000000, 0.000000, 3992.307617, 4155.384277, 4220.512695, 4212.307617, 4169.743652, 4194.871582, 4218.974121, 4202.051270, 4203.076660, 4235.897461, 4238.974121, 4244.102539, 4146.666504, 3944.102539, 0.000000, 8217.000000, 7844.000000, 0.000000, 0.000000, 0.000000, -20076.000000, 63.589741, 4.000000, 4.000000, 4.000000, 4.000000, 4.000000, 4.000000, 4.000000, 4.000000, 0.000000, 4.000000, 4.000000, 4.000000, 4.000000, 4.000000, 4.000000, 4.000000
59.000000, 0.000000, 4001.538330, 4154.358887, 4214.871582, 4210.769043, 4165.127930, 4188.205078, 4216.410156, 4206.153809, 4202.563965, 4242.563965, 4246.666504, 4246.153809, 4151.794922, 3946.153809, 0.000000, 8184.000000, 7890.000000, 0.000000, 0.000000, 0.000000, -20076.000000, 71.794868, 4.000000, 4.000000, 4.000000, 4.000000, 4.000000, 4.000000, 4.000000, 4.000000, 0.000000, 4.000000, 4.000000, 4.000000, 4.000000, 4.000000, 4.000000, 4.000000
60.000000, 0.000000, 4000.512695, 4155.384277, 4209.230469, 4216.410156, 4162.563965, 4193.846191, 4223.589844, 4222.563965, 4202.051270, 4251.281738, 4252.820313, 4250.256348, 4156.410156, 3953.845947, 0.000000, 8184.000000, 7890.000000, 0.000000, 0.000000, 0.000000, -20076.000000, 79.487175, 4.000000, 4.000000, 4.000000, 4.000000, 4.000000, 4.000000, 4.000000, 4.000000, 0.000000, 4.000000, 4.000000, 4.000000, 4.000000, 4.000000, 4.000000, 4.000000
61.000000, 0.000000, 3989.230713, 4140.000000, 4206.666504, 4213.846191, 4157.948730, 4203.076660, 4231.281738, 4219.487305, 4202.051270, 4253.846191, 4248.205078, 4249.230469, 4148.717773, 3951.794678, 0.000000, 8174.000000, 7907.000000, 0.000000, 0.000000, 0.000000, -20076.000000, 87.179482, 4.000000, 4.000000, 4.000000, 4.000000, 4.000000, 4.000000, 4.000000, 4.000000, 0.000000, 4.000000, 4.000000, 4.000000, 4.000000, 4.000000, 4.000000, 4.000000
62.000000, 0.000000, 3986.153809, 4119.487305, 4213.846191, 4202.563965, 4157.436035, 4202.563965, 4227.692383, 4219.487305, 4203.076660, 4251.281738, 4240.000000, 4244.615234, 4133.846191, 3938.974365, 0.000000, 8174.000000, 7907.000000, 0.000000, 0.000000, 0.000000, -20076.000000, 94.871796, 4.000000, 4.000000, 4.000000, 4.000000, 4.000000, 4.000000, 4.000000, 4.000000, 0.000000, 4.000000, 4.000000, 4.000000, 4.000000, 4.000000, 4.000000, 4.000000
63.000000, 0.000000, 3989.743408, 4113.333008, 4224.615234, 4202.051270, 4153.333008, 4201.538574, 4222.051270, 4234.358887, 4203.076660, 4241.538574, 4230.769043, 4238.461426, 4122.051270, 3927.692139, 0.000000, 8159.000000, 7915.000000, 0.000000, 0.000000, 0.000000, -20076.000000, 103.076920, 4.000000, 4.000000, 4.000000, 4.000000, 4.000000, 4.000000, 4.000000, 4.000000, 0.000000, 4.000000, 4.000000, 4.000000, 4.000000, 4.000000, 4.000000, 4.000000
64.000000, 0.000000, 3986.666504, 4104.102539, 4226.153809, 4206.153809, 4137.436035, 4198.461426, 4217.948730, 4214.871582, 4202.563965, 4230.256348, 4216.922852, 4230.256348, 4111.281738, 3924.615234, 3188.000000, 8159.000000, 7915.000000, 0.000000, 0.000000, 0.000000, -20076.000000, 110.769226, 4.000000, 4.000000, 4.000000, 4.000000, 4.000000, 4.000000, 4.000000, 4.000000, 0.000000, 4.000000, 4.000000, 4.000000, 4.000000, 4.000000, 4.000000, 4.000000
65.000000, 0.000000, 3979.487061, 4087.179443, 4216.922852, 4195.897461, 4142.051270, 4189.230469, 4212.820313, 4176.922852, 4203.076660, 4226.666504, 4206.153809, 4221.538574, 4104.615234, 3922.051270, 3541.000000, 8144.000000, 7926.000000, 0.000000, 0.000000, 0.000000, -20076.000000, 118.974358, 4.000000, 4.000000, 4.000000, 4.000000, 4.000000, 4.000000, 4.000000, 4.000000, 0.000000, 4.000000, 4.000000, 4.000000, 4.000000, 4.000000, 4.000000, 4.000000
66.000000, 0.000000, 3973.333252, 4073.845947, 4201.538574, 4181.538574, 4162.051270, 4190.769043, 4220.512695, 4185.641113, 4204.102539, 4231.281738, 4205.641113, 4212.820313, 4104.615234, 3917.435791, 3604.000000, 8144.000000, 7926.000000, 0.000000, 0.000000, 0.000000, -20076.000000, 126.666664, 4.000000, 4.000000, 4.000000, 4.000000, 4.000000, 4.000000, 4.000000, 4.000000, 0.000000, 4.000000, 4.000000, 4.000000, 4.000000, 4.000000, 4.000000, 4.000000
67.000000, 0.000000, 3973.845947, 4064.102539, 4195.897461, 4186.153809, 4160.512695, 4206.666504, 4243.589844, 4218.974121, 4203.589844, 4238.974121, 4213.333008, 4218.461426, 4115.897461, 3918.461426, 2545.000000, 8144.000000, 7918.000000, 0.000000, 0.000000, 0.000000, -20076.000000, 134.871796, 4.000000, 4.000000, 4.000000, 4.000000, 4.000000, 4.000000, 4.000000, 4.000000, 0.000000, 4.000000, 4.000000, 4.000000, 4.000000, 4.000000, 4.000000, 4.000000
68.000000, 0.000000, 3978.461426, 4053.845947, 4204.615234, 4196.410156, 4151.281738, 4213.846191, 4261.025391, 4229.743652, 4202.563965, 4249.743652, 4225.641113, 4232.307617, 4133.846191, 3926.153809, 3550.000000, 8144.000000, 7918.000000, 0.000000, 0.000000, 0.000000, -20076.000000, 142.564102, 4.000000, 4.000000, 4.000000, 4.000000, 4.000000, 4.000000, 4.000000, 4.000000, 0.000000, 4.000000, 4.000000, 4.000000, 4.000000, 4.000000, 4.000000, 4.000000
69.000000, 0.000000, 3981.025635, 4040.512695, 4207.692383, 4195.384277, 4155.384277, 4217.436035, 4267.179199, 4232.820313, 4203.076660, 4258.461426, 4229.743652, 4235.384277, 4145.641113, 3933.845947, 3588.000000, 8156.000000, 7885.000000, 0.000000, 0.000000, 0.000000, -20076.000000, 150.256409, 4.000000, 4.000000, 4.000000, 4.000000, 4.000000, 4.000000, 4.000000, 4.000000, 0.000000, 4.000000, 4.000000, 4.000000, 4.000000, 4.000000, 4.000000, 4.000000
70.000000, 0.000000, 3993.333252, 4030.256348, 4212.820313, 4206.153809, 4158.974121, 4225.641113, 4265.127930, 4241.025391, 4203.076660, 4264.102539, 4227.179199, 4239.487305, 4156.922852, 3939.487061, 3441.000000, 8156.000000, 7885.000000, 0.000000, 0.000000, 0.000000, -20076.000000, 157.948715, 4.000000, 4.000000, 4.000000, 4.000000, 4.000000, 4.000000, 4.000000, 4.000000, 0.000000, 4.000000, 4.000000, 4.000000, 4.000000, 4.000000, 4.000000, 4.000000
71.000000, 0.000000, 4010.769043, 4028.205078, 4230.769043, 4228.717773, 4158.974121, 4227.179199, 4255.897461, 4242.563965, 4203.076660, 4269.743652, 4230.256348, 4248.717773, 4170.769043, 3945.640869, 3501.000000, 8157.000000, 7873.000000, 0.000000, 0.000000, 0.000000, -20076.000000, 166.153839, 4.000000, 4.000000, 4.000000, 4.000000, 4.000000, 4.000000, 4.000000, 4.000000, 0.000000, 4.000000, 4.000000, 4.000000, 4.000000, 4.000000, 4.000000, 4.000000
72.000000, 0.000000, 4007.179443, 4013.845947, 4236.410156, 4225.127930, 4166.153809, 4218.974121, 4248.717773, 4238.461426, 4202.563965, 4263.589844, 4222.051270, 4239.487305, 4170.256348, 3940.512695, 0.000000, 8157.000000, 7873.000000, 0.000000, 0.000000, 0.000000, -20076.000000, 173.846146, 4.000000, 4.000000, 4.000000, 4.000000, 4.000000, 4.000000, 4.000000, 4.000000, 0.000000, 4.000000, 4.000000, 4.000000, 4.000000, 4.000000, 4.000000, 4.000000
73.000000, 0.000000, 3998.974365, 3994.358887, 4223.589844, 4210.769043, 4163.076660, 4206.666504, 4244.102539, 4232.820313, 4202.563965, 4252.820313, 4200.000000, 4226.153809, 4161.025391, 3933.845947, 2981.000000, 8162.000000, 7864.000000, 0.000000, 0.000000, 0.000000, -20076.000000, 182.051285, 4.000000, 4.000000, 4.000000, 4.000000, 4.000000, 4.000000, 4.000000, 4.000000, 0.000000, 4.000000, 4.000000, 4.000000, 4.000000, 4.000000, 4.000000, 4.000000
74.000000, 0.000000, 4007.692139, 3997.435791, 4216.410156, 4221.538574, 4158.461426, 4199.487305, 4243.076660, 4230.256348, 4203.076660, 4256.922852, 4200.512695, 4229.743652, 4167.179199, 3939.487061, 3605.000000, 8162.000000, 7864.000000, 0.000000, 0.000000, 0.000000, -20076.000000, 189.743591, 4.000000, 4.000000, 4.000000, 4.000000, 4.000000, 4.000000, 4.000000, 4.000000, 0.000000, 4.000000, 4.000000, 4.000000, 4.000000, 4.000000, 4.000000, 4.000000
75.000000, 0.000000, 4018.974365, 4003.076904, 4216.410156, 4230.769043, 4163.589844, 4200.512695, 4247.692383, 4236.922852, 4202.563965, 4265.641113, 4218.974121, 4234.871582, 4183.589844, 3945.128174, 3593.000000, 8158.000000, 7904.000000, 0.000000, 0.000000, 0.000000, -20076.000000, 197.948715, 4.000000, 4.000000, 4.000000, 4.000000, 4.000000, 4.000000, 4.000000, 4.000000, 0.000000, 4.000000, 4.000000, 4.000000, 4.000000, 4.000000, 4.000000, 4.000000
76.000000, 0.000000, 4020.512695, 3993.845947, 4211.794922, 4220.512695, 4169.230469, 4202.563965, 4250.769043, 4230.769043, 4202.563965, 4259.487305, 4216.410156, 4229.743652, 4188.205078, 3944.102539, 3522.000000, 8158.000000, 7904.000000, 0.000000, 0.000000, 0.000000, -20076.000000, 205.641022, 4.000000, 4.000000, 4.000000, 4.000000, 4.000000, 4.000000, 4.000000, 4.000000, 0.000000, 4.000000, 4.000000, 4.000000, 4.000000, 4.000000, 4.000000, 4.000000
77.000000, 0.000000, 4014.871582, 3984.102539, 4212.307617, 4214.358887, 4168.717773, 4197.948730, 4252.307617, 4223.589844, 4203.076660, 4249.743652, 4202.563965, 4225.127930, 4169.230469, 3938.974365, 3469.000000, 8160.000000, 7941.000000, 0.000000, 0.000000, 0.000000, -20076.000000, 213.333328, 4.000000, 4.000000, 4.000000, 4.000000, 4.000000, 4.000000, 4.000000, 4.000000, 0.000000, 4.000000, 4.000000, 4.000000, 4.000000, 4.000000, 4.000000, 4.000000
78.000000, 0.000000, 4012.307617, 3976.923096, 4218.461426, 4214.358887, 4168.717773, 4197.948730, 4258.974121, 4240.512695, 4203.076660, 4258.461426, 4203.589844, 4226.153809, 4150.256348, 3937.948730, 3605.000000, 8160.000000, 7941.000000, 0.000000, 0.000000, 0.000000, -20076.000000, 221.025635, 4.000000, 4.000000, 4.000000, 4.000000, 4.000000, 4.000000, 4.000000, 4.000000, 0.000000, 4.000000, 4.000000, 4.000000, 4.000000, 4.000000, 4.000000, 4.000000
79.000000, 0.000000, 4023.589600, 3973.845947, 4215.897461, 4218.461426, 4175.384277, 4209.743652, 4258.461426, 4236.410156, 4203.076660, 4266.153809, 4213.333008, 4231.794922, 4157.948730, 3946.666504, 3593.000000, 8173.000000, 7980.000000, 0.000000, 0.000000, 0.000000, -20076.000000, 229.230759, 4.000000, 4.000000, 4.000000, 4.000000, 4.000000, 4.000000, 4.000000, 4.000000, 0.000000, 4.000000, 4.000000, 4.000000, 4.000000, 4.000000, 4.000000, 4.000000
80.000000, 0.000000, 4040.512695, 3982.563965, 4215.384277, 4231.281738, 4187.692383, 4215.897461, 4243.076660, 4205.127930, 4203.076660, 4265.127930, 4217.948730, 4233.333008, 4172.820313, 3958.974365, 3522.000000, 8173.000000, 7980.000000, 0.000000, 0.000000, 0.000000, -20076.000000, 236.923065, 4.000000, 4.000000, 4.000000, 4.000000, 4.000000, 4.000000, 4.000000, 4.000000, 0.000000, 4.000000, 4.000000, 4.000000, 4.000000, 4.000000, 4.000000, 4.000000
81.000000, 0.000000, 4053.333252, 3993.333252, 4227.179199, 4247.692383, 4202.563965, 4213.846191, 4238.974121, 4213.846191, 4203.076660, 4269.743652, 4215.897461, 4232.307617, 4178.461426, 3967.179443, 3469.000000, 8192.000000, 7989.000000, 0.000000, 0.000000, 0.000000, -20076.000000, 244.615372, 4.000000, 4.000000, 4.000000, 4.000000, 4.000000, 4.000000, 4.000000, 4.000000, 0.000000, 4.000000, 4.000000, 4.000000, 4.000000, 4.000000, 4.000000, 4.000000
82.000000, 0.000000, 4057.435791, 3995.897217, 4229.743652, 4248.717773, 4207.179199, 4212.820313, 4245.127930, 4242.563965, 4203.076660, 4277.436035, 4216.922852, 4233.846191, 4188.717773, 3971.794678, 3605.000000, 8192.000000, 7989.000000, 0.000000, 0.000000, 0.000000, -20076.000000, 252.820511, 4.000000, 4.000000, 4.000000, 4.000000, 4.000000, 4.000000, 4.000000, 4.000000, 0.000000, 4.000000, 4.000000, 4.000000, 4.000000, 4.000000, 4.000000, 4.000000
83.000000, 0.000000, 4055.897217, 3997.948730, 4218.461426, 4236.922852, 4204.615234, 4211.794922, 4246.153809, 4234.871582, 4203.076660, 4277.948730, 4216.410156, 4229.743652, 4198.974121, 3973.845947, 3593.000000, 8221.000000, 8009.000000, 0.000000, 0.000000, 0.000000, -20076.000000, 260.512817, 4.000000, 4.000000, 4.000000, 4.000000, 4.000000, 4.000000, 4.000000, 4.000000, 0.000000, 4.000000, 4.000000, 4.000000, 4.000000, 4.000000, 4.000000, 4.000000
84.000000, 0.000000, 4059.487061, 4004.615234, 4212.307617, 4232.307617, 4205.641113, 4211.794922, 4243.589844, 4226.666504, 4203.076660, 4277.948730, 4211.794922, 4221.025391, 4201.538574, 3974.871582, 3522.000000, 8221.000000, 8009.000000, 0.000000, 0.000000, 0.000000, -20076.000000, 268.205109, 4.000000, 4.000000, 4.000000, 4.000000, 4.000000, 4.000000, 4.000000, 4.000000, 0.000000, 4.000000, 4.000000, 4.000000, 4.000000, 4.000000, 4.000000, 4.000000
85.000000, 0.000000, 4063.589600, 4010.769043, 4214.871582, 4234.358887, 4204.615234, 4217.948730, 4247.692383, 4232.307617, 4203.076660, 4277.948730, 4206.666504, 4217.436035, 4204.102539, 3972.820313, 3469.000000, 8238.000000, 8016.000000, 0.000000, 0.000000, 0.000000, -20076.000000, 276.410248, 4.000000, 4.000000, 4.000000, 4.000000, 4.000000, 4.000000, 4.000000, 4.000000, 0.000000, 4.000000, 4.000000, 4.000000, 4.000000, 4.000000, 4.000000, 4.000000
86.000000, 0.000000, 4053.333252, 4007.692139, 4215.897461, 4232.307617, 4202.051270, 4220.512695, 4260.512695, 4232.307617, 4203.076660, 4271.794922, 4198.461426, 4215.384277, 4201.025391, 3961.538330, 3605.000000, 8238.000000, 8016.000000, 0.000000, 0.000000, 0.000000, -20076.000000, 284.102570, 4.000000, 4.000000, 4.000000, 4.000000, 4.000000, 4.000000, 4.000000, 4.000000, 0.000000, 4.000000, 4.000000, 4.000000, 4.000000, 4.000000, 4.000000, 4.000000
87.000000, 0.000000, 4049.743408, 4002.563965, 4209.743652, 4229.743652, 4204.615234, 4216.410156, 4257.948730, 4244.102539, 4203.076660, 4277.948730, 4200.512695, 4214.871582, 4200.000000, 3958.461426, 3593.000000, 8251.000000, 8041.000000, 0.000000, 0.000000, 0.000000, -20076.000000, 292.307678, 4.000000, 4.000000, 4.000000, 4.000000, 4.000000, 4.000000, 4.000000, 4.000000, 0.000000, 4.000000, 4.000000, 4.000000, 4.000000, 4.000000, 4.000000, 4.000000
88.000000, 0.000000, 4058.974365, 4005.640869, 4202.563965, 4231.794922, 4209.230469, 4215.384277, 4244.615234, 4251.281738, 4202.563965, 4292.307617, 4209.230469, 4216.922852, 4207.692383, 3964.615234, 3522.000000, 8251.000000, 8041.000000, 0.000000, 0.000000, 0.000000, -20076.000000, 300.000000, 4.000000, 4.000000, 4.000000, 4.000000, 4.000000, 4.000000, 4.000000, 4.000000, 0.000000, 4.000000, 4.000000, 4.000000, 4.000000, 4.000000, 4.000000, 4.000000
89.000000, 0.000000, 4058.974365, 4009.743408, 4203.589844, 4230.256348, 4215.384277, 4220.000000, 4250.256348, 4244.102539, 4203.076660, 4289.230469, 4207.179199, 4216.410156, 4205.641113, 3959.487061, 3469.000000, 8282.000000, 8089.000000, 0.000000, 0.000000, 0.000000, -20076.000000, 307.692291, 4.000000, 4.000000, 4.000000, 4.000000, 4.000000, 4.000000, 4.000000, 4.000000, 0.000000, 4.000000, 4.000000, 4.000000, 4.000000, 4.000000, 4.000000, 4.000000
90.000000, 0.000000, 4057.435791, 4012.307617, 4210.256348, 4232.307617, 4218.461426, 4220.512695, 4254.358887, 4245.127930, 4202.563965, 4278.461426, 4199.487305, 4212.820313, 4198.461426, 3959.487061, 3605.000000, 8282.000000, 8089.000000, 0.000000, 0.000000, 0.000000, -20076.000000, 315.384613, 4.000000, 4.000000, 4.000000, 4.000000, 4.000000, 4.000000, 4.000000, 4.000000, 0.000000, 4.000000, 4.000000, 4.000000, 4.000000, 4.000000, 4.000000, 4.000000
91.000000, 0.000000, 4060.512695, 4016.410156, 4210.769043, 4234.871582, 4205.641113, 4211.281738, 4236.922852, 4243.076660, 4201.538574, 4277.436035, 4196.922852, 4211.794922, 4198.461426, 3970.256348, 3593.000000, 8291.000000, 8093.000000, 0.000000, 0.000000, 0.000000, -20076.000000, 323.589722, 4.000000, 4.000000, 4.000000, 4.000000, 4.000000, 4.000000, 4.000000, 4.000000, 0.000000, 4.000000, 4.000000, 4.000000, 4.000000, 4.000000, 4.000000, 4.000000
92.000000, 0.000000, 4064.615234, 4024.102539, 4211.794922, 4230.256348, 4200.512695, 4208.205078, 4235.897461, 4238.974121, 4202.563965, 4279.487305, 4198.461426, 4212.820313, 4202.051270, 3973.845947, 3522.000000, 8291.000000, 8093.000000, 0.000000, 0.000000, 0.000000, -20076.000000, 331.794861, 4.000000, 4.000000, 4.000000, 4.000000, 4.000000, 4.000000, 4.000000, 4.000000, 0.000000, 4.000000, 4.000000, 4.000000, 4.000000, 4.000000, 4.000000, 4.000000
93.000000, 0.000000, 4073.333252, 4032.307617, 4218.461426, 4237.436035, 4216.410156, 4218.974121, 4249.230469, 4247.692383, 4204.102539, 4279.487305, 4201.538574, 4217.436035, 4211.281738, 3977.948730, 3469.000000, 8304.000000, 8090.000000, 0.000000, 0.000000, 0.000000, -20076.000000, 339.487183, 4.000000, 4.000000, 4.000000, 4.000000, 4.000000, 4.000000, 4.000000, 4.000000, 0.000000, 4.000000, 4.000000, 4.000000, 4.000000, 4.000000, 4.000000, 4.000000
94.000000, 0.000000, 4076.923096, 4037.435791, 4215.384277, 4251.794922, 4224.615234, 4220.000000, 4236.922852, 4243.076660, 4203.589844, 4280.000000, 4204.615234, 4218.974121, 4224.102539, 3984.615234, 3605.000000, 8304.000000, 8090.000000, 0.000000, 0.000000, 0.000000, -20076.000000, 347.179474, 4.000000, 4.000000, 4.000000, 4.000000, 4.000000, 4.000000, 4.000000, 4.000000, 0.000000, 4.000000, 4.000000, 4.000000, 4.000000, 4.000000, 4.000000, 4.000000
95.000000, 0.000000, 4065.128174, 4040.512695, 4203.076660, 4248.717773, 4216.922852, 4210.256348, 4220.512695, 4222.563965, 4203.076660, 4278.461426, 4202.051270, 4210.769043, 4229.230469, 3978.461426, 3593.000000, 8327.000000, 8079.000000, 0.000000, 0.000000, 0.000000, -20076.000000, 355.384613, 4.000000, 4.000000, 4.000000, 4.000000, 4.000000, 4.000000, 4.000000, 4.000000, 0.000000, 4.000000, 4.000000, 4.000000, 4.000000, 4.000000, 4.000000, 4.000000
96.000000, 0.000000, 4063.589600, 4049.230713, 4203.076660, 4245.127930, 4216.922852, 4212.307617, 4228.717773, 4227.692383, 4202.563965, 4278.974121, 4202.563965, 4210.256348, 4231.281738, 3973.845947, 3522.000000, 8327.000000, 8079.000000, 0.000000, 0.000000, 0.000000, -20076.000000, 363.076904, 4.000000, 4.000000, 4.000000, 4.000000, 4.000000, 4.000000, 4.000000, 4.000000, 0.000000, 4.000000, 4.000000, 4.000000, 4.000000, 4.000000, 4.000000, 4.000000
97.000000, 0.000000, 4069.230713, 4050.256348, 4212.820313, 4254.871582, 4218.461426, 4220.512695, 4243.589844, 4248.205078, 4201.538574, 4278.974121, 4204.615234, 4213.333008, 4234.358887, 3975.384521, 3469.000000, 8340.000000, 8070.000000, 0.000000, 0.000000, 0.000000, -20076.000000, 370.769226, 4.000000, 4.000000, 4.000000, 4.000000, 4.000000, 4.000000, 4.000000, 4.000000, 0.000000, 4.000000, 4.000000, 4.000000, 4.000000, 4.000000, 4.000000, 4.000000
98.000000, 0.000000, 4063.589600, 4043.589600, 4217.436035, 4255.384277, 4212.820313, 4219.487305, 4242.563965, 4243.076660, 4201.538574, 4269.743652, 4196.410156, 4204.102539, 4232.820313, 3972.820313, 3605.000000, 8340.000000, 8070.000000, 0.000000, 0.000000, 0.000000, -20076.000000, 378.974335, 4.000000, 4.000000, 4.000000, 4.000000, 4.000000, 4.000000, 4.000000, 4.000000, 0.000000, 4.000000, 4.000000, 4.000000, 4.000000, 4.000000, 4.000000, 4.000000
99.000000, 0.000000, 4063.076904, 4045.640869, 4218.461426, 4248.205078, 4208.717773, 4215.384277, 4234.358887, 4227.692383, 4203.589844, 4262.563965, 4187.179199, 4198.461426, 4233.333008, 3970.769043, 3593.000000, 8382.000000, 8050.000000, 0.000000, 0.000000, 0.000000, -20076.000000, 386.666656, 4.000000, 4.000000, 4.000000, 4.000000, 4.000000, 4.000000, 4.000000, 4.000000, 0.000000, 4.000000, 4.000000, 4.000000, 4.000000, 4.000000, 4.000000, 4.000000
100.000000, 0.000000, 4072.820313, 4049.230713, 4215.897461, 4247.179199, 4202.051270, 4216.410156, 4233.333008, 4222.051270, 4203.589844, 4263.076660, 4181.538574, 4202.051270, 4234.871582, 3966.153809, 3522.000000, 8382.000000, 8050.000000, 0.000000, 0.000000, 0.000000, -20076.000000, 394.358978, 4.000000, 4.000000, 4.000000, 4.000000, 4.000000, 4.000000, 4.000000, 4.000000, 0.000000, 4.000000, 4.000000, 4.000000, 4.000000, 4.000000, 4.000000, 4.000000
101.000000, 0.000000, 4076.923096, 4052.307617, 4209.230469, 4251.281738, 4200.512695, 4212.820313, 4227.179199, 4210.256348, 4202.563965, 4260.000000, 4179.487305, 4198.974121, 4231.794922, 3957.948730, 3469.000000, 8392.000000, 8039.000000, 0.000000, 0.000000, 0.000000, -20076.000000, 402.051270, 4.000000, 4.000000, 4.000000, 4.000000, 4.000000, 4.000000, 4.000000, 4.000000, 0.000000, 4.000000, 4.000000, 4.000000, 4.000000, 4.000000, 4.000000, 4.000000
102.000000, 0.000000, 4081.538330, 4058.974365, 4205.127930, 4257.436035, 4201.538574, 4206.153809, 4219.487305, 4207.179199, 4202.051270, 4261.538574, 4181.538574, 4195.897461, 4242.051270, 3961.538330, 3605.000000, 8392.000000, 8039.000000, 0.000000, 0.000000, 0.000000, -20076.000000, 410.256409, 4.000000, 4.000000, 4.000000, 4.000000, 4.000000, 4.000000, 4.000000, 4.000000, 0.000000, 4.000000, 4.000000, 4.000000, 4.000000, 4.000000, 4.000000, 4.000000
103.000000, 0.000000, 4089.230713, 4060.000000, 4204.615234, 4254.358887, 4196.410156, 4207.692383, 4230.256348, 4218.461426, 4202.563965, 4271.794922, 4182.563965, 4195.897461, 4259.487305, 3969.743408, 3593.000000, 8386.000000, 8014.000000, 0.000000, 0.000000, 0.000000, -20076.000000, 417.948700, 4.000000, 4.000000, 4.000000, 4.000000, 4.000000, 4.000000, 4.000000, 4.000000, 0.000000, 4.000000, 4.000000, 4.000000, 4.000000, 4.000000, 4.000000, 4.000000
104.000000, 0.000000, 4092.307617, 4056.410156, 4201.025391, 4247.692383, 4195.897461, 4207.692383, 4226.666504, 4206.666504, 4203.589844, 4275.897461, 4181.025391, 4189.230469, 4266.153809, 3970.256348, 3522.000000, 8386.000000, 8014.000000, 0.000000, 0.000000, 0.000000, -20076.000000, 425.641022, 4.000000, 4.000000, 4.000000, 4.000000, 4.000000, 4.000000, 4.000000, 4.000000, 0.000000, 4.000000, 4.000000, 4.000000, 4.000000, 4.000000, 4.000000, 4.000000
105.000000, 0.000000, 4101.025391, 4062.051270, 4201.025391, 4256.410156, 4202.563965, 4201.538574, 4201.025391, 4187.179199, 4203.589844, 4275.384277, 4182.563965, 4188.717773, 4270.256348, 3976.923096, 3469.000000, 8373.000000, 8017.000000, 0.000000, 0.000000, 0.000000, -20076.000000, 433.846130, 4.000000, 4.000000, 4.000000, 4.000000, 4.000000, 4.000000, 4.000000, 4.000000, 0.000000, 4.000000, 4.000000, 4.000000, 4.000000, 4.000000, 4.000000, 4.000000
106.000000, 0.000000, 4114.871582, 4065.640869, 4209.743652, 4264.102539, 4202.563965, 4200.512695, 4205.127930, 4203.589844, 4203.589844, 4277.436035, 4185.641113, 4200.000000, 4281.538574, 3992.307617, 3605.000000, 8373.000000, 8017.000000, 0.000000, 0.000000, 0.000000, -20076.000000, 441.538452, 4.000000, 4.000000, 4.000000, 4.000000, 4.000000, 4.000000, 4.000000, 4.000000, 0.000000, 4.000000, 4.000000, 4.000000, 4.000000, 4.000000, 4.000000, 4.000000
107.000000, 0.000000, 4121.025391, 4059.487061, 4216.922852, 4256.922852, 4199.487305, 4202.563965, 4222.051270, 4216.922852, 4203.076660, 4278.974121, 4185.127930, 4206.153809, 4289.230469, 4002.051270, 3593.000000, 8331.000000, 8059.000000, 0.000000, 0.000000, 0.000000, -20076.000000, 449.743591, 4.000000, 4.000000, 4.000000, 4.000000, 4.000000, 4.000000, 4.000000, 4.000000, 0.000000, 4.000000, 4.000000, 4.000000, 4.000000, 4.000000, 4.000000, 4.000000
108.000000, 0.000000, 4127.692383, 4063.076904, 4216.922852, 4257.436035, 4200.512695, 4198.461426, 4213.846191, 4206.153809, 4203.076660, 4278.461426, 4185.127930, 4202.051270, 4291.281738, 4005.640869, 3522.000000, 8331.000000, 8059.000000, 0.000000, 0.000000, 0.000000, -20076.000000, 457.435883, 4.000000, 4.000000, 4.000000, 4.000000, 4.000000, 4.000000, 4.000000, 4.000000, 0.000000, 4.000000, 4.000000, 4.000000, 4.000000, 4.000000, 4.000000, 4.000000
109.000000, 0.000000, 4141.025391, 4069.230713, 4219.487305, 4264.102539, 4200.512695, 4196.922852, 4203.589844, 4206.153809, 4203.076660, 4279.487305, 4187.179199, 4207.179199, 4299.487305, 4018.461426, 3469.000000, 8319.000000, 8098.000000, 0.000000, 0.000000, 0.000000, -20076.000000, 465.128204, 4.000000, 4.000000, 4.000000, 4.000000, 4.000000, 4.000000, 4.000000, 4.000000, 0.000000, 4.000000, 4.000000, 4.000000, 4.000000, 4.000000, 4.000000, 4.000000
110.000000, 0.000000, 4151.794922, 4063.076904, 4225.127930, 4265.127930, 4201.538574, 4201.538574, 4204.102539, 4199.487305, 4202.563965, 4284.102539, 4190.769043, 4218.974121, 4311.281738, 4037.948730, 3605.000000, 8319.000000, 8098.000000, 0.000000, 0.000000, 0.000000, -20076.000000, 472.820496, 4.000000, 4.000000, 4.000000, 4.000000, 4.000000, 4.000000, 4.000000, 4.000000, 0.000000, 4.000000, 4.000000, 4.000000, 4.000000, 4.000000, 4.000000, 4.000000
111.000000, 0.000000, 4154.358887, 4062.563965, 4225.127930, 4263.589844, 4202.563965, 4201.025391, 4203.589844, 4179.487305, 4202.563965, 4284.102539, 4188.205078, 4218.461426, 4308.717773, 4037.435791, 3593.000000, 8306.000000, 8149.000000, 0.000000, 0.000000, 0.000000, -20076.000000, 481.025635, 4.000000, 4.000000, 4.000000, 4.000000, 4.000000, 4.000000, 4.000000, 4.000000, 0.000000, 4.000000, 4.000000, 4.000000, 4.000000, 4.000000, 4.000000, 4.000000
112.000000, 0.000000, 4153.846191, 4070.769043, 4222.051270, 4267.179199, 4204.102539, 4197.436035, 4198.461426, 4182.563965, 4203.076660, 4281.538574, 4176.922852, 4204.102539, 4297.436035, 4023.589600, 3522.000000, 8306.000000, 8149.000000, 0.000000, 0.000000, 0.000000, -20076.000000, 488.717926, 4.000000, 4.000000, 4.000000, 4.000000, 4.000000, 4.000000, 4.000000, 4.000000, 0.000000, 4.000000, 4.000000, 4.000000, 4.000000, 4.000000, 4.000000, 4.000000
113.000000, 0.000000, 4156.922852, 4068.717773, 4223.589844, 4274.871582, 4204.615234, 4196.410156, 4189.230469, 4181.538574, 4202.563965, 4277.948730, 4171.281738, 4197.948730, 4294.871582, 4025.128174, 3469.000000, 8278.000000, 8202.000000, 0.000000, 0.000000, 0.000000, -20076.000000, 496.923065, 4.000000, 4.000000, 4.000000, 4.000000, 4.000000, 4.000000, 4.000000, 4.000000, 0.000000, 4.000000, 4.000000, 4.000000, 4.000000, 4.000000, 4.000000, 4.000000
114.000000, 0.000000, 4158.461426, 4058.461426, 4223.076660, 4276.922852, 4204.102539, 4198.461426, 4183.589844, 4160.512695, 4201.538574, 4274.358887, 4170.769043, 4200.512695, 4293.333008, 4033.333252, 3605.000000, 8278.000000, 8202.000000, 0.000000, 0.000000, 0.000000, -20076.000000, 504.615387, 4.000000, 4.000000, 4.000000, 4.000000, 4.000000, 4.000000, 4.000000, 4.000000, 0.000000, 4.000000, 4.000000, 4.000000, 4.000000, 4.000000, 4.000000, 4.000000
115.000000, 0.000000, 4149.230469, 4050.256348, 4218.461426, 4267.179199, 4204.102539, 4198.461426, 4186.666504, 4152.820313, 4201.538574, 4263.076660, 4159.487305, 4192.820313, 4277.948730, 4024.102539, 3593.000000, 8260.000000, 8189.000000, 0.000000, 0.000000, 0.000000, -20076.000000, 512.307678, 4.000000, 4.000000, 4.000000, 4.000000, 4.000000, 4.000000, 4.000000, 4.000000, 0.000000, 4.000000, 4.000000, 4.000000, 4.000000, 4.000000, 4.000000, 4.000000
116.000000, 0.000000, 4135.384277, 4042.051270, 4215.384277, 4258.974121, 4195.384277, 4201.025391, 4197.948730, 4163.076660, 4203.076660, 4255.384277, 4148.717773, 4184.102539, 4269.230469, 4010.769043, 3522.000000, 8260.000000, 8189.000000, 0.000000, 0.000000, 0.000000, -20076.000000, 520.000000, 4.000000, 4.000000, 4.000000, 4.000000, 4.000000, 4.000000, 4.000000, 4.000000, 0.000000, 4.000000, 4.000000, 4.000000, 4.000000, 4.000000, 4.000000, 4.000000
117.000000, 0.000000, 4126.666504, 4031.281982, 4208.717773, 4254.871582, 4182.563965, 4204.615234, 4206.666504, 4178.461426, 4203.589844, 4270.256348, 4156.410156, 4188.205078, 4281.025391, 4008.205078, 3469.000000, 8256.000000, 8116.000000, 0.000000, 0.000000, 0.000000, -20076.000000, 528.205139, 4.000000, 4.000000, 4.000000, 4.000000, 4.000000, 4.000000, 4.000000, 4.000000, 0.000000, 4.000000, 4.000000, 4.000000, 4.000000, 4.000000, 4.000000, 4.000000
118.000000, 0.000000, 4107.692383, 4016.923096, 4194.358887, 4235.897461, 4178.974121, 4193.333008, 4194.871582, 4190.769043, 4202.563965, 4283.589844, 4159.487305, 4187.179199, 4289.743652, 4001.538330, 3605.000000, 8256.000000, 8116.000000, 0.000000, 0.000000, 0.000000, -20076.000000, 535.897400, 4.000000, 4.000000, 4.000000, 4.000000, 4.000000, 4.000000, 4.000000, 4.000000, 0.000000, 4.000000, 4.000000, 4.000000, 4.000000, 4.000000, 4.000000, 4.000000
119.000000, 0.000000, 4081.538330, 4009.230713, 4180.512695, 4215.897461, 4174.358887, 4171.281738, 4171.794922, 4166.153809, 4201.538574, 4264.615234, 4141.538574, 4170.256348, 4277.948730, 3982.563965, 3593.000000, 8257.000000, 8077.000000, 0.000000, 0.000000, 0.000000, -20076.000000, 544.102539, 4.000000, 4.000000, 4.000000, 4.000000, 4.000000, 4.000000, 4.000000, 4.000000, 0.000000, 4.000000, 4.000000, 4.000000, 4.000000, 4.000000, 4.000000, 4.000000
120.000000, 0.000000, 4077.435791, 4011.794678, 4180.512695, 4221.538574, 4167.692383, 4165.641113, 4163.589844, 4133.846191, 4200.512695, 4241.538574, 4129.230469, 4162.563965, 4273.333008, 3973.333252, 3522.000000, 8257.000000, 8077.000000, 0.000000, 0.000000, 0.000000, -20076.000000, 551.794861, 4.000000, 4.000000, 4.000000, 4.000000, 4.000000, 4.000000, 4.000000, 4.000000, 0.000000, 4.000000, 4.000000, 4.000000, 4.000000, 4.000000, 4.000000, 4.000000
121.000000, 0.000000, 4084.615234, 4011.281982, 4181.538574, 4230.769043, 4171.794922, 4172.820313, 4169.743652, 4145.641113, 4201.025391, 4250.256348, 4134.871582, 4167.692383, 4289.743652, 3976.923096, 3469.000000, 8260.000000, 8042.000000, 0.000000, 0.000000, 0.000000, -20076.000000, 560.000000, 4.000000, 4.000000, 4.000000, 4.000000, 4.000000, 4.000000, 4.000000, 4.000000, 0.000000, 4.000000, 4.000000, 4.000000, 4.000000, 4.000000, 4.000000, 4.000000
122.000000, 0.000000, 4076.923096, 4004.102539, 4173.333008, 4221.538574, 4177.436035, 4170.769043, 4172.820313, 4154.871582, 4202.051270, 4268.205078, 4137.436035, 4166.153809, 4296.922852, 3974.871582, 3605.000000, 8260.000000, 8042.000000, 0.000000, 0.000000, 0.000000, -20076.000000, 567.692322, 4.000000, 4.000000, 4.000000, 4.000000, 4.000000, 4.000000, 4.000000, 4.000000, 0.000000, 4.000000, 4.000000, 4.000000, 4.000000, 4.000000, 4.000000, 4.000000
123.000000, 0.000000, 4071.281982, 4000.000000, 4173.333008, 4214.871582, 4174.358887, 4172.307617, 4169.230469, 4146.153809, 4202.051270, 4274.358887, 4136.410156, 4168.717773, 4295.897461, 3973.333252, 3593.000000, 8263.000000, 7991.000000, 0.000000, 0.000000, 0.000000, -20076.000000, 575.897400, 4.000000, 4.000000, 4.000000, 4.000000, 4.000000, 4.000000, 4.000000, 4.000000, 0.000000, 4.000000, 4.000000, 4.000000, 4.000000, 4.000000, 4.000000, 4.000000
124.000000, 0.000000, 4077.435791, 3995.897217, 4185.641113, 4220.512695, 4172.820313, 4184.102539, 4171.794922, 4154.871582, 4202.051270, 4284.615234, 4148.205078, 4183.076660, 4311.281738, 3985.128174, 3522.000000, 8263.000000, 7991.000000, 0.000000, 0.000000, 0.000000, -20076.000000, 583.589722, 4.000000, 4.000000, 4.000000, 4.000000, 4.000000, 4.000000, 4.000000, 4.000000, 0.000000, 4.000000, 4.000000, 4.000000, 4.000000, 4.000000, 4.000000, 4.000000
125.000000, 0.000000, 4081.538330, 3990.769043, 4191.281738, 4220.512695, 4175.384277, 4190.256348, 4177.948730, 4162.563965, 4202.563965, 4295.897461, 4155.897461, 4191.794922, 4321.025391, 3994.871582, 3469.000000, 8263.000000, 7993.000000, 0.000000, 0.000000, 0.000000, -20076.000000, 591.282043, 4.000000, 4.000000, 4.000000, 4.000000, 4.000000, 4.000000, 4.000000, 4.000000, 0.000000, 4.000000, 4.000000, 4.000000, 4.000000, 4.000000, 4.000000, 4.000000
126.000000, 0.000000, 4083.076904, 3987.692139, 4190.769043, 4218.461426, 4169.230469, 4183.589844, 4176.410156, 4161.025391, 4203.076660, 4297.948730, 4146.153809, 4187.179199, 4313.846191, 3990.769043, 3605.000000, 8263.000000, 7993.000000, 0.000000, 0.000000, 0.000000, -20076.000000, 598.974365, 4.000000, 4.000000, 4.000000, 4.000000, 4.000000, 4.000000, 4.000000, 4.000000, 0.000000, 4.000000, 4.000000, 4.000000, 4.000000, 4.000000, 4.000000, 4.000000
127.000000, 0.000000, 4080.000000, 3978.461426, 4189.230469, 4221.025391, 4152.820313, 4171.281738, 4167.179199, 4165.641113, 4203.076660, 4293.333008, 4131.794922, 4178.461426, 4305.641113, 3980.512695, 56.000000, 8260.000000, 8004.000000, 0.000000, 0.000000, 0.000000, -20076.000000, 607.179443, 4.000000, 4.000000, 4.000000, 4.000000, 4.000000, 4.000000, 4.000000, 4.000000, 0.000000, 4.000000, 4.000000, 4.000000, 4.000000, 4.000000, 4.000000, 4.000000
0.000000, 0.000000, 4070.256348, 3970.769043, 4185.127930, 4218.974121, 4153.333008, 4167.692383, 4165.641113, 4157.948730, 4203.076660, 4290.256348, 4124.615234, 4167.692383, 4299.487305, 3970.256348, 3189.000000, 8260.000000, 8004.000000, 0.000000, 0.000000, 0.000000, -20076.000000, 614.871765, 4.000000, 4.000000, 4.000000, 4.000000, 4.000000, 4.000000, 4.000000, 4.000000, 0.000000, 4.000000, 4.000000, 4.000000, 4.000000, 4.000000, 4.000000, 4.000000
1.000000, 0.000000, 4064.102539, 3974.871582, 4184.102539, 4216.922852, 4170.256348, 4176.410156, 4169.743652, 4143.076660, 4202.563965, 4287.179199, 4119.487305, 4158.461426, 4287.692383, 3967.692139, 3545.000000, 8249.000000, 8025.000000, 0.000000, 0.000000, 0.000000, -20076.000000, 623.076904, 4.000000, 4.000000, 4.000000, 4.000000, 4.000000, 4.000000, 4.000000, 4.000000, 0.000000, 4.000000, 4.000000, 4.000000, 4.000000, 4.000000, 4.000000, 4.000000
2.000000, 0.000000, 4064.615234, 3973.333252, 4183.589844, 4217.436035, 4175.384277, 4176.922852, 4168.717773, 4149.230469, 4203.076660, 4283.076660, 4114.871582, 4160.512695, 4283.076660, 3970.769043, 3763.000000, 8249.000000, 8025.000000, 0.000000, 0.000000, 0.000000, -20076.000000, 630.769226, 4.000000, 4.000000, 4.000000, 4.000000, 4.000000, 4.000000, 4.000000, 4.000000, 0.000000, 4.000000, 4.000000, 4.000000, 4.000000, 4.000000, 4.000000, 4.000000
3.000000, 0.000000, 4066.666504, 3964.102539, 4183.076660, 4219.487305, 4166.666504, 4165.641113, 4165.127930, 4155.897461, 4203.076660, 4278.974121, 4113.846191, 4166.666504, 4280.512695, 3968.717773, 2333.000000, 8241.000000, 8062.000000, 0.000000, 0.000000, 0.000000, -20076.000000, 638.974365, 4.000000, 4.000000, 4.000000, 4.000000, 4.000000, 4.000000, 4.000000, 4.000000, 0.000000, 4.000000, 4.000000, 4.000000, 4.000000, 4.000000, 4.000000, 4.000000
4.000000, 0.000000, 4073.845947, 3967.692139, 4193.846191, 4227.692383, 4169.743652, 4170.769043, 4167.179199, 4155.897461, 4202.051270, 4278.461426, 4119.487305, 4170.256348, 4269.743652, 3971.794678, 3550.000000, 8241.000000, 8062.000000, 0.000000, 0.000000, 0.000000, -20076.000000, 646.666626, 4.000000, 4.000000, 4.000000, 4.000000, 4.000000, 4.000000, 4.000000, 4.000000, 0.000000, 4.000000, 4.000000, 4.000000, 4.000000, 4.000000, 4.000000, 4.000000
5.000000, 0.000000, 4078.461426, 3968.717773, 4196.922852, 4232.820313, 4181.538574, 4185.641113, 4177.948730, 4170.256348, 4201.538574, 4277.436035, 4124.615234, 4167.692383, 4251.281738, 3974.871582, 3585.000000, 8213.000000, 8075.000000, 0.000000, 0.000000, 0.000000, -20076.000000, 654.871765, 4.000000, 4.000000, 4.000000, 4.000000, 4.000000, 4.000000, 4.000000, 4.000000, 0.000000, 4.000000, 4.000000, 4.000000, 4.000000, 4.000000, 4.000000, 4.000000
6.000000, 0.000000, 4076.923096, 3961.538330, 4189.230469, 4230.769043, 4184.102539, 4186.153809, 4186.666504, 4180.512695, 4203.589844, 4274.871582, 4121.025391, 4166.666504, 4234.871582, 3973.333252, 3444.000000, 8213.000000, 8075.000000, 0.000000, 0.000000, 0.000000, -20076.000000, 662.564087, 4.000000, 4.000000, 4.000000, 4.000000, 4.000000, 4.000000, 4.000000, 4.000000, 0.000000, 4.000000, 4.000000, 4.000000, 4.000000, 4.000000, 4.000000, 4.000000
7.000000, 0.000000, 4079.487061, 3965.128174, 4192.307617, 4232.307617, 4183.589844, 4182.051270, 4183.076660, 4171.794922, 4204.102539, 4279.487305, 4126.666504, 4178.461426, 4229.743652, 3981.025635, 3507.000000, 8203.000000, 8088.000000, 0.000000, 0.000000, 0.000000, -20076.000000, 670.256409, 4.000000, 4.000000, 4.000000, 4.000000, 4.000000, 4.000000, 4.000000, 4.000000, 0.000000, 4.000000, 4.000000, 4.000000, 4.000000, 4.000000, 4.000000, 4.000000
8.000000, 0.000000, 4077.948730, 3967.692139, 4193.333008, 4230.256348, 4184.102539, 4183.589844, 4178.461426, 4164.615234, 4202.563965, 4275.384277, 4135.897461, 4187.179199, 4223.076660, 3986.153809, 0.000000, 8203.000000, 8088.000000, 0.000000, 0.000000, 0.000000, -20076.000000, 678.461548, 4.000000, 4.000000, 4.000000, 4.000000, 4.000000, 4.000000, 4.000000, 4.000000, 0.000000, 4.000000, 4.000000, 4.000000, 4.000000, 4.000000, 4.000000, 4.000000
9.000000, 0.000000, 4074.871582, 3960.512695, 4187.179199, 4223.589844, 4186.153809, 4188.717773, 4189.743652, 4175.384277, 4202.563965, 4262.051270, 4128.205078, 4180.000000, 4211.281738, 3978.461426, 2967.000000, 8201.000000, 8109.000000, 0.000000, 0.000000, 0.000000, -20076.000000, 686.153809, 4.000000, 4.000000, 4.000000, 4.000000, 4.000000, 4.000000, 4.000000, 4.000000, 0.000000, 4.000000, 4.000000, 4.000000, 4.000000, 4.000000, 4.000000, 4.000000
10.000000, 0.000000, 4083.589600, 3965.128174, 4194.358887, 4228.205078, 4189.743652, 4197.436035, 4202.051270, 4185.641113, 4203.589844, 4265.641113, 4125.127930, 4175.384277, 4211.281738, 3982.051270, 3585.000000, 8201.000000, 8109.000000, 0.000000, 0.000000, 0.000000, -20076.000000, 694.358948, 4.000000, 4.000000, 4.000000, 4.000000, 4.000000, 4.000000, 4.000000, 4.000000, 0.000000, 4.000000, 4.000000, 4.000000, 4.000000, 4.000000, 4.000000, 4.000000
11.000000, 0.000000, 4095.897217, 3980.000000, 4206.666504, 4235.897461, 4191.794922, 4203.589844, 4199.487305, 4192.820313, 4203.589844, 4282.563965, 4145.127930, 4194.871582, 4227.692383, 3996.923096, 3580.000000, 8200.000000, 8112.000000, 0.000000, 0.000000, 0.000000, -20076.000000, 702.051270, 4.000000, 4.000000, 4.000000, 4.000000, 4.000000, 4.000000, 4.000000, 4.000000, 0.000000, 4.000000, 4.000000, 4.000000, 4.000000, 4.000000, 4.000000, 4.000000
12.000000, 0.000000, 4091.281982, 3974.358887, 4202.051270, 4231.281738, 4186.666504, 4197.948730, 4201.538574, 4214.358887, 4204.102539, 4281.538574, 4158.974121, 4210.769043, 4235.897461, 3995.897217, 3522.000000, 8200.000000, 8112.000000, 0.000000, 0.000000, 0.000000, -20076.000000, 710.256409, 4.000000, 4.000000, 4.000000, 4.000000, 4.000000, 4.000000, 4.000000, 4.000000, 0.000000, 4.000000, 4.000000, 4.000000, 4.000000, 4.000000, 4.000000, 4.000000
13.000000, 0.000000, 4083.076904, 3960.512695, 4194.871582, 4227.692383, 4183.589844, 4191.794922, 4201.025391, 4210.256348, 4204.102539, 4268.717773, 4148.717773, 4180.000000, 4232.307617, 3989.743408, 3470.000000, 8210.000000, 8109.000000, 0.000000, 0.000000, 0.000000, -20076.000000, 717.948730, 4.000000, 4.000000, 4.000000, 4.000000, 4.000000, 4.000000, 4.000000, 4.000000, 0.000000, 4.000000, 4.000000, 4.000000, 4.000000, 4.000000, 4.000000, 4.000000
14.000000, 0.000000, 4084.615234, 3957.435791, 4200.000000, 4227.692383, 4187.692383, 4188.717773, 4187.692383, 4177.948730, 4203.589844, 4263.076660, 4138.461426, 4128.717773, 4228.717773, 3991.281982, 3585.000000, 8210.000000, 8109.000000, 0.000000, 0.000000, 0.000000, -20076.000000, 726.153809, 4.000000, 4.000000, 4.000000, 4.000000, 4.000000, 4.000000, 4.000000, 4.000000, 0.000000, 4.000000, 4.000000, 4.000000, 4.000000, 4.000000, 4.000000, 4.000000
15.000000, 0.000000, 4076.923096, 3955.897461, 4198.974121, 4222.563965, 4184.615234, 4186.153809, 4184.615234, 4175.897461, 4202.563965, 4257.948730, 4133.333008, 4104.615234, 4221.538574, 3980.512695, 3580.000000, 8211.000000, 8104.000000, 0.000000, 0.000000, 0.000000, -20076.000000, 733.846130, 4.000000, 4.000000, 4.000000, 4.000000, 4.000000, 4.000000, 4.000000, 4.000000, 0.000000, 4.000000, 4.000000, 4.000000, 4.000000, 4.000000, 4.000000, 4.000000
16.000000, 0.000000, 4063.076904, 3950.769043, 4189.230469, 4216.410156, 4181.538574, 4190.256348, 4183.589844, 4176.410156, 4203.076660, 4248.717773, 4125.641113, 4100.000000, 4214.871582, 3962.051270, 0.000000, 8211.000000, 8104.000000, 0.000000, 0.000000, 0.000000, -20076.000000, 742.051270, 4.000000, 4.000000, 4.000000, 4.000000, 4.000000, 4.000000, 4.000000, 4.000000, 0.000000, 4.000000, 4.000000, 4.000000, 4.000000, 4.000000, 4.000000, 4.000000
17.000000, 0.000000, 4061.025635, 3941.538330, 4177.948730, 4213.846191, 4191.281738, 4196.922852, 4167.179199, 4150.256348, 4203.076660, 4240.000000, 4115.384277, 4088.717773, 4213.846191, 3955.897461, 0.000000, 8214.000000, 8105.000000, 0.000000, 0.000000, 0.000000, -20076.000000, 749.743591, 4.000000, 4.000000, 4.000000, 4.000000, 4.000000, 4.000000, 4.000000, 4.000000, 0.000000, 4.000000, 4.000000, 4.000000, 4.000000, 4.000000, 4.000000, 4.000000
18.000000, 0.000000, 4063.076904, 3940.000000, 4170.256348, 4211.794922, 4200.512695, 4198.461426, 4166.153809, 4149.743652, 4203.076660, 4233.333008, 4105.641113, 4083.589600, 4214.871582, 3954.871582, 0.000000, 8214.000000, 8105.000000, 0.000000, 0.000000, 0.000000, -20076.000000, 757.435852, 4.000000, 4.000000, 4.000000, 4.000000, 4.000000, 4.000000, 4.000000, 4.000000, 0.000000, 4.000000, 4.000000, 4.000000, 4.000000, 4.000000, 4.000000, 4.000000
19.000000, 0.000000, 4058.974365, 3950.256348, 4173.333008, 4213.333008, 4199.487305, 4199.487305, 4184.102539, 4171.281738, 4203.076660, 4233.846191, 4104.615234, 4090.256348, 4215.384277, 3949.230713, 0.000000, 8208.000000, 8096.000000, 0.000000, 0.000000, 0.000000, -20076.000000, 765.640991, 4.000000, 4.000000, 4.000000, 4.000000, 4.000000, 4.000000, 4.000000, 4.000000, 0.000000, 4.000000, 4.000000, 4.000000, 4.000000, 4.000000, 4.000000, 4.000000
20.000000, 0.000000, 4062.051270, 3957.435791, 4183.589844, 4215.897461, 4198.974121, 4204.102539, 4189.230469, 4163.076660, 4203.076660, 4231.794922, 4109.743652, 4093.333252, 4216.410156, 3943.589600, 0.000000, 8208.000000, 8096.000000, 0.000000, 0.000000, 0.000000, -20076.000000, 773.333313, 4.000000, 4.000000, 4.000000, 4.000000, 4.000000, 4.000000, 4.000000, 4.000000, 0.000000, 4.000000, 4.000000, 4.000000, 4.000000, 4.000000, 4.000000, 4.000000
21.000000, 0.000000, 4068.205078, 3951.281982, 4189.743652, 4215.384277, 4197.436035, 4205.127930, 4186.153809, 4154.358887, 4203.076660, 4221.025391, 4108.717773, 4095.897217, 4217.436035, 3940.512695, 0.000000, 8215.000000, 8094.000000, 0.000000, 0.000000, 0.000000, -20076.000000, 781.538452, 4.000000, 4.000000, 4.000000, 4.000000, 4.000000, 4.000000, 4.000000, 4.000000, 0.000000, 4.000000, 4.000000, 4.000000, 4.000000, 4.000000, 4.000000, 4.000000
22.000000, 0.000000, 4064.102539, 3943.589600, 4187.692383, 4216.410156, 4189.230469, 4203.589844, 4187.692383, 4170.256348, 4203.076660, 4214.358887, 4105.641113, 4098.461426, 4216.922852, 3942.051270, 0.000000, 8215.000000, 8094.000000, 0.000000, 0.000000, 0.000000, -20076.000000, 789.230774, 4.000000, 4.000000, 4.000000, 4.000000, 4.000000, 4.000000, 4.000000, 4.000000, 0.000000, 4.000000, 4.000000, 4.000000, 4.000000, 4.000000, 4.000000, 4.000000
23.000000, 0.000000, 4056.410156, 3941.025635, 4181.538574, 4214.358887, 4192.820313, 4207.179199, 4186.666504, 4175.384277, 4203.076660, 4218.974121, 4108.205078, 4093.845947, 4214.358887, 3940.512695, 0.000000, 8212.000000, 8087.000000, 0.000000, 0.000000, 0.000000, -20076.000000, 796.923035, 4.000000, 4.000000, 4.000000, 4.000000, 4.000000, 4.000000, 4.000000, 4.000000, 0.000000, 4.000000, 4.000000, 4.000000, 4.000000, 4.000000, 4.000000, 4.000000
24.000000, 0.000000, 4051.794678, 3942.563965, 4172.307617, 4205.641113, 4204.102539, 4209.230469, 4187.692383, 4172.820313, 4202.563965, 4218.461426, 4104.615234, 4090.769043, 4212.307617, 3930.256348, 0.000000, 8212.000000, 8087.000000, 0.000000, 0.000000, 0.000000, -20076.000000, 805.128174, 4.000000, 4.000000, 4.000000, 4.000000, 4.000000, 4.000000, 4.000000, 4.000000, 0.000000, 4.000000, 4.000000, 4.000000, 4.000000, 4.000000, 4.000000, 4.000000
25.000000, 0.000000, 4054.871582, 3951.281982, 4166.153809, 4205.641113, 4197.436035, 4204.615234, 4190.769043, 4174.871582, 4203.589844, 4214.871582, 4101.538574, 4089.230713, 4214.358887, 3925.128174, 0.000000, 8213.000000, 8085.000000, 0.000000, 0.000000, 0.000000, -20076.000000, 812.820496, 4.000000, 4.000000, 4.000000, 4.000000, 4.000000, 4.000000, 4.000000, 4.000000, 0.000000, 4.000000, 4.000000, 4.000000, 4.000000, 4.000000, 4.000000, 4.000000
26.000000, 0.000000, 4064.102539, 3958.974365, 4175.384277, 4213.846191, 4192.307617, 4198.461426, 4184.102539, 4164.102539, 4203.076660, 4214.358887, 4105.641113, 4089.743408, 4214.871582, 3934.358887, 0.000000, 8213.000000, 8085.000000, 0.000000, 0.000000, 0.000000, -20076.000000, 820.512817, 4.000000, 4.000000, 4.000000, 4.000000, 4.000000, 4.000000, 4.000000, 4.000000, 0.000000, 4.000000, 4.000000, 4.000000, 4.000000, 4.000000, 4.000000, 4.000000
27.000000, 0.000000, 4069.230713, 3957.435791, 4184.102539, 4216.922852, 4197.436035, 4190.769043, 4172.820313, 4155.384277, 4202.051270, 4208.205078, 4105.641113, 4097.436035, 4213.333008, 3944.615234, 0.000000, 8216.000000, 8088.000000, 0.000000, 0.000000, 0.000000, -20076.000000, 828.717957, 4.000000, 4.000000, 4.000000, 4.000000, 4.000000, 4.000000, 4.000000, 4.000000, 0.000000, 4.000000, 4.000000, 4.000000, 4.000000, 4.000000, 4.000000, 4.000000
28.000000, 0.000000, 4070.769043, 3955.384521, 4184.615234, 4216.410156, 4191.281738, 4182.051270, 4167.692383, 4162.563965, 4202.051270, 4202.051270, 4103.076660, 4108.205078, 4214.358887, 3947.179443, 0.000000, 8216.000000, 8088.000000, 0.000000, 0.000000, 0.000000, -20076.000000, 836.410217, 4.000000, 4.000000, 4.000000, 4.000000, 4.000000, 4.000000, 4.000000, 4.000000, 0.000000, 4.000000, 4.000000, 4.000000, 4.000000, 4.000000, 4.000000, 4.000000
29.000000, 0.000000, 4074.358887, 3952.820313, 4186.153809, 4214.871582, 4187.179199, 4185.127930, 4170.769043, 4163.589844, 4202.051270, 4201.025391, 4105.127930, 4111.794922, 4217.436035, 3946.666504, 0.000000, 8209.000000, 8103.000000, 0.000000, 0.000000, 0.000000, -20076.000000, 844.615356, 4.000000, 4.000000, 4.000000, 4.000000, 4.000000, 4.000000, 4.000000, 4.000000, 0.000000, 4.000000, 4.000000, 4.000000, 4.000000, 4.000000, 4.000000, 4.000000
30.000000, 0.000000, 4068.717773, 3943.076904, 4183.076660, 4206.153809, 4198.974121, 4196.410156, 4173.333008, 4157.948730, 4202.563965, 4196.410156, 4103.076660, 4109.230469, 4217.436035, 3943.076904, 0.000000, 8209.000000, 8103.000000, 0.000000, 0.000000, 0.000000, -20076.000000, 852.307678, 4.000000, 4.000000, 4.000000, 4.000000, 4.000000, 4.000000, 4.000000, 4.000000, 0.000000, 4.000000, 4.000000, 4.000000, 4.000000, 4.000000, 4.000000, 4.000000
31.000000, 0.000000, 4059.487061, 3941.025635, 4174.871582, 4197.948730, 4203.076660, 4197.436035, 4170.769043, 4156.922852, 4203.589844, 4188.205078, 4094.358887, 4104.102539, 4214.358887, 3935.897461, 0.000000, 8209.000000, 8105.000000, 0.000000, 0.000000, 0.000000, -20076.000000, 860.000000, 4.000000, 4.000000, 4.000000, 4.000000, 4.000000, 4.000000, 4.000000, 4.000000, 0.000000, 4.000000, 4.000000, 4.000000, 4.000000, 4.000000, 4.000000, 4.000000
32.000000, 0.000000, 4065.128174, 3945.128174, 4176.922852, 4200.512695, 4196.922852, 4190.256348, 4167.692383, 4150.256348, 4202.563965, 4184.615234, 4089.230713, 4101.025391, 4212.307617, 3929.230713, 0.000000, 8209.000000, 8105.000000, 0.000000, 0.000000, 0.000000, -20076.000000, 868.205078, 4.000000, 4.000000, 4.000000, 4.000000, 4.000000, 4.000000, 4.000000, 4.000000, 0.000000, 4.000000, 4.000000, 4.000000, 4.000000, 4.000000, 4.000000, 4.000000
33.000000, 0.000000, 4076.923096, 3943.076904, 4185.641113, 4211.281738, 4201.025391, 4187.179199, 4167.179199, 4157.436035, 4202.051270, 4191.794922, 4095.384521, 4104.615234, 4218.974121, 3931.281982, 0.000000, 8208.000000, 8118.000000, 0.000000, 0.000000, 0.000000, -20076.000000, 875.897400, 4.000000, 4.000000, 4.000000, 4.000000, 4.000000, 4.000000, 4.000000, 4.000000, 0.000000, 4.000000, 4.000000, 4.000000, 4.000000, 4.000000, 4.000000, 4.000000
34.000000, 0.000000, 4075.897217, 3946.153809, 4188.205078, 4215.384277, 4201.538574, 4187.692383, 4168.205078, 4175.897461, 4203.589844, 4197.436035, 4101.538574, 4106.666504, 4225.127930, 3937.435791, 0.000000, 8208.000000, 8118.000000, 0.000000, 0.000000, 0.000000, -20076.000000, 883.589722, 4.000000, 4.000000, 4.000000, 4.000000, 4.000000, 4.000000, 4.000000, 4.000000, 0.000000, 4.000000, 4.000000, 4.000000, 4.000000, 4.000000, 4.000000, 4.000000
35.000000, 0.000000, 4070.769043, 3949.230713, 4184.615234, 4207.692383, 4190.256348, 4186.666504, 4170.769043, 4165.127930, 4203.589844, 4191.281738, 4095.897217, 4108.205078, 4222.563965, 3937.435791, 0.000000, 8208.000000, 8120.000000, 0.000000, 0.000000, 0.000000, -20076.000000, 891.794861, 4.000000, 4.000000, 4.000000, 4.000000, 4.000000, 4.000000, 4.000000, 4.000000, 0.000000, 4.000000, 4.000000, 4.000000, 4.000000, 4.000000, 4.000000, 4.000000
36.000000, 0.000000, 4074.358887, 3944.615234, 4184.615234, 4202.051270, 4192.307617, 4189.230469, 4169.230469, 4149.743652, 4201.538574, 4185.127930, 4090.256348, 4118.974121, 4221.025391, 3937.948730, 0.000000, 8208.000000, 8120.000000, 0.000000, 0.000000, 0.000000, -20076.000000, 899.487183, 4.000000, 4.000000, 4.000000, 4.000000, 4.000000, 4.000000, 4.000000, 4.000000, 0.000000, 4.000000, 4.000000, 4.000000, 4.000000, 4.000000, 4.000000, 4.000000
37.000000, 0.000000, 4074.871582, 3940.512695, 4187.692383, 4204.615234, 4197.948730, 4192.820313, 4171.794922, 4163.076660, 4203.076660, 4183.076660, 4093.333252, 4127.179199, 4221.025391, 3943.076904, 0.000000, 8209.000000, 8121.000000, 0.000000, 0.000000, 0.000000, -20076.000000, 907.692261, 4.000000, 4.000000, 4.000000, 4.000000, 4.000000, 4.000000, 4.000000, 4.000000, 0.000000, 4.000000, 4.000000, 4.000000, 4.000000, 4.000000, 4.000000, 4.000000
38.000000, 0.000000, 4070.256348, 3936.923096, 4184.615234, 4201.025391, 4188.717773, 4193.333008, 4177.948730, 4174.358887, 4204.102539, 4178.461426, 4092.820313, 4116.410156, 4216.922852, 3943.076904, 0.000000, 8209.000000, 8121.000000, 0.000000, 0.000000, 0.000000, -20076.000000, 915.384583, 4.000000, 4.000000, 4.000000, 4.000000, 4.000000, 4.000000, 4.000000, 4.000000, 0.000000, 4.000000, 4.000000, 4.000000, 4.000000, 4.000000, 4.000000, 4.000000
39.000000, 0.000000, 4072.307617, 3936.410156, 4180.512695, 4196.922852, 4190.256348, 4197.436035, 4178.461426, 4166.666504, 4204.102539, 4175.384277, 4086.666504, 4105.641113, 4211.794922, 3937.948730, 0.000000, 8210.000000, 8126.000000, 0.000000, 0.000000, 0.000000, -20076.000000, 923.076904, 4.000000, 4.000000, 4.000000, 4.000000, 4.000000, 4.000000, 4.000000, 4.000000, 0.000000, 4.000000, 4.000000, 4.000000, 4.000000, 4.000000, 4.000000, 4.000000
40.000000, 0.000000, 4075.897217, 3941.025635, 4181.538574, 4200.000000, 4210.256348, 4202.563965, 4172.820313, 4170.256348, 4204.102539, 4183.589844, 4088.717773, 4107.179199, 4215.897461, 3937.948730, 0.000000, 8210.000000, 8126.000000, 0.000000, 0.000000, 0.000000, -20076.000000, 930.769226, 4.000000, 4.000000, 4.000000, 4.000000, 4.000000, 4.000000, 4.000000, 4.000000, 0.000000, 4.000000, 4.000000, 4.000000, 4.000000, 4.000000, 4.000000, 4.000000
41.000000, 0.000000, 4077.948730, 3944.615234, 4185.641113, 4204.102539, 4213.846191, 4202.051270, 4170.769043, 4185.641113, 4203.589844, 4194.358887, 4097.948730, 4109.230469, 4225.127930, 3941.538330, 0.000000, 8214.000000, 8125.000000, 0.000000, 0.000000, 0.000000, -20076.000000, 938.974365, 4.000000, 4.000000, 4.000000, 4.000000, 4.000000, 4.000000, 4.000000, 4.000000, 0.000000, 4.000000, 4.000000, 4.000000, 4.000000, 4.000000, 4.000000, 4.000000
42.000000, 0.000000, 4081.538330, 3943.076904, 4185.641113, 4208.717773, 4201.025391, 4199.487305, 4176.922852, 4188.717773, 4205.127930, 4200.000000, 4102.051270, 4107.692383, 4230.256348, 3943.076904, 0.000000, 8214.000000, 8125.000000, 0.000000, 0.000000, 0.000000, -20076.000000, 946.666626, 4.000000, 4.000000, 4.000000, 4.000000, 4.000000, 4.000000, 4.000000, 4.000000, 0.000000, 4.000000, 4.000000, 4.000000, 4.000000, 4.000000, 4.000000, 4.000000
43.000000, 0.000000, 4079.487061, 3937.948730, 4184.102539, 4213.333008, 4201.025391, 4203.589844, 4188.717773, 4189.743652, 4206.153809, 4201.538574, 4103.076660, 4113.846191, 4232.820313, 3947.179443, 0.000000, 8215.000000, 8126.000000, 0.000000, 0.000000, 0.000000, -20076.000000, 954.358948, 4.000000, 4.000000, 4.000000, 4.000000, 4.000000, 4.000000, 4.000000, 4.000000, 0.000000, 4.000000, 4.000000, 4.000000, 4.000000, 4.000000, 4.000000, 4.000000
44.000000, 0.000000, 4080.000000, 3931.794678, 4187.692383, 4214.358887, 4202.563965, 4212.820313, 4196.410156, 4198.461426, 4203.076660, 4204.102539, 4107.692383, 4124.615234, 4234.358887, 3954.871582, 0.000000, 8215.000000, 8126.000000, 0.000000, 0.000000, 0.000000, -20076.000000, 962.564087, 4.000000, 4.000000, 4.000000, 4.000000, 4.000000, 4.000000, 4.000000, 4.000000, 0.000000, 4.000000, 4.000000, 4.000000, 4.000000, 4.000000, 4.000000, 4.000000
45.000000, 0.000000, 4089.743408, 3927.692139, 4190.769043, 4212.307617, 4205.127930, 4216.410156, 4191.794922, 4203.589844, 4201.538574, 4206.153809, 4110.256348, 4127.179199, 4233.846191, 3958.974365, 0.000000, 8220.000000, 8123.000000, 0.000000, 0.000000, 0.000000, -20076.000000, 970.256409, 4.000000, 4.000000, 4.000000, 4.000000, 4.000000, 4.000000, 4.000000, 4.000000, 0.000000, 4.000000, 4.000000, 4.000000, 4.000000, 4.000000, 4.000000, 4.000000
46.000000, 0.000000, 4089.230713, 3923.076904, 4189.230469, 4209.230469, 4204.102539, 4208.717773, 4181.025391, 4188.717773, 4203.589844, 4196.922852, 4100.000000, 4124.615234, 4224.615234, 3956.923096, 0.000000, 8220.000000, 8123.000000, 0.000000, 0.000000, 0.000000, -20076.000000, 977.948669, 4.000000, 4.000000, 4.000000, 4.000000, 4.000000, 4.000000, 4.000000, 4.000000, 0.000000, 4.000000, 4.000000, 4.000000, 4.000000, 4.000000, 4.000000, 4.000000
47.000000, 0.000000, 4077.948730, 3918.974365, 4186.153809, 4200.512695, 4189.230469, 4198.974121, 4176.922852, 4171.281738, 4203.589844, 4178.974121, 4085.640869, 4118.974121, 4212.820313, 3950.256348, 0.000000, 8228.000000, 8122.000000, 0.000000, 0.000000, 0.000000, -20076.000000, 986.153809, 4.000000, 4.000000, 4.000000, 4.000000, 4.000000, 4.000000, 4.000000, 4.000000, 0.000000, 4.000000, 4.000000, 4.000000, 4.000000, 4.000000, 4.000000, 4.000000
48.000000, 0.000000, 4071.794678, 3918.461426, 4178.974121, 4190.256348, 4188.205078, 4195.384277, 4172.307617, 4170.769043, 4202.051270, 4168.717773, 4076.923096, 4111.794922, 4206.666504, 3943.076904, 0.000000, 8228.000000, 8122.000000, 0.000000, 0.000000, 0.000000, -20076.000000, 993.846130, 4.000000, 4.000000, 4.000000, 4.000000, 4.000000, 4.000000, 4.000000, 4.000000, 0.000000, 4.000000, 4.000000, 4.000000, 4.000000, 4.000000, 4.000000, 4.000000
49.000000, 0.000000, 4069.230713, 3914.871582, 4169.230469, 4186.666504, 4201.538574, 4198.974121, 4171.281738, 4167.179199, 4203.589844, 4164.102539, 4069.743408, 4102.563965, 4203.076660, 3940.512695, 0.000000, 8225.000000, 8120.000000, 0.000000, 0.000000, 0.000000, -20075.000000, 2.051282, 4.000000, 4.000000, 4.000000, 4.000000, 4.000000, 4.000000, 4.000000, 4.000000, 0.000000, 4.000000, 4.000000, 4.000000, 4.000000, 4.000000, 4.000000, 4.000000
50.000000, 0.000000, 4067.692139, 3912.307617, 4166.666504, 4187.692383, 4197.948730, 4200.000000, 4171.794922, 4155.384277, 4203.589844, 4162.051270, 4065.128174, 4095.384521, 4200.512695, 3941.025635, 0.000000, 8225.000000, 8120.000000, 0.000000, 0.000000, 0.000000, -20075.000000, 9.743589, 4.000000, 4.000000, 4.000000, 4.000000, 4.000000, 4.000000, 4.000000, 4.000000, 0.000000, 4.000000, 4.000000, 4.000000, 4.000000, 4.000000, 4.000000, 4.000000
51.000000, 0.000000, 4066.666504, 3904.615234, 4167.692383, 4184.615234, 4182.051270, 4190.256348, 4164.615234, 4151.281738, 4202.563965, 4164.102539, 4066.666504, 4097.436035, 4198.974121, 3940.512695, 0.000000, 8221.000000, 8114.000000, 0.000000, 0.000000, 0.000000, -20075.000000, 17.948717, 4.000000, 4.000000, 4.000000, 4.000000, 4.000000, 4.000000, 4.000000, 4.000000, 0.000000, 4.000000, 4.000000, 4.000000, 4.000000, 4.000000, 4.000000, 4.000000
52.000000, 0.000000, 4058.974365, 3890.769043, 4172.820313, 4178.461426, 4179.487305, 4183.589844, 4160.512695, 4154.871582, 4203.076660, 4167.179199, 4069.230713, 4105.641113, 4200.512695, 3942.051270, 0.000000, 8221.000000, 8114.000000, 0.000000, 0.000000, 0.000000, -20075.000000, 25.641026, 4.000000, 4.000000, 4.000000, 4.000000, 4.000000, 4.000000, 4.000000, 4.000000, 0.000000, 4.000000, 4.000000, 4.000000, 4.000000, 4.000000, 4.000000, 4.000000
53.000000, 0.000000, 4060.512695, 3896.410156, 4180.512695, 4180.512695, 4184.102539, 4185.641113, 4166.153809, 4154.358887, 4203.589844, 4167.692383, 4069.230713, 4108.717773, 4204.102539, 3944.615234, 0.000000, 8225.000000, 8130.000000, 0.000000, 0.000000, 0.000000, -20075.000000, 33.846153, 4.000000, 4.000000, 4.000000, 4.000000, 4.000000, 4.000000, 4.000000, 4.000000, 0.000000, 4.000000, 4.000000, 4.000000, 4.000000, 4.000000, 4.000000, 4.000000
54.000000, 0.000000, 4070.256348, 3912.307617, 4180.512695, 4188.717773, 4184.102539, 4185.641113, 4167.692383, 4149.230469, 4203.589844, 4166.666504, 4067.179443, 4105.641113, 4204.615234, 3944.615234, 0.000000, 8225.000000, 8130.000000, 0.000000, 0.000000, 0.000000, -20075.000000, 41.538460, 4.000000, 4.000000, 4.000000, 4.000000, 4.000000, 4.000000, 4.000000, 4.000000, 0.000000, 4.000000, 4.000000, 4.000000, 4.000000, 4.000000, 4.000000, 4.000000
55.000000, 0.000000, 4072.307617, 3911.794678, 4178.974121, 4193.333008, 4183.076660, 4187.692383, 4166.153809, 4150.769043, 4203.589844, 4166.666504, 4068.717773, 4105.641113, 4201.538574, 3949.230713, 0.000000, 8223.000000, 8137.000000, 0.000000, 0.000000, 0.000000, -20075.000000, 49.743587, 4.000000, 4.000000, 4.000000, 4.000000, 4.000000, 4.000000, 4.000000, 4.000000, 0.000000, 4.000000, 4.000000, 4.000000, 4.000000, 4.000000, 4.000000, 4.000000
56.000000, 0.000000, 4078.461426, 3912.307617, 4186.666504, 4200.000000, 4188.717773, 4199.487305, 4166.153809, 4169.230469, 4204.102539, 4164.615234, 4067.692139, 4106.666504, 4200.000000, 3955.384521, 0.000000, 8223.000000, 8137.000000, 0.000000, 0.000000, 0.000000, -20075.000000, 57.435898, 4.000000, 4.000000, 4.000000, 4.000000, 4.000000, 4.000000, 4.000000, 4.000000, 0.000000, 4.000000, 4.000000, 4.000000, 4.000000, 4.000000, 4.000000, 4.000000
57.000000, 0.000000, 4091.281982, 3930.769043, 4192.820313, 4215.897461, 4204.102539, 4198.461426, 4161.025391, 4178.974121, 4203.076660, 4158.974121, 4062.051270, 4105.641113, 4201.025391, 3955.384521, 0.000000, 8210.000000, 8137.000000, 0.000000, 0.000000, 0.000000, -20075.000000, 65.128204, 4.000000, 4.000000, 4.000000, 4.000000, 4.000000, 4.000000, 4.000000, 4.000000, 0.000000, 4.000000, 4.000000, 4.000000, 4.000000, 4.000000, 4.000000, 4.000000
58.000000, 0.000000, 4088.717773, 3938.461426, 4188.205078, 4218.974121, 4204.102539, 4186.666504, 4156.922852, 4158.461426, 4202.563965, 4154.358887, 4058.461426, 4101.025391, 4195.897461, 3947.179443, 0.000000, 8210.000000, 8137.000000, 0.000000, 0.000000, 0.000000, -20075.000000, 72.820511, 4.000000, 4.000000, 4.000000, 4.000000, 4.000000, 4.000000, 4.000000, 4.000000, 0.000000, 4.000000, 4.000000, 4.000000, 4.000000, 4.000000, 4.000000, 4.000000
59.000000, 0.000000, 4074.871582, 3928.717773, 4179.487305, 4206.153809, 4182.563965, 4188.205078, 4157.436035, 4150.256348, 4203.076660, 4153.333008, 4056.923096, 4094.358887, 4188.717773, 3937.435791, 0.000000, 8206.000000, 8141.000000, 0.000000, 0.000000, 0.000000, -20075.000000, 81.025642, 4.000000, 4.000000, 4.000000, 4.000000, 4.000000, 4.000000, 4.000000, 4.000000, 0.000000, 4.000000, 4.000000, 4.000000, 4.000000, 4.000000, 4.000000, 4.000000
60.000000, 0.000000, 4071.794678, 3921.538330, 4177.436035, 4205.127930, 4180.000000, 4198.974121, 4161.538574, 4169.230469, 4203.076660, 4158.974121, 4060.000000, 4100.512695, 4197.436035, 3936.923096, 0.000000, 8206.000000, 8141.000000, 0.000000, 0.000000, 0.000000, -20075.000000, 88.717949, 4.000000, 4.000000, 4.000000, 4.000000, 4.000000, 4.000000, 4.000000, 4.000000, 0.000000, 4.000000, 4.000000, 4.000000, 4.000000, 4.000000, 4.000000, 4.000000
61.000000, 0.000000, 4075.897217, 3926.153809, 4183.076660, 4212.307617, 4200.000000, 4209.230469, 4180.000000, 4175.897461, 4203.589844, 4167.179199, 4071.281982, 4118.974121, 4208.717773, 3950.769043, 0.000000, 8201.000000, 8147.000000, 0.000000, 0.000000, 0.000000, -20075.000000, 96.410255, 4.000000, 4.000000, 4.000000, 4.000000, 4.000000, 4.000000, 4.000000, 4.000000, 0.000000, 4.000000, 4.000000, 4.000000, 4.000000, 4.000000, 4.000000, 4.000000
62.000000, 0.000000, 4075.897217, 3930.256348, 4186.153809, 4204.102539, 4199.487305, 4210.256348, 4189.743652, 4168.717773, 4203.589844, 4169.743652, 4077.435791, 4125.127930, 4203.589844, 3960.512695, 0.000000, 8201.000000, 8147.000000, 0.000000, 0.000000, 0.000000, -20075.000000, 104.615379, 4.000000, 4.000000, 4.000000, 4.000000, 4.000000, 4.000000, 4.000000, 4.000000, 0.000000, 4.000000, 4.000000, 4.000000, 4.000000, 4.000000, 4.000000, 4.000000
63.000000, 0.000000, 4073.845947, 3924.102539, 4182.563965, 4193.846191, 4182.051270, 4204.615234, 4176.922852, 4170.769043, 4203.076660, 4166.666504, 4074.871582, 4116.922852, 4200.512695, 3957.435791, 0.000000, 8190.000000, 8153.000000, 0.000000, 0.000000, 0.000000, -20075.000000, 112.307686, 4.000000, 4.000000, 4.000000, 4.000000, 4.000000, 4.000000, 4.000000, 4.000000, 0.000000, 4.000000, 4.000000, 4.000000, 4.000000, 4.000000, 4.000000, 4.000000
64.000000, 0.000000, 4075.897217, 3924.615234, 4179.487305, 4199.487305, 4181.025391, 4200.512695, 4168.717773, 4177.948730, 4202.563965, 4168.205078, 4074.358887, 4111.794922, 4208.717773, 3957.435791, 3189.000000, 8190.000000, 8153.000000, 0.000000, 0.000000, 0.000000, -20075.000000, 120.000000, 4.000000, 4.000000, 4.000000, 4.000000, 4.000000, 4.000000, 4.000000, 4.000000, 0.000000, 4.000000, 4.000000, 4.000000, 4.000000, 4.000000, 4.000000, 4.000000
65.000000, 0.000000, 4073.845947, 3935.384521, 4175.384277, 4201.538574, 4186.153809, 4202.051270, 4171.281738, 4184.615234, 4203.076660, 4167.179199, 4069.743408, 4107.179199, 4206.666504, 3956.410156, 3545.000000, 8189.000000, 8156.000000, 0.000000, 0.000000, 0.000000, -20075.000000, 128.205124, 4.000000, 4.000000, 4.000000, 4.000000, 4.000000, 4.000000, 4.000000, 4.000000, 0.000000, 4.000000, 4.000000, 4.000000, 4.000000, 4.000000, 4.000000, 4.000000
66.000000, 0.000000, 4066.153809, 3940.000000, 4168.717773, 4195.384277, 4184.102539, 4202.051270, 4170.769043, 4186.153809, 4203.589844, 4156.410156, 4057.948730, 4096.410156, 4201.538574, 3944.615234, 3618.000000, 8189.000000, 8156.000000, 0.000000, 0.000000, 0.000000, -20075.000000, 135.897430, 4.000000, 4.000000, 4.000000, 4.000000, 4.000000, 4.000000, 4.000000, 4.000000, 0.000000, 4.000000, 4.000000, 4.000000, 4.000000, 4.000000, 4.000000, 4.000000
67.000000, 0.000000, 4065.640869, 3950.256348, 4165.641113, 4195.384277, 4184.615234, 4198.974121, 4172.820313, 4177.436035, 4203.589844, 4154.871582, 4061.025635, 4094.358887, 4208.205078, 3942.051270, 2524.000000, 8176.000000, 8176.000000, 0.000000, 0.000000, 0.000000, -20075.000000, 144.102554, 4.000000, 4.000000, 4.000000, 4.000000, 4.000000, 4.000000, 4.000000, 4.000000, 0.000000, 4.000000, 4.000000, 4.000000, 4.000000, 4.000000, 4.000000, 4.000000
68.000000, 0.000000, 4071.794678, 3961.538330, 4168.717773, 4200.512695, 4186.153809, 4198.974121, 4173.846191, 4171.794922, 4201.538574, 4165.641113, 4074.358887, 4106.666504, 4215.897461, 3954.358887, 3560.000000, 8176.000000, 8176.000000, 0.000000, 0.000000, 0.000000, -20075.000000, 151.794861, 4.000000, 4.000000, 4.000000, 4.000000, 4.000000, 4.000000, 4.000000, 4.000000, 0.000000, 4.000000, 4.000000, 4.000000, 4.000000, 4.000000, 4.000000, 4.000000
69.000000, 0.000000, 4081.538330, 3963.076904, 4180.000000, 4202.563965, 4183.076660, 4196.410156, 4167.179199, 4172.820313, 4202.051270, 4169.743652, 4077.948730, 4120.000000, 4222.563965, 3966.153809, 3582.000000, 8169.000000, 8183.000000, 0.000000, 0.000000, 0.000000, -20075.000000, 159.487183, 4.000000, 4.000000, 4.000000, 4.000000, 4.000000, 4.000000, 4.000000, 4.000000, 0.000000, 4.000000, 4.000000, 4.000000, 4.000000, 4.000000, 4.000000, 4.000000
70.000000, 0.000000, 4096.922852, 3967.692139, 4197.436035, 4206.153809, 4186.153809, 4192.820313, 4166.666504, 4171.281738, 4204.102539, 4164.615234, 4077.948730, 4127.692383, 4233.333008, 3978.974365, 3241.000000, 8169.000000, 8183.000000, 0.000000, 0.000000, 0.000000, -20075.000000, 167.179489, 4.000000, 4.000000, 4.000000, 4.000000, 4.000000, 4.000000, 4.000000, 4.000000, 0.000000, 4.000000, 4.000000, 4.000000, 4.000000, 4.000000, 4.000000, 4.000000
71.000000, 0.000000, 4104.102539, 3972.307617, 4202.563965, 4208.205078, 4187.179199, 4190.769043, 4169.230469, 4172.307617, 4203.076660, 4160.512695, 4081.538330, 4130.769043, 4235.897461, 3992.820313, 3507.000000, 8169.000000, 8200.000000, 0.000000, 0.000000, 0.000000, -20075.000000, 175.384613, 4.000000, 4.000000, 4.000000, 4.000000, 4.000000, 4.000000, 4.000000, 4.000000, 0.000000, 4.000000, 4.000000, 4.000000, 4.000000, 4.000000, 4.000000, 4.000000
72.000000, 0.000000, 4095.897217, 3966.153809, 4193.333008, 4200.000000, 4168.205078, 4187.179199, 4159.487305, 4174.871582, 4202.051270, 4155.897461, 4076.410156, 4127.179199, 4222.563965, 3991.281982, 0.000000, 8169.000000, 8200.000000, 0.000000, 0.000000, 0.000000, -20075.000000, 183.076920, 4.000000, 4.000000, 4.000000, 4.000000, 4.000000, 4.000000, 4.000000, 4.000000, 0.000000, 4.000000, 4.000000, 4.000000, 4.000000, 4.000000, 4.000000, 4.000000
73.000000, 0.000000, 4089.743408, 3967.179443, 4186.666504, 4193.846191, 4157.948730, 4182.051270, 4150.769043, 4167.179199, 4202.051270, 4146.666504, 4061.538330, 4116.922852, 4213.846191, 3978.974365, 2975.000000, 8163.000000, 8205.000000, 0.000000, 0.000000, 0.000000, -20075.000000, 190.769226, 4.000000, 4.000000, 4.000000, 4.000000, 4.000000, 4.000000, 4.000000, 4.000000, 0.000000, 4.000000, 4.000000, 4.000000, 4.000000, 4.000000, 4.000000, 4.000000
74.000000, 0.000000, 4091.794678, 3983.076904, 4183.076660, 4200.512695, 4177.436035, 4186.666504, 4158.974121, 4155.384277, 4201.538574, 4138.974121, 4052.307617, 4107.692383, 4214.871582, 3973.333252, 3583.000000, 8163.000000, 8205.000000, 0.000000, 0.000000, 0.000000, -20075.000000, 198.974350, 4.000000, 4.000000, 4.000000, 4.000000, 4.000000, 4.000000, 4.000000, 4.000000, 0.000000, 4.000000, 4.000000, 4.000000, 4.000000, 4.000000, 4.000000, 4.000000
75.000000, 0.000000, 4089.230713, 3991.281982, 4173.846191, 4202.563965, 4189.230469, 4195.384277, 4170.256348, 4159.487305, 4201.025391, 4137.948730, 4049.230713, 4106.666504, 4209.743652, 3972.307617, 3580.000000, 8163.000000, 8207.000000, 0.000000, 0.000000, 0.000000, -20075.000000, 206.666656, 4.000000, 4.000000, 4.000000, 4.000000, 4.000000, 4.000000, 4.000000, 4.000000, 0.000000, 4.000000, 4.000000, 4.000000, 4.000000, 4.000000, 4.000000, 4.000000
76.000000, 0.000000, 4076.410156, 3986.666504, 4164.102539, 4189.743652, 4176.922852, 4191.281738, 4170.256348, 4169.230469, 4202.051270, 4140.000000, 4047.692139, 4103.589844, 4202.563965, 3969.230713, 3522.000000, 8163.000000, 8207.000000, 0.000000, 0.000000, 0.000000, -20075.000000, 214.871796, 4.000000, 4.000000, 4.000000, 4.000000, 4.000000, 4.000000, 4.000000, 4.000000, 0.000000, 4.000000, 4.000000, 4.000000, 4.000000, 4.000000, 4.000000, 4.000000
77.000000, 0.000000, 4062.563965, 3985.640869, 4164.615234, 4182.563965, 4175.384277, 4193.333008, 4169.230469, 4168.205078, 4202.563965, 4133.846191, 4042.563965, 4097.436035, 4198.974121, 3964.615234, 3470.000000, 8172.000000, 8218.000000, 0.000000, 0.000000, 0.000000, -20075.000000, 222.564102, 4.000000, 4.000000, 4.000000, 4.000000, 4.000000, 4.000000, 4.000000, 4.000000, 0.000000, 4.000000, 4.000000, 4.000000, 4.000000, 4.000000, 4.000000, 4.000000
78.000000, 0.000000, 4060.000000, 3992.820313, 4167.692383, 4185.127930, 4184.102539, 4206.153809, 4171.794922, 4170.769043, 4201.538574, 4120.512695, 4035.897217, 4098.974121, 4188.205078, 3965.128174, 3583.000000, 8172.000000, 8218.000000, 0.000000, 0.000000, 0.000000, -20075.000000, 230.256409, 4.000000, 4.000000, 4.000000, 4.000000, 4.000000, 4.000000, 4.000000, 4.000000, 0.000000, 4.000000, 4.000000, 4.000000, 4.000000, 4.000000, 4.000000, 4.000000
79.000000, 0.000000, 4068.717773, 4002.051270, 4168.717773, 4185.127930, 4186.153809, 4205.641113, 4169.743652, 4182.563965, 4203.076660, 4121.538574, 4040.000000, 4111.281738, 4184.615234, 3976.410156, 3580.000000, 8182.000000, 8222.000000, 0.000000, 0.000000, 0.000000, -20075.000000, 238.461533, 4.000000, 4.000000, 4.000000, 4.000000, 4.000000, 4.000000, 4.000000, 4.000000, 0.000000, 4.000000, 4.000000, 4.000000, 4.000000, 4.000000, 4.000000, 4.000000
80.000000, 0.000000, 4081.538330, 4006.153809, 4173.846191, 4188.205078, 4179.487305, 4199.487305, 4170.769043, 4194.871582, 4204.102539, 4143.076660, 4055.897217, 4124.102539, 4206.666504, 3995.897217, 3522.000000, 8182.000000, 8222.000000, 0.000000, 0.000000, 0.000000, -20075.000000, 246.153839, 4.000000, 4.000000, 4.000000, 4.000000, 4.000000, 4.000000, 4.000000, 4.000000, 0.000000, 4.000000, 4.000000, 4.000000, 4.000000, 4.000000, 4.000000, 4.000000
81.000000, 0.000000, 4092.307617, 4011.281982, 4180.512695, 4200.000000, 4168.717773, 4200.512695, 4171.281738, 4199.487305, 4203.076660, 4160.000000, 4067.692139, 4127.692383, 4222.051270, 4006.666504, 3470.000000, 8201.000000, 8217.000000, 0.000000, 0.000000, 0.000000, -20075.000000, 253.846146, 4.000000, 4.000000, 4.000000, 4.000000, 4.000000, 4.000000, 4.000000, 4.000000, 0.000000, 4.000000, 4.000000, 4.000000, 4.000000, 4.000000, 4.000000, 4.000000
82.000000, 0.000000, 4099.487305, 4030.256348, 4186.666504, 4205.641113, 4175.384277, 4194.358887, 4158.974121, 4188.717773, 4202.051270, 4157.948730, 4070.256348, 4124.615234, 4218.974121, 4003.589600, 3583.000000, 8201.000000, 8217.000000, 0.000000, 0.000000, 0.000000, -20075.000000, 261.538452, 4.000000, 4.000000, 4.000000, 4.000000, 4.000000, 4.000000, 4.000000, 4.000000, 0.000000, 4.000000, 4.000000, 4.000000, 4.000000, 4.000000, 4.000000, 4.000000
83.000000, 0.000000, 4105.127930, 4047.692139, 4189.230469, 4201.538574, 4190.256348, 4183.076660, 4147.179199, 4169.743652, 4202.563965, 4159.487305, 4075.897217, 4129.743652, 4233.846191, 4009.743408, 3580.000000, 8206.000000, 8222.000000, 0.000000, 0.000000, 0.000000, -20075.000000, 269.743591, 4.000000, 4.000000, 4.000000, 4.000000, 4.000000, 4.000000, 4.000000, 4.000000, 0.000000, 4.000000, 4.000000, 4.000000, 4.000000, 4.000000, 4.000000, 4.000000
