title:winkRight10, recorded:21.05.18 17.26.06, timestamp started:2018-05-12T20:28:52.032863+02:00            , sampling:128, subject:Noé, labels:COUNTER INTERPOLATED AF3 F7 F3 FC5 T7 P7 O1 O2 P8 T8 FC6 F4 F8 AF4 RAW_CQ GYROX GYROY MARKER MARKER_HARDWARE SYNC TIME_STAMP_s TIME_STAMP_ms CQ_AF3 CQ_F7 CQ_F3 CQ_FC5 CQ_T7 CQ_P7 CQ_O1 CQ_O2 CQ_P8 CQ_T8 CQ_FC6 CQ_F4 CQ_F8 CQ_AF4 CQ_CMS CQ_DRL, chan:40, samples:2239, units:emotiv
51.000000, 0.000000, 4215.384277, 4344.615234, 4189.743652, 4202.563965, 4201.025391, 4210.256348, 4218.461426, 4198.974121, 4204.102539, 4216.410156, 4210.769043, 4209.743652, 4228.205078, 4216.922852, 0.000000, 8278.000000, 8134.000000, 0.000000, 0.000000, 0.000000, -19797.000000, 417.435883, 4.000000, 4.000000, 4.000000, 4.000000, 4.000000, 4.000000, 4.000000, 4.000000, 0.000000, 4.000000, 4.000000, 4.000000, 4.000000, 4.000000, 4.000000, 4.000000
52.000000, 0.000000, 4209.230469, 4337.948730, 4187.179199, 4201.025391, 4197.436035, 4203.076660, 4217.436035, 4200.512695, 4204.102539, 4209.230469, 4200.000000, 4203.076660, 4213.333008, 4202.563965, 0.000000, 8278.000000, 8134.000000, 0.000000, 0.000000, 0.000000, -19797.000000, 425.641022, 4.000000, 4.000000, 4.000000, 4.000000, 4.000000, 4.000000, 4.000000, 4.000000, 0.000000, 4.000000, 4.000000, 4.000000, 4.000000, 4.000000, 4.000000, 4.000000
53.000000, 0.000000, 4191.281738, 4328.205078, 4176.922852, 4188.205078, 4188.205078, 4202.563965, 4205.641113, 4188.205078, 4203.589844, 4200.512695, 4183.589844, 4189.743652, 4194.358887, 4181.538574, 0.000000, 8289.000000, 8072.000000, 0.000000, 0.000000, 0.000000, -19797.000000, 433.333313, 4.000000, 4.000000, 4.000000, 4.000000, 4.000000, 4.000000, 4.000000, 4.000000, 0.000000, 4.000000, 4.000000, 4.000000, 4.000000, 4.000000, 4.000000, 4.000000
54.000000, 0.000000, 4187.179199, 4333.846191, 4168.205078, 4181.025391, 4192.307617, 4211.281738, 4201.538574, 4180.512695, 4204.615234, 4201.538574, 4185.641113, 4182.051270, 4199.487305, 4178.974121, 0.000000, 8289.000000, 8072.000000, 0.000000, 0.000000, 0.000000, -19797.000000, 441.025635, 4.000000, 4.000000, 4.000000, 4.000000, 4.000000, 4.000000, 4.000000, 4.000000, 0.000000, 4.000000, 4.000000, 4.000000, 4.000000, 4.000000, 4.000000, 4.000000
55.000000, 0.000000, 4197.436035, 4350.256348, 4167.179199, 4188.717773, 4203.589844, 4213.333008, 4202.051270, 4189.230469, 4204.102539, 4212.307617, 4200.512695, 4192.307617, 4223.589844, 4194.871582, 0.000000, 8307.000000, 8122.000000, 0.000000, 0.000000, 0.000000, -19797.000000, 449.230743, 4.000000, 4.000000, 4.000000, 4.000000, 4.000000, 4.000000, 4.000000, 4.000000, 0.000000, 4.000000, 4.000000, 4.000000, 4.000000, 4.000000, 4.000000, 4.000000
56.000000, 0.000000, 4203.589844, 4348.717773, 4178.974121, 4198.461426, 4195.897461, 4204.615234, 4200.000000, 4188.717773, 4202.051270, 4216.410156, 4210.769043, 4203.589844, 4238.461426, 4207.692383, 0.000000, 8307.000000, 8122.000000, 0.000000, 0.000000, 0.000000, -19797.000000, 456.923065, 4.000000, 4.000000, 4.000000, 4.000000, 4.000000, 4.000000, 4.000000, 4.000000, 0.000000, 4.000000, 4.000000, 4.000000, 4.000000, 4.000000, 4.000000, 4.000000
57.000000, 0.000000, 4200.512695, 4338.461426, 4183.076660, 4196.922852, 4191.281738, 4200.000000, 4200.512695, 4184.102539, 4202.563965, 4213.333008, 4211.281738, 4201.538574, 4240.512695, 4203.076660, 0.000000, 8303.000000, 8122.000000, 0.000000, 0.000000, 0.000000, -19797.000000, 465.128204, 4.000000, 4.000000, 4.000000, 4.000000, 4.000000, 4.000000, 4.000000, 4.000000, 0.000000, 4.000000, 4.000000, 4.000000, 4.000000, 4.000000, 4.000000, 4.000000
58.000000, 0.000000, 4198.974121, 4342.051270, 4172.307617, 4190.769043, 4202.563965, 4203.076660, 4203.589844, 4186.666504, 4204.102539, 4214.358887, 4209.743652, 4197.948730, 4244.615234, 4199.487305, 0.000000, 8303.000000, 8122.000000, 0.000000, 0.000000, 0.000000, -19797.000000, 472.820496, 4.000000, 4.000000, 4.000000, 4.000000, 4.000000, 4.000000, 4.000000, 4.000000, 0.000000, 4.000000, 4.000000, 4.000000, 4.000000, 4.000000, 4.000000, 4.000000
59.000000, 0.000000, 4199.487305, 4344.102539, 4172.307617, 4189.743652, 4207.179199, 4202.051270, 4197.436035, 4186.666504, 4203.589844, 4219.487305, 4214.871582, 4201.538574, 4255.384277, 4208.205078, 0.000000, 8293.000000, 8143.000000, 0.000000, 0.000000, 0.000000, -19797.000000, 480.512817, 4.000000, 4.000000, 4.000000, 4.000000, 4.000000, 4.000000, 4.000000, 4.000000, 0.000000, 4.000000, 4.000000, 4.000000, 4.000000, 4.000000, 4.000000, 4.000000
60.000000, 0.000000, 4203.589844, 4341.025391, 4180.512695, 4193.333008, 4202.051270, 4197.436035, 4197.436035, 4187.692383, 4202.563965, 4221.538574, 4226.153809, 4205.641113, 4266.153809, 4217.948730, 0.000000, 8293.000000, 8143.000000, 0.000000, 0.000000, 0.000000, -19797.000000, 488.717926, 4.000000, 4.000000, 4.000000, 4.000000, 4.000000, 4.000000, 4.000000, 4.000000, 0.000000, 4.000000, 4.000000, 4.000000, 4.000000, 4.000000, 4.000000, 4.000000
61.000000, 0.000000, 4211.281738, 4343.076660, 4178.461426, 4192.307617, 4201.025391, 4200.512695, 4213.846191, 4188.717773, 4202.563965, 4219.487305, 4230.769043, 4209.230469, 4275.897461, 4224.615234, 0.000000, 8290.000000, 8152.000000, 0.000000, 0.000000, 0.000000, -19797.000000, 496.410248, 4.000000, 4.000000, 4.000000, 4.000000, 4.000000, 4.000000, 4.000000, 4.000000, 0.000000, 4.000000, 4.000000, 4.000000, 4.000000, 4.000000, 4.000000, 4.000000
62.000000, 0.000000, 4208.205078, 4333.846191, 4171.281738, 4185.127930, 4199.487305, 4204.615234, 4217.436035, 4182.563965, 4203.076660, 4216.410156, 4227.179199, 4212.820313, 4276.922852, 4229.230469, 0.000000, 8290.000000, 8152.000000, 0.000000, 0.000000, 0.000000, -19797.000000, 504.102539, 4.000000, 4.000000, 4.000000, 4.000000, 4.000000, 4.000000, 4.000000, 4.000000, 0.000000, 4.000000, 4.000000, 4.000000, 4.000000, 4.000000, 4.000000, 4.000000
63.000000, 0.000000, 4198.461426, 4317.436035, 4171.794922, 4179.487305, 4199.487305, 4203.589844, 4211.281738, 4188.717773, 4203.076660, 4215.897461, 4227.179199, 4215.384277, 4269.743652, 4227.179199, 0.000000, 8279.000000, 8141.000000, 0.000000, 0.000000, 0.000000, -19797.000000, 512.307678, 4.000000, 4.000000, 4.000000, 4.000000, 4.000000, 4.000000, 4.000000, 4.000000, 0.000000, 4.000000, 4.000000, 4.000000, 4.000000, 4.000000, 4.000000, 4.000000
64.000000, 0.000000, 4196.922852, 4320.512695, 4178.974121, 4183.589844, 4198.461426, 4203.589844, 4211.794922, 4200.000000, 4202.563965, 4220.512695, 4229.743652, 4218.461426, 4268.205078, 4221.538574, 3190.000000, 8279.000000, 8141.000000, 0.000000, 0.000000, 0.000000, -19797.000000, 520.000000, 4.000000, 4.000000, 4.000000, 4.000000, 4.000000, 4.000000, 4.000000, 4.000000, 0.000000, 4.000000, 4.000000, 4.000000, 4.000000, 4.000000, 4.000000, 4.000000
65.000000, 0.000000, 4203.076660, 4328.717773, 4183.076660, 4188.205078, 4190.769043, 4203.076660, 4205.641113, 4189.230469, 4203.076660, 4229.743652, 4234.871582, 4216.922852, 4277.436035, 4220.000000, 3545.000000, 8275.000000, 8136.000000, 0.000000, 0.000000, 0.000000, -19797.000000, 527.692322, 4.000000, 4.000000, 4.000000, 4.000000, 4.000000, 4.000000, 4.000000, 4.000000, 0.000000, 4.000000, 4.000000, 4.000000, 4.000000, 4.000000, 4.000000, 4.000000
66.000000, 0.000000, 4196.410156, 4319.487305, 4177.436035, 4181.025391, 4190.256348, 4200.000000, 4203.589844, 4180.512695, 4203.589844, 4229.230469, 4233.333008, 4208.205078, 4278.461426, 4218.974121, 3583.000000, 8275.000000, 8136.000000, 0.000000, 0.000000, 0.000000, -19797.000000, 535.897400, 4.000000, 4.000000, 4.000000, 4.000000, 4.000000, 4.000000, 4.000000, 4.000000, 0.000000, 4.000000, 4.000000, 4.000000, 4.000000, 4.000000, 4.000000, 4.000000
67.000000, 0.000000, 4186.666504, 4311.794922, 4173.846191, 4173.333008, 4199.487305, 4202.051270, 4217.436035, 4188.717773, 4204.102539, 4221.538574, 4223.076660, 4198.974121, 4272.307617, 4214.871582, 2678.000000, 8277.000000, 8138.000000, 0.000000, 0.000000, 0.000000, -19797.000000, 543.589722, 4.000000, 4.000000, 4.000000, 4.000000, 4.000000, 4.000000, 4.000000, 4.000000, 0.000000, 4.000000, 4.000000, 4.000000, 4.000000, 4.000000, 4.000000, 4.000000
68.000000, 0.000000, 4193.333008, 4315.897461, 4182.051270, 4182.563965, 4205.127930, 4205.641113, 4216.922852, 4189.230469, 4204.102539, 4222.051270, 4220.000000, 4195.384277, 4275.384277, 4214.871582, 3552.000000, 8277.000000, 8138.000000, 0.000000, 0.000000, 0.000000, -19797.000000, 551.282043, 4.000000, 4.000000, 4.000000, 4.000000, 4.000000, 4.000000, 4.000000, 4.000000, 0.000000, 4.000000, 4.000000, 4.000000, 4.000000, 4.000000, 4.000000, 4.000000
69.000000, 0.000000, 4203.076660, 4316.922852, 4189.230469, 4193.333008, 4197.948730, 4202.563965, 4201.025391, 4188.717773, 4204.102539, 4222.563965, 4227.179199, 4202.051270, 4278.461426, 4216.410156, 3581.000000, 8281.000000, 8141.000000, 0.000000, 0.000000, 0.000000, -19797.000000, 559.487183, 4.000000, 4.000000, 4.000000, 4.000000, 4.000000, 4.000000, 4.000000, 4.000000, 0.000000, 4.000000, 4.000000, 4.000000, 4.000000, 4.000000, 4.000000, 4.000000
70.000000, 0.000000, 4207.692383, 4311.794922, 4193.846191, 4197.436035, 4191.281738, 4198.974121, 4204.615234, 4202.051270, 4202.051270, 4220.000000, 4233.333008, 4216.922852, 4278.461426, 4221.025391, 3391.000000, 8281.000000, 8141.000000, 0.000000, 0.000000, 0.000000, -19797.000000, 567.179443, 4.000000, 4.000000, 4.000000, 4.000000, 4.000000, 4.000000, 4.000000, 4.000000, 0.000000, 4.000000, 4.000000, 4.000000, 4.000000, 4.000000, 4.000000, 4.000000
71.000000, 0.000000, 4213.846191, 4310.769043, 4201.538574, 4201.538574, 4197.436035, 4201.025391, 4216.922852, 4201.538574, 4202.051270, 4223.076660, 4233.333008, 4225.641113, 4279.487305, 4229.743652, 3507.000000, 8284.000000, 8144.000000, 0.000000, 0.000000, 0.000000, -19797.000000, 575.384583, 4.000000, 4.000000, 4.000000, 4.000000, 4.000000, 4.000000, 4.000000, 4.000000, 0.000000, 4.000000, 4.000000, 4.000000, 4.000000, 4.000000, 4.000000, 4.000000
72.000000, 0.000000, 4216.410156, 4312.307617, 4201.025391, 4199.487305, 4204.615234, 4203.076660, 4214.358887, 4187.692383, 4202.563965, 4224.102539, 4233.846191, 4222.563965, 4275.897461, 4230.769043, 0.000000, 8284.000000, 8144.000000, 0.000000, 0.000000, 0.000000, -19797.000000, 583.076904, 4.000000, 4.000000, 4.000000, 4.000000, 4.000000, 4.000000, 4.000000, 4.000000, 0.000000, 4.000000, 4.000000, 4.000000, 4.000000, 4.000000, 4.000000, 4.000000
73.000000, 0.000000, 4205.127930, 4307.179199, 4191.281738, 4189.230469, 4200.512695, 4202.563965, 4208.205078, 4184.102539, 4201.538574, 4215.897461, 4230.256348, 4211.794922, 4265.127930, 4219.487305, 2885.000000, 8287.000000, 8157.000000, 0.000000, 0.000000, 0.000000, -19797.000000, 590.769226, 4.000000, 4.000000, 4.000000, 4.000000, 4.000000, 4.000000, 4.000000, 4.000000, 0.000000, 4.000000, 4.000000, 4.000000, 4.000000, 4.000000, 4.000000, 4.000000
74.000000, 0.000000, 4197.436035, 4298.974121, 4183.076660, 4183.589844, 4195.384277, 4202.051270, 4211.281738, 4186.666504, 4201.538574, 4210.256348, 4221.538574, 4200.000000, 4256.410156, 4211.281738, 3583.000000, 8287.000000, 8157.000000, 0.000000, 0.000000, 0.000000, -19797.000000, 598.974365, 4.000000, 4.000000, 4.000000, 4.000000, 4.000000, 4.000000, 4.000000, 4.000000, 0.000000, 4.000000, 4.000000, 4.000000, 4.000000, 4.000000, 4.000000, 4.000000
75.000000, 0.000000, 4201.538574, 4297.436035, 4181.025391, 4185.641113, 4199.487305, 4200.000000, 4214.871582, 4191.794922, 4204.102539, 4212.307617, 4222.563965, 4199.487305, 4258.461426, 4211.794922, 3556.000000, 8290.000000, 8171.000000, 0.000000, 0.000000, 0.000000, -19797.000000, 606.666626, 4.000000, 4.000000, 4.000000, 4.000000, 4.000000, 4.000000, 4.000000, 4.000000, 0.000000, 4.000000, 4.000000, 4.000000, 4.000000, 4.000000, 4.000000, 4.000000
76.000000, 0.000000, 4198.461426, 4298.974121, 4181.538574, 4186.153809, 4201.025391, 4198.974121, 4212.820313, 4197.948730, 4204.102539, 4213.333008, 4228.205078, 4203.076660, 4259.487305, 4207.692383, 3521.000000, 8290.000000, 8171.000000, 0.000000, 0.000000, 0.000000, -19797.000000, 614.871765, 4.000000, 4.000000, 4.000000, 4.000000, 4.000000, 4.000000, 4.000000, 4.000000, 0.000000, 4.000000, 4.000000, 4.000000, 4.000000, 4.000000, 4.000000, 4.000000
77.000000, 0.000000, 4194.358887, 4295.384277, 4182.563965, 4187.179199, 4200.512695, 4201.538574, 4211.281738, 4196.922852, 4202.563965, 4213.846191, 4228.205078, 4203.076660, 4256.922852, 4206.666504, 3472.000000, 8271.000000, 8172.000000, 0.000000, 0.000000, 0.000000, -19797.000000, 622.564087, 4.000000, 4.000000, 4.000000, 4.000000, 4.000000, 4.000000, 4.000000, 4.000000, 0.000000, 4.000000, 4.000000, 4.000000, 4.000000, 4.000000, 4.000000, 4.000000
78.000000, 0.000000, 4197.948730, 4293.846191, 4186.153809, 4195.384277, 4201.538574, 4203.589844, 4214.871582, 4196.922852, 4203.076660, 4215.897461, 4229.230469, 4205.127930, 4259.487305, 4214.871582, 3583.000000, 8271.000000, 8172.000000, 0.000000, 0.000000, 0.000000, -19797.000000, 630.256409, 4.000000, 4.000000, 4.000000, 4.000000, 4.000000, 4.000000, 4.000000, 4.000000, 0.000000, 4.000000, 4.000000, 4.000000, 4.000000, 4.000000, 4.000000, 4.000000
79.000000, 0.000000, 4201.538574, 4294.871582, 4186.666504, 4201.025391, 4202.051270, 4203.076660, 4217.948730, 4197.948730, 4203.076660, 4217.948730, 4233.846191, 4207.179199, 4263.076660, 4216.922852, 3556.000000, 8203.000000, 8186.000000, 0.000000, 0.000000, 0.000000, -19797.000000, 638.461548, 4.000000, 4.000000, 4.000000, 4.000000, 4.000000, 4.000000, 4.000000, 4.000000, 0.000000, 4.000000, 4.000000, 4.000000, 4.000000, 4.000000, 4.000000, 4.000000
80.000000, 0.000000, 4199.487305, 4290.256348, 4183.589844, 4198.461426, 4204.615234, 4201.025391, 4210.769043, 4192.820313, 4203.076660, 4215.897461, 4231.794922, 4204.102539, 4261.025391, 4212.307617, 3521.000000, 8203.000000, 8186.000000, 0.000000, 0.000000, 0.000000, -19797.000000, 646.153809, 4.000000, 4.000000, 4.000000, 4.000000, 4.000000, 4.000000, 4.000000, 4.000000, 0.000000, 4.000000, 4.000000, 4.000000, 4.000000, 4.000000, 4.000000, 4.000000
81.000000, 0.000000, 4196.922852, 4289.743652, 4183.589844, 4197.948730, 4203.076660, 4203.589844, 4211.281738, 4192.820313, 4202.563965, 4211.794922, 4228.717773, 4202.563965, 4260.000000, 4213.333008, 3472.000000, 8188.000000, 8184.000000, 0.000000, 0.000000, 0.000000, -19797.000000, 654.358948, 4.000000, 4.000000, 4.000000, 4.000000, 4.000000, 4.000000, 4.000000, 4.000000, 0.000000, 4.000000, 4.000000, 4.000000, 4.000000, 4.000000, 4.000000, 4.000000
82.000000, 0.000000, 4201.538574, 4295.897461, 4184.615234, 4201.538574, 4200.000000, 4210.256348, 4215.384277, 4200.512695, 4202.563965, 4213.846191, 4238.974121, 4208.717773, 4265.641113, 4217.948730, 3583.000000, 8188.000000, 8184.000000, 0.000000, 0.000000, 0.000000, -19797.000000, 662.051270, 4.000000, 4.000000, 4.000000, 4.000000, 4.000000, 4.000000, 4.000000, 4.000000, 0.000000, 4.000000, 4.000000, 4.000000, 4.000000, 4.000000, 4.000000, 4.000000
83.000000, 0.000000, 4210.769043, 4292.307617, 4188.717773, 4201.025391, 4209.743652, 4208.205078, 4204.615234, 4198.974121, 4203.589844, 4220.000000, 4243.589844, 4213.846191, 4269.743652, 4216.410156, 3556.000000, 8154.000000, 8158.000000, 0.000000, 0.000000, 0.000000, -19797.000000, 670.256409, 4.000000, 4.000000, 4.000000, 4.000000, 4.000000, 4.000000, 4.000000, 4.000000, 0.000000, 4.000000, 4.000000, 4.000000, 4.000000, 4.000000, 4.000000, 4.000000
84.000000, 0.000000, 4214.871582, 4284.615234, 4196.410156, 4200.000000, 4217.948730, 4196.922852, 4193.333008, 4191.794922, 4203.589844, 4219.487305, 4231.794922, 4213.846191, 4263.076660, 4215.897461, 3521.000000, 8154.000000, 8158.000000, 0.000000, 0.000000, 0.000000, -19797.000000, 677.948730, 4.000000, 4.000000, 4.000000, 4.000000, 4.000000, 4.000000, 4.000000, 4.000000, 0.000000, 4.000000, 4.000000, 4.000000, 4.000000, 4.000000, 4.000000, 4.000000
85.000000, 0.000000, 4213.846191, 4287.179199, 4198.461426, 4202.051270, 4207.692383, 4188.717773, 4197.436035, 4186.666504, 4202.563965, 4212.307617, 4229.230469, 4215.384277, 4262.051270, 4223.076660, 3472.000000, 8144.000000, 8132.000000, 0.000000, 0.000000, 0.000000, -19797.000000, 685.640991, 4.000000, 4.000000, 4.000000, 4.000000, 4.000000, 4.000000, 4.000000, 4.000000, 0.000000, 4.000000, 4.000000, 4.000000, 4.000000, 4.000000, 4.000000, 4.000000
86.000000, 0.000000, 4217.436035, 4289.230469, 4198.974121, 4204.102539, 4202.563965, 4188.717773, 4198.974121, 4182.051270, 4202.563965, 4213.846191, 4242.051270, 4220.512695, 4277.436035, 4232.307617, 3583.000000, 8144.000000, 8132.000000, 0.000000, 0.000000, 0.000000, -19797.000000, 693.333313, 4.000000, 4.000000, 4.000000, 4.000000, 4.000000, 4.000000, 4.000000, 4.000000, 0.000000, 4.000000, 4.000000, 4.000000, 4.000000, 4.000000, 4.000000, 4.000000
87.000000, 0.000000, 4223.589844, 4282.563965, 4203.076660, 4204.615234, 4213.333008, 4191.794922, 4194.871582, 4186.153809, 4204.615234, 4222.563965, 4243.076660, 4219.487305, 4286.666504, 4232.820313, 3556.000000, 8154.000000, 8095.000000, 0.000000, 0.000000, 0.000000, -19797.000000, 701.538452, 4.000000, 4.000000, 4.000000, 4.000000, 4.000000, 4.000000, 4.000000, 4.000000, 0.000000, 4.000000, 4.000000, 4.000000, 4.000000, 4.000000, 4.000000, 4.000000
88.000000, 0.000000, 4216.410156, 4273.846191, 4201.538574, 4204.102539, 4218.974121, 4201.538574, 4197.948730, 4189.230469, 4204.615234, 4214.871582, 4225.641113, 4207.179199, 4274.358887, 4221.025391, 3521.000000, 8154.000000, 8095.000000, 0.000000, 0.000000, 0.000000, -19797.000000, 709.230774, 4.000000, 4.000000, 4.000000, 4.000000, 4.000000, 4.000000, 4.000000, 4.000000, 0.000000, 4.000000, 4.000000, 4.000000, 4.000000, 4.000000, 4.000000, 4.000000
89.000000, 0.000000, 4204.102539, 4266.666504, 4196.922852, 4205.127930, 4218.974121, 4217.948730, 4201.538574, 4185.641113, 4203.076660, 4199.487305, 4215.384277, 4197.948730, 4259.487305, 4208.717773, 3472.000000, 8170.000000, 8082.000000, 0.000000, 0.000000, 0.000000, -19797.000000, 716.923035, 4.000000, 4.000000, 4.000000, 4.000000, 4.000000, 4.000000, 4.000000, 4.000000, 0.000000, 4.000000, 4.000000, 4.000000, 4.000000, 4.000000, 4.000000, 4.000000
90.000000, 0.000000, 4207.179199, 4258.974121, 4198.974121, 4204.615234, 4213.846191, 4220.000000, 4209.743652, 4193.333008, 4202.563965, 4205.641113, 4215.384277, 4201.538574, 4256.922852, 4207.692383, 3583.000000, 8170.000000, 8082.000000, 0.000000, 0.000000, 0.000000, -19797.000000, 725.128174, 4.000000, 4.000000, 4.000000, 4.000000, 4.000000, 4.000000, 4.000000, 4.000000, 0.000000, 4.000000, 4.000000, 4.000000, 4.000000, 4.000000, 4.000000, 4.000000
91.000000, 0.000000, 4216.410156, 4257.436035, 4200.512695, 4200.000000, 4198.974121, 4207.692383, 4217.436035, 4206.153809, 4203.076660, 4220.000000, 4218.461426, 4210.256348, 4262.563965, 4214.871582, 3556.000000, 8191.000000, 8069.000000, 0.000000, 0.000000, 0.000000, -19797.000000, 732.820496, 4.000000, 4.000000, 4.000000, 4.000000, 4.000000, 4.000000, 4.000000, 4.000000, 0.000000, 4.000000, 4.000000, 4.000000, 4.000000, 4.000000, 4.000000, 4.000000
92.000000, 0.000000, 4219.487305, 4259.487305, 4200.000000, 4197.948730, 4198.461426, 4201.025391, 4207.692383, 4206.666504, 4203.076660, 4220.000000, 4224.102539, 4215.897461, 4273.333008, 4225.641113, 3521.000000, 8191.000000, 8069.000000, 0.000000, 0.000000, 0.000000, -19797.000000, 741.025635, 4.000000, 4.000000, 4.000000, 4.000000, 4.000000, 4.000000, 4.000000, 4.000000, 0.000000, 4.000000, 4.000000, 4.000000, 4.000000, 4.000000, 4.000000, 4.000000
93.000000, 0.000000, 4221.538574, 4261.538574, 4202.563965, 4202.563965, 4205.127930, 4201.538574, 4195.897461, 4197.436035, 4202.563965, 4220.000000, 4227.179199, 4219.487305, 4282.051270, 4231.794922, 3472.000000, 8238.000000, 8060.000000, 0.000000, 0.000000, 0.000000, -19797.000000, 748.717957, 4.000000, 4.000000, 4.000000, 4.000000, 4.000000, 4.000000, 4.000000, 4.000000, 0.000000, 4.000000, 4.000000, 4.000000, 4.000000, 4.000000, 4.000000, 4.000000
94.000000, 0.000000, 4224.102539, 4266.666504, 4201.538574, 4205.641113, 4193.846191, 4199.487305, 4197.948730, 4184.615234, 4203.076660, 4223.076660, 4222.563965, 4216.922852, 4278.974121, 4225.641113, 3583.000000, 8238.000000, 8060.000000, 0.000000, 0.000000, 0.000000, -19797.000000, 756.410217, 4.000000, 4.000000, 4.000000, 4.000000, 4.000000, 4.000000, 4.000000, 4.000000, 0.000000, 4.000000, 4.000000, 4.000000, 4.000000, 4.000000, 4.000000, 4.000000
95.000000, 0.000000, 4213.846191, 4266.666504, 4190.256348, 4197.948730, 4185.641113, 4196.922852, 4201.025391, 4173.846191, 4203.076660, 4214.358887, 4214.871582, 4205.127930, 4267.692383, 4210.769043, 3556.000000, 8256.000000, 8062.000000, 0.000000, 0.000000, 0.000000, -19797.000000, 764.615356, 4.000000, 4.000000, 4.000000, 4.000000, 4.000000, 4.000000, 4.000000, 4.000000, 0.000000, 4.000000, 4.000000, 4.000000, 4.000000, 4.000000, 4.000000, 4.000000
96.000000, 0.000000, 4201.538574, 4263.076660, 4181.538574, 4188.205078, 4197.948730, 4198.974121, 4197.948730, 4170.256348, 4203.076660, 4207.179199, 4213.333008, 4194.871582, 4260.512695, 4201.025391, 3521.000000, 8256.000000, 8062.000000, 0.000000, 0.000000, 0.000000, -19797.000000, 772.307678, 4.000000, 4.000000, 4.000000, 4.000000, 4.000000, 4.000000, 4.000000, 4.000000, 0.000000, 4.000000, 4.000000, 4.000000, 4.000000, 4.000000, 4.000000, 4.000000
97.000000, 0.000000, 4198.974121, 4265.127930, 4184.615234, 4186.153809, 4204.102539, 4201.025391, 4205.641113, 4173.333008, 4203.076660, 4210.769043, 4213.333008, 4195.897461, 4257.948730, 4199.487305, 3472.000000, 8292.000000, 8078.000000, 0.000000, 0.000000, 0.000000, -19797.000000, 780.000000, 4.000000, 4.000000, 4.000000, 4.000000, 4.000000, 4.000000, 4.000000, 4.000000, 0.000000, 4.000000, 4.000000, 4.000000, 4.000000, 4.000000, 4.000000, 4.000000
98.000000, 0.000000, 4203.076660, 4273.846191, 4189.743652, 4189.743652, 4196.410156, 4201.025391, 4202.051270, 4170.256348, 4203.589844, 4209.230469, 4210.769043, 4197.436035, 4257.436035, 4200.512695, 3583.000000, 8292.000000, 8078.000000, 0.000000, 0.000000, 0.000000, -19797.000000, 788.205139, 4.000000, 4.000000, 4.000000, 4.000000, 4.000000, 4.000000, 4.000000, 4.000000, 0.000000, 4.000000, 4.000000, 4.000000, 4.000000, 4.000000, 4.000000, 4.000000
99.000000, 0.000000, 4203.589844, 4277.436035, 4186.666504, 4188.205078, 4189.230469, 4198.461426, 4183.589844, 4170.769043, 4204.102539, 4202.051270, 4211.794922, 4193.846191, 4257.436035, 4205.641113, 3556.000000, 8313.000000, 8092.000000, 0.000000, 0.000000, 0.000000, -19797.000000, 795.897400, 4.000000, 4.000000, 4.000000, 4.000000, 4.000000, 4.000000, 4.000000, 4.000000, 0.000000, 4.000000, 4.000000, 4.000000, 4.000000, 4.000000, 4.000000, 4.000000
100.000000, 0.000000, 4199.487305, 4272.307617, 4186.666504, 4184.615234, 4188.717773, 4195.384277, 4189.743652, 4181.538574, 4203.076660, 4202.051270, 4215.384277, 4202.051270, 4258.461426, 4213.333008, 3521.000000, 8313.000000, 8092.000000, 0.000000, 0.000000, 0.000000, -19797.000000, 804.102539, 4.000000, 4.000000, 4.000000, 4.000000, 4.000000, 4.000000, 4.000000, 4.000000, 0.000000, 4.000000, 4.000000, 4.000000, 4.000000, 4.000000, 4.000000, 4.000000
101.000000, 0.000000, 4208.205078, 4272.820313, 4195.897461, 4191.281738, 4193.333008, 4196.410156, 4201.025391, 4187.692383, 4202.563965, 4210.769043, 4220.512695, 4216.922852, 4260.512695, 4220.000000, 3472.000000, 8328.000000, 8103.000000, 0.000000, 0.000000, 0.000000, -19797.000000, 811.794861, 4.000000, 4.000000, 4.000000, 4.000000, 4.000000, 4.000000, 4.000000, 4.000000, 0.000000, 4.000000, 4.000000, 4.000000, 4.000000, 4.000000, 4.000000, 4.000000
102.000000, 0.000000, 4216.410156, 4278.461426, 4204.615234, 4195.384277, 4200.512695, 4198.974121, 4189.230469, 4190.769043, 4202.051270, 4216.410156, 4225.641113, 4219.487305, 4262.563965, 4220.512695, 3583.000000, 8328.000000, 8103.000000, 0.000000, 0.000000, 0.000000, -19797.000000, 819.487183, 4.000000, 4.000000, 4.000000, 4.000000, 4.000000, 4.000000, 4.000000, 4.000000, 0.000000, 4.000000, 4.000000, 4.000000, 4.000000, 4.000000, 4.000000, 4.000000
103.000000, 0.000000, 4207.692383, 4277.436035, 4198.974121, 4189.743652, 4200.512695, 4194.871582, 4186.153809, 4193.333008, 4202.051270, 4217.436035, 4229.743652, 4215.384277, 4263.589844, 4218.461426, 3556.000000, 8344.000000, 8129.000000, 0.000000, 0.000000, 0.000000, -19797.000000, 827.692261, 4.000000, 4.000000, 4.000000, 4.000000, 4.000000, 4.000000, 4.000000, 4.000000, 0.000000, 4.000000, 4.000000, 4.000000, 4.000000, 4.000000, 4.000000, 4.000000
104.000000, 0.000000, 4202.051270, 4280.512695, 4193.333008, 4190.769043, 4200.000000, 4193.846191, 4203.076660, 4191.281738, 4202.563965, 4218.974121, 4229.230469, 4212.307617, 4263.076660, 4213.846191, 3521.000000, 8344.000000, 8129.000000, 0.000000, 0.000000, 0.000000, -19797.000000, 835.384583, 4.000000, 4.000000, 4.000000, 4.000000, 4.000000, 4.000000, 4.000000, 4.000000, 0.000000, 4.000000, 4.000000, 4.000000, 4.000000, 4.000000, 4.000000, 4.000000
105.000000, 0.000000, 4207.692383, 4284.615234, 4193.333008, 4192.820313, 4200.000000, 4195.384277, 4204.615234, 4186.666504, 4201.538574, 4216.410156, 4222.051270, 4207.179199, 4254.871582, 4207.179199, 3472.000000, 8347.000000, 8147.000000, 0.000000, 0.000000, 0.000000, -19797.000000, 843.076904, 4.000000, 4.000000, 4.000000, 4.000000, 4.000000, 4.000000, 4.000000, 4.000000, 0.000000, 4.000000, 4.000000, 4.000000, 4.000000, 4.000000, 4.000000, 4.000000
106.000000, 0.000000, 4200.512695, 4265.127930, 4189.230469, 4182.563965, 4192.307617, 4190.256348, 4197.948730, 4190.256348, 4201.025391, 4204.615234, 4217.436035, 4204.102539, 4232.820313, 4202.051270, 3583.000000, 8347.000000, 8147.000000, 0.000000, 0.000000, 0.000000, -19797.000000, 850.769226, 4.000000, 4.000000, 4.000000, 4.000000, 4.000000, 4.000000, 4.000000, 4.000000, 0.000000, 4.000000, 4.000000, 4.000000, 4.000000, 4.000000, 4.000000, 4.000000
107.000000, 0.000000, 4190.769043, 4251.794922, 4186.666504, 4176.922852, 4190.256348, 4186.153809, 4201.538574, 4192.820313, 4201.025391, 4198.461426, 4214.871582, 4205.641113, 4213.846191, 4200.000000, 3556.000000, 8361.000000, 8172.000000, 0.000000, 0.000000, 0.000000, -19797.000000, 858.974365, 4.000000, 4.000000, 4.000000, 4.000000, 4.000000, 4.000000, 4.000000, 4.000000, 0.000000, 4.000000, 4.000000, 4.000000, 4.000000, 4.000000, 4.000000, 4.000000
108.000000, 0.000000, 4197.436035, 4272.820313, 4186.666504, 4186.666504, 4199.487305, 4192.307617, 4195.384277, 4184.102539, 4202.563965, 4202.563965, 4207.692383, 4202.563965, 4204.615234, 4200.512695, 3521.000000, 8361.000000, 8172.000000, 0.000000, 0.000000, 0.000000, -19797.000000, 866.666626, 4.000000, 4.000000, 4.000000, 4.000000, 4.000000, 4.000000, 4.000000, 4.000000, 0.000000, 4.000000, 4.000000, 4.000000, 4.000000, 4.000000, 4.000000, 4.000000
109.000000, 0.000000, 4202.563965, 4286.153809, 4187.692383, 4188.717773, 4203.589844, 4193.333008, 4183.589844, 4182.563965, 4204.102539, 4197.948730, 4200.512695, 4196.410156, 4192.820313, 4200.512695, 3472.000000, 8364.000000, 8181.000000, 0.000000, 0.000000, 0.000000, -19797.000000, 874.871765, 4.000000, 4.000000, 4.000000, 4.000000, 4.000000, 4.000000, 4.000000, 4.000000, 0.000000, 4.000000, 4.000000, 4.000000, 4.000000, 4.000000, 4.000000, 4.000000
110.000000, 0.000000, 4199.487305, 4273.333008, 4188.205078, 4185.641113, 4197.436035, 4188.205078, 4188.205078, 4187.179199, 4204.102539, 4188.717773, 4195.384277, 4192.820313, 4177.436035, 4198.974121, 3583.000000, 8364.000000, 8181.000000, 0.000000, 0.000000, 0.000000, -19797.000000, 882.564087, 4.000000, 4.000000, 4.000000, 4.000000, 4.000000, 4.000000, 4.000000, 4.000000, 0.000000, 4.000000, 4.000000, 4.000000, 4.000000, 4.000000, 4.000000, 4.000000
111.000000, 0.000000, 4198.974121, 4271.794922, 4184.102539, 4191.794922, 4196.922852, 4188.717773, 4197.948730, 4185.641113, 4201.538574, 4191.794922, 4191.281738, 4187.179199, 4168.717773, 4194.358887, 3556.000000, 8365.000000, 8193.000000, 0.000000, 0.000000, 0.000000, -19797.000000, 890.256409, 4.000000, 4.000000, 4.000000, 4.000000, 4.000000, 4.000000, 4.000000, 4.000000, 0.000000, 4.000000, 4.000000, 4.000000, 4.000000, 4.000000, 4.000000, 4.000000
112.000000, 0.000000, 4207.179199, 4291.281738, 4185.127930, 4200.000000, 4204.102539, 4188.717773, 4190.256348, 4179.487305, 4201.025391, 4200.000000, 4194.358887, 4184.102539, 4171.281738, 4195.384277, 3521.000000, 8365.000000, 8193.000000, 0.000000, 0.000000, 0.000000, -19797.000000, 897.948669, 4.000000, 4.000000, 4.000000, 4.000000, 4.000000, 4.000000, 4.000000, 4.000000, 0.000000, 4.000000, 4.000000, 4.000000, 4.000000, 4.000000, 4.000000, 4.000000
113.000000, 0.000000, 4217.948730, 4297.436035, 4193.333008, 4210.256348, 4213.846191, 4192.820313, 4186.153809, 4183.076660, 4203.076660, 4205.127930, 4203.589844, 4192.307617, 4176.410156, 4201.025391, 3472.000000, 8365.000000, 8194.000000, 0.000000, 0.000000, 0.000000, -19797.000000, 906.153809, 4.000000, 4.000000, 4.000000, 4.000000, 4.000000, 4.000000, 4.000000, 4.000000, 0.000000, 4.000000, 4.000000, 4.000000, 4.000000, 4.000000, 4.000000, 4.000000
114.000000, 0.000000, 4218.461426, 4287.692383, 4194.871582, 4218.974121, 4218.974121, 4203.589844, 4197.948730, 4199.487305, 4202.563965, 4200.512695, 4200.000000, 4200.000000, 4172.820313, 4196.410156, 3583.000000, 8365.000000, 8194.000000, 0.000000, 0.000000, 0.000000, -19797.000000, 913.846130, 4.000000, 4.000000, 4.000000, 4.000000, 4.000000, 4.000000, 4.000000, 4.000000, 0.000000, 4.000000, 4.000000, 4.000000, 4.000000, 4.000000, 4.000000, 4.000000
115.000000, 0.000000, 4207.179199, 4278.461426, 4185.641113, 4213.333008, 4207.692383, 4199.487305, 4197.948730, 4197.436035, 4202.051270, 4190.256348, 4184.615234, 4192.307617, 4156.922852, 4186.153809, 3556.000000, 8364.000000, 8192.000000, 0.000000, 0.000000, 0.000000, -19797.000000, 921.538452, 4.000000, 4.000000, 4.000000, 4.000000, 4.000000, 4.000000, 4.000000, 4.000000, 0.000000, 4.000000, 4.000000, 4.000000, 4.000000, 4.000000, 4.000000, 4.000000
116.000000, 0.000000, 4199.487305, 4272.307617, 4178.461426, 4203.076660, 4197.948730, 4188.205078, 4183.076660, 4173.333008, 4203.076660, 4181.025391, 4172.307617, 4176.410156, 4144.102539, 4180.512695, 3521.000000, 8364.000000, 8192.000000, 0.000000, 0.000000, 0.000000, -19797.000000, 929.743591, 4.000000, 4.000000, 4.000000, 4.000000, 4.000000, 4.000000, 4.000000, 4.000000, 0.000000, 4.000000, 4.000000, 4.000000, 4.000000, 4.000000, 4.000000, 4.000000
117.000000, 0.000000, 4195.897461, 4264.615234, 4181.538574, 4202.563965, 4205.127930, 4191.281738, 4185.127930, 4166.153809, 4203.589844, 4173.846191, 4165.127930, 4171.794922, 4137.948730, 4172.820313, 3472.000000, 8360.000000, 8188.000000, 0.000000, 0.000000, 0.000000, -19797.000000, 937.435852, 4.000000, 4.000000, 4.000000, 4.000000, 4.000000, 4.000000, 4.000000, 4.000000, 0.000000, 4.000000, 4.000000, 4.000000, 4.000000, 4.000000, 4.000000, 4.000000
118.000000, 0.000000, 4193.333008, 4253.846191, 4185.127930, 4203.076660, 4210.256348, 4193.846191, 4194.358887, 4176.410156, 4203.076660, 4173.846191, 4162.563965, 4174.871582, 4134.358887, 4167.692383, 3583.000000, 8360.000000, 8188.000000, 0.000000, 0.000000, 0.000000, -19797.000000, 945.640991, 4.000000, 4.000000, 4.000000, 4.000000, 4.000000, 4.000000, 4.000000, 4.000000, 0.000000, 4.000000, 4.000000, 4.000000, 4.000000, 4.000000, 4.000000, 4.000000
119.000000, 0.000000, 4196.922852, 4245.641113, 4180.512695, 4195.897461, 4202.563965, 4186.153809, 4187.692383, 4174.871582, 4202.563965, 4181.025391, 4166.666504, 4174.358887, 4145.641113, 4177.948730, 3556.000000, 8357.000000, 8181.000000, 0.000000, 0.000000, 0.000000, -19797.000000, 953.333313, 4.000000, 4.000000, 4.000000, 4.000000, 4.000000, 4.000000, 4.000000, 4.000000, 0.000000, 4.000000, 4.000000, 4.000000, 4.000000, 4.000000, 4.000000, 4.000000
120.000000, 0.000000, 4196.922852, 4240.000000, 4177.436035, 4191.281738, 4198.461426, 4185.127930, 4183.589844, 4167.692383, 4202.563965, 4186.666504, 4171.281738, 4173.333008, 4155.384277, 4183.589844, 3521.000000, 8357.000000, 8181.000000, 0.000000, 0.000000, 0.000000, -19797.000000, 961.538452, 4.000000, 4.000000, 4.000000, 4.000000, 4.000000, 4.000000, 4.000000, 4.000000, 0.000000, 4.000000, 4.000000, 4.000000, 4.000000, 4.000000, 4.000000, 4.000000
121.000000, 0.000000, 4189.743652, 4232.820313, 4178.461426, 4190.769043, 4204.615234, 4190.256348, 4186.153809, 4168.205078, 4202.563965, 4180.512695, 4167.179199, 4172.820313, 4145.641113, 4174.871582, 3472.000000, 8355.000000, 8178.000000, 0.000000, 0.000000, 0.000000, -19797.000000, 969.230774, 4.000000, 4.000000, 4.000000, 4.000000, 4.000000, 4.000000, 4.000000, 4.000000, 0.000000, 4.000000, 4.000000, 4.000000, 4.000000, 4.000000, 4.000000, 4.000000
122.000000, 0.000000, 4184.615234, 4225.127930, 4176.410156, 4188.717773, 4202.563965, 4184.615234, 4185.641113, 4169.743652, 4202.563965, 4173.846191, 4160.000000, 4172.307617, 4139.487305, 4169.230469, 3583.000000, 8355.000000, 8178.000000, 0.000000, 0.000000, 0.000000, -19797.000000, 977.435852, 4.000000, 4.000000, 4.000000, 4.000000, 4.000000, 4.000000, 4.000000, 4.000000, 0.000000, 4.000000, 4.000000, 4.000000, 4.000000, 4.000000, 4.000000, 4.000000
123.000000, 0.000000, 4183.076660, 4214.358887, 4168.717773, 4185.641113, 4190.769043, 4171.794922, 4184.102539, 4167.692383, 4203.589844, 4171.281738, 4157.436035, 4170.256348, 4143.589844, 4167.692383, 3556.000000, 8347.000000, 8176.000000, 0.000000, 0.000000, 0.000000, -19797.000000, 985.128174, 4.000000, 4.000000, 4.000000, 4.000000, 4.000000, 4.000000, 4.000000, 4.000000, 0.000000, 4.000000, 4.000000, 4.000000, 4.000000, 4.000000, 4.000000, 4.000000
124.000000, 0.000000, 4181.538574, 4207.692383, 4167.692383, 4184.615234, 4185.641113, 4170.256348, 4181.538574, 4164.615234, 4204.102539, 4171.281738, 4156.922852, 4168.205078, 4138.461426, 4165.127930, 3521.000000, 8347.000000, 8176.000000, 0.000000, 0.000000, 0.000000, -19797.000000, 992.820496, 4.000000, 4.000000, 4.000000, 4.000000, 4.000000, 4.000000, 4.000000, 4.000000, 0.000000, 4.000000, 4.000000, 4.000000, 4.000000, 4.000000, 4.000000, 4.000000
125.000000, 0.000000, 4184.615234, 4209.230469, 4174.871582, 4189.743652, 4184.615234, 4178.974121, 4177.436035, 4168.205078, 4202.563965, 4178.974121, 4162.563965, 4170.256348, 4141.025391, 4167.692383, 3472.000000, 8343.000000, 8176.000000, 0.000000, 0.000000, 0.000000, -19796.000000, 0.512820, 4.000000, 4.000000, 4.000000, 4.000000, 4.000000, 4.000000, 4.000000, 4.000000, 0.000000, 4.000000, 4.000000, 4.000000, 4.000000, 4.000000, 4.000000, 4.000000
126.000000, 0.000000, 4186.666504, 4207.179199, 4174.871582, 4192.307617, 4187.179199, 4185.127930, 4184.615234, 4168.205078, 4202.051270, 4181.538574, 4169.230469, 4171.281738, 4154.358887, 4171.794922, 3583.000000, 8343.000000, 8176.000000, 0.000000, 0.000000, 0.000000, -19796.000000, 8.717949, 4.000000, 4.000000, 4.000000, 4.000000, 4.000000, 4.000000, 4.000000, 4.000000, 0.000000, 4.000000, 4.000000, 4.000000, 4.000000, 4.000000, 4.000000, 4.000000
127.000000, 0.000000, 4185.127930, 4201.025391, 4173.333008, 4189.230469, 4195.897461, 4184.615234, 4200.000000, 4165.127930, 4203.076660, 4176.410156, 4170.256348, 4168.205078, 4153.846191, 4169.743652, 56.000000, 8320.000000, 8180.000000, 0.000000, 0.000000, 0.000000, -19796.000000, 16.410255, 4.000000, 4.000000, 4.000000, 4.000000, 4.000000, 4.000000, 4.000000, 4.000000, 0.000000, 4.000000, 4.000000, 4.000000, 4.000000, 4.000000, 4.000000, 4.000000
0.000000, 0.000000, 4188.205078, 4200.000000, 4179.487305, 4193.333008, 4204.102539, 4185.641113, 4202.563965, 4178.461426, 4202.563965, 4180.000000, 4169.743652, 4173.846191, 4150.769043, 4169.230469, 3190.000000, 8320.000000, 8180.000000, 0.000000, 0.000000, 0.000000, -19796.000000, 24.102564, 4.000000, 4.000000, 4.000000, 4.000000, 4.000000, 4.000000, 4.000000, 4.000000, 0.000000, 4.000000, 4.000000, 4.000000, 4.000000, 4.000000, 4.000000, 4.000000
1.000000, 0.000000, 4190.769043, 4196.410156, 4180.512695, 4196.922852, 4202.051270, 4188.205078, 4197.948730, 4183.589844, 4203.076660, 4186.153809, 4171.794922, 4180.512695, 4155.384277, 4173.333008, 3546.000000, 8314.000000, 8184.000000, 0.000000, 0.000000, 0.000000, -19796.000000, 32.307690, 4.000000, 4.000000, 4.000000, 4.000000, 4.000000, 4.000000, 4.000000, 4.000000, 0.000000, 4.000000, 4.000000, 4.000000, 4.000000, 4.000000, 4.000000, 4.000000
2.000000, 0.000000, 4186.666504, 4189.230469, 4172.820313, 4192.820313, 4201.025391, 4188.205078, 4203.076660, 4169.743652, 4203.589844, 4184.615234, 4171.281738, 4175.384277, 4157.436035, 4175.384277, 3577.000000, 8314.000000, 8184.000000, 0.000000, 0.000000, 0.000000, -19796.000000, 40.000000, 4.000000, 4.000000, 4.000000, 4.000000, 4.000000, 4.000000, 4.000000, 4.000000, 0.000000, 4.000000, 4.000000, 4.000000, 4.000000, 4.000000, 4.000000, 4.000000
3.000000, 0.000000, 4183.076660, 4187.179199, 4168.717773, 4187.179199, 4203.076660, 4189.230469, 4211.281738, 4177.948730, 4203.076660, 4188.717773, 4171.281738, 4170.769043, 4159.487305, 4171.794922, 2680.000000, 8298.000000, 8189.000000, 0.000000, 0.000000, 0.000000, -19796.000000, 47.692307, 4.000000, 4.000000, 4.000000, 4.000000, 4.000000, 4.000000, 4.000000, 4.000000, 0.000000, 4.000000, 4.000000, 4.000000, 4.000000, 4.000000, 4.000000, 4.000000
4.000000, 0.000000, 4182.563965, 4184.615234, 4170.769043, 4185.641113, 4197.948730, 4193.846191, 4214.871582, 4199.487305, 4202.563965, 4200.000000, 4176.410156, 4175.384277, 4166.153809, 4168.205078, 3552.000000, 8298.000000, 8189.000000, 0.000000, 0.000000, 0.000000, -19796.000000, 55.384613, 4.000000, 4.000000, 4.000000, 4.000000, 4.000000, 4.000000, 4.000000, 4.000000, 0.000000, 4.000000, 4.000000, 4.000000, 4.000000, 4.000000, 4.000000, 4.000000
5.000000, 0.000000, 4184.102539, 4180.512695, 4173.846191, 4190.256348, 4198.974121, 4199.487305, 4213.846191, 4206.153809, 4203.076660, 4207.179199, 4184.102539, 4183.076660, 4173.846191, 4175.897461, 3581.000000, 8292.000000, 8190.000000, 0.000000, 0.000000, 0.000000, -19796.000000, 63.589741, 4.000000, 4.000000, 4.000000, 4.000000, 4.000000, 4.000000, 4.000000, 4.000000, 0.000000, 4.000000, 4.000000, 4.000000, 4.000000, 4.000000, 4.000000, 4.000000
6.000000, 0.000000, 4193.846191, 4186.666504, 4179.487305, 4201.538574, 4205.641113, 4201.538574, 4208.717773, 4213.333008, 4203.076660, 4216.922852, 4194.871582, 4188.717773, 4188.205078, 4187.692383, 3437.000000, 8292.000000, 8190.000000, 0.000000, 0.000000, 0.000000, -19796.000000, 71.282051, 4.000000, 4.000000, 4.000000, 4.000000, 4.000000, 4.000000, 4.000000, 4.000000, 0.000000, 4.000000, 4.000000, 4.000000, 4.000000, 4.000000, 4.000000, 4.000000
7.000000, 0.000000, 4196.410156, 4187.692383, 4182.051270, 4203.076660, 4200.512695, 4200.512695, 4204.102539, 4212.307617, 4203.076660, 4217.436035, 4201.025391, 4187.692383, 4197.436035, 4187.692383, 3515.000000, 8287.000000, 8198.000000, 0.000000, 0.000000, 0.000000, -19796.000000, 78.974358, 4.000000, 4.000000, 4.000000, 4.000000, 4.000000, 4.000000, 4.000000, 4.000000, 0.000000, 4.000000, 4.000000, 4.000000, 4.000000, 4.000000, 4.000000, 4.000000
8.000000, 0.000000, 4185.641113, 4181.538574, 4180.512695, 4197.948730, 4195.897461, 4198.974121, 4202.051270, 4194.358887, 4203.076660, 4205.641113, 4194.871582, 4182.563965, 4191.281738, 4181.538574, 0.000000, 8287.000000, 8198.000000, 0.000000, 0.000000, 0.000000, -19796.000000, 87.179482, 4.000000, 4.000000, 4.000000, 4.000000, 4.000000, 4.000000, 4.000000, 4.000000, 0.000000, 4.000000, 4.000000, 4.000000, 4.000000, 4.000000, 4.000000, 4.000000
9.000000, 0.000000, 4188.205078, 4183.076660, 4186.666504, 4207.179199, 4210.769043, 4199.487305, 4197.436035, 4188.205078, 4202.563965, 4204.102539, 4184.615234, 4182.563965, 4186.666504, 4183.589844, 2921.000000, 8278.000000, 8201.000000, 0.000000, 0.000000, 0.000000, -19796.000000, 94.871796, 4.000000, 4.000000, 4.000000, 4.000000, 4.000000, 4.000000, 4.000000, 4.000000, 0.000000, 4.000000, 4.000000, 4.000000, 4.000000, 4.000000, 4.000000, 4.000000
10.000000, 0.000000, 4201.538574, 4187.179199, 4189.743652, 4213.333008, 4223.076660, 4201.538574, 4193.846191, 4184.102539, 4201.538574, 4207.692383, 4187.692383, 4184.615234, 4188.205078, 4186.666504, 3585.000000, 8278.000000, 8201.000000, 0.000000, 0.000000, 0.000000, -19796.000000, 102.564102, 4.000000, 4.000000, 4.000000, 4.000000, 4.000000, 4.000000, 4.000000, 4.000000, 0.000000, 4.000000, 4.000000, 4.000000, 4.000000, 4.000000, 4.000000, 4.000000
11.000000, 0.000000, 4200.512695, 4185.127930, 4185.127930, 4205.641113, 4216.410156, 4203.589844, 4192.307617, 4175.384277, 4200.512695, 4202.563965, 4193.846191, 4184.615234, 4184.615234, 4186.153809, 3556.000000, 8279.000000, 8198.000000, 0.000000, 0.000000, 0.000000, -19796.000000, 110.769226, 4.000000, 4.000000, 4.000000, 4.000000, 4.000000, 4.000000, 4.000000, 4.000000, 0.000000, 4.000000, 4.000000, 4.000000, 4.000000, 4.000000, 4.000000, 4.000000
12.000000, 0.000000, 4195.384277, 4184.615234, 4186.153809, 4202.051270, 4211.281738, 4200.000000, 4192.307617, 4180.000000, 4201.025391, 4199.487305, 4192.307617, 4185.641113, 4185.127930, 4189.743652, 3521.000000, 8279.000000, 8198.000000, 0.000000, 0.000000, 0.000000, -19796.000000, 118.461533, 4.000000, 4.000000, 4.000000, 4.000000, 4.000000, 4.000000, 4.000000, 4.000000, 0.000000, 4.000000, 4.000000, 4.000000, 4.000000, 4.000000, 4.000000, 4.000000
13.000000, 0.000000, 4199.487305, 4185.641113, 4191.794922, 4207.179199, 4214.871582, 4199.487305, 4196.410156, 4185.127930, 4202.051270, 4202.051270, 4189.743652, 4186.666504, 4186.666504, 4191.281738, 3472.000000, 8291.000000, 8199.000000, 0.000000, 0.000000, 0.000000, -19796.000000, 126.153847, 4.000000, 4.000000, 4.000000, 4.000000, 4.000000, 4.000000, 4.000000, 4.000000, 0.000000, 4.000000, 4.000000, 4.000000, 4.000000, 4.000000, 4.000000, 4.000000
14.000000, 0.000000, 4196.922852, 4182.563965, 4196.410156, 4208.717773, 4217.948730, 4205.127930, 4204.615234, 4182.051270, 4201.538574, 4198.974121, 4184.102539, 4187.692383, 4172.820313, 4182.563965, 3585.000000, 8291.000000, 8199.000000, 0.000000, 0.000000, 0.000000, -19796.000000, 134.358978, 4.000000, 4.000000, 4.000000, 4.000000, 4.000000, 4.000000, 4.000000, 4.000000, 0.000000, 4.000000, 4.000000, 4.000000, 4.000000, 4.000000, 4.000000, 4.000000
15.000000, 0.000000, 4196.922852, 4186.153809, 4199.487305, 4210.256348, 4218.974121, 4206.666504, 4205.127930, 4183.076660, 4202.051270, 4195.897461, 4186.666504, 4192.307617, 4171.281738, 4184.615234, 3556.000000, 8292.000000, 8204.000000, 0.000000, 0.000000, 0.000000, -19796.000000, 142.051285, 4.000000, 4.000000, 4.000000, 4.000000, 4.000000, 4.000000, 4.000000, 4.000000, 0.000000, 4.000000, 4.000000, 4.000000, 4.000000, 4.000000, 4.000000, 4.000000
16.000000, 0.000000, 4210.769043, 4194.358887, 4203.589844, 4216.922852, 4216.922852, 4206.666504, 4204.102539, 4187.179199, 4203.076660, 4198.974121, 4198.974121, 4201.025391, 4196.922852, 4201.025391, 0.000000, 8292.000000, 8204.000000, 0.000000, 0.000000, 0.000000, -19796.000000, 149.743591, 4.000000, 4.000000, 4.000000, 4.000000, 4.000000, 4.000000, 4.000000, 4.000000, 0.000000, 4.000000, 4.000000, 4.000000, 4.000000, 4.000000, 4.000000, 4.000000
17.000000, 0.000000, 4213.846191, 4192.820313, 4207.179199, 4216.410156, 4217.948730, 4209.230469, 4209.743652, 4186.153809, 4203.076660, 4201.025391, 4202.563965, 4204.102539, 4208.205078, 4206.153809, 0.000000, 8295.000000, 8209.000000, 0.000000, 0.000000, 0.000000, -19796.000000, 157.948715, 4.000000, 4.000000, 4.000000, 4.000000, 4.000000, 4.000000, 4.000000, 4.000000, 0.000000, 4.000000, 4.000000, 4.000000, 4.000000, 4.000000, 4.000000, 4.000000
18.000000, 0.000000, 4201.538574, 4183.589844, 4201.025391, 4206.666504, 4214.871582, 4206.153809, 4206.153809, 4183.076660, 4203.589844, 4200.000000, 4196.922852, 4200.000000, 4202.051270, 4199.487305, 0.000000, 8295.000000, 8209.000000, 0.000000, 0.000000, 0.000000, -19796.000000, 166.153839, 4.000000, 4.000000, 4.000000, 4.000000, 4.000000, 4.000000, 4.000000, 4.000000, 0.000000, 4.000000, 4.000000, 4.000000, 4.000000, 4.000000, 4.000000, 4.000000
19.000000, 0.000000, 4193.846191, 4178.974121, 4189.743652, 4198.461426, 4200.512695, 4198.974121, 4198.974121, 4189.230469, 4204.102539, 4203.589844, 4200.000000, 4194.871582, 4204.615234, 4196.922852, 0.000000, 8300.000000, 8210.000000, 0.000000, 0.000000, 0.000000, -19796.000000, 173.846146, 4.000000, 4.000000, 4.000000, 4.000000, 4.000000, 4.000000, 4.000000, 4.000000, 0.000000, 4.000000, 4.000000, 4.000000, 4.000000, 4.000000, 4.000000, 4.000000
20.000000, 0.000000, 4190.256348, 4180.000000, 4184.615234, 4196.922852, 4199.487305, 4197.948730, 4203.076660, 4198.461426, 4203.076660, 4206.666504, 4204.615234, 4191.794922, 4207.179199, 4193.846191, 0.000000, 8300.000000, 8210.000000, 0.000000, 0.000000, 0.000000, -19796.000000, 182.051285, 4.000000, 4.000000, 4.000000, 4.000000, 4.000000, 4.000000, 4.000000, 4.000000, 0.000000, 4.000000, 4.000000, 4.000000, 4.000000, 4.000000, 4.000000, 4.000000
21.000000, 0.000000, 4190.256348, 4178.974121, 4186.666504, 4200.000000, 4214.871582, 4203.076660, 4216.410156, 4205.127930, 4201.025391, 4205.641113, 4197.948730, 4187.179199, 4202.563965, 4186.153809, 0.000000, 8305.000000, 8212.000000, 0.000000, 0.000000, 0.000000, -19796.000000, 189.743591, 4.000000, 4.000000, 4.000000, 4.000000, 4.000000, 4.000000, 4.000000, 4.000000, 0.000000, 4.000000, 4.000000, 4.000000, 4.000000, 4.000000, 4.000000, 4.000000
22.000000, 0.000000, 4197.948730, 4181.025391, 4187.692383, 4203.076660, 4217.948730, 4202.563965, 4215.384277, 4210.769043, 4200.512695, 4207.179199, 4193.846191, 4184.102539, 4198.974121, 4183.076660, 0.000000, 8305.000000, 8212.000000, 0.000000, 0.000000, 0.000000, -19796.000000, 197.435898, 4.000000, 4.000000, 4.000000, 4.000000, 4.000000, 4.000000, 4.000000, 4.000000, 0.000000, 4.000000, 4.000000, 4.000000, 4.000000, 4.000000, 4.000000, 4.000000
23.000000, 0.000000, 4200.000000, 4183.589844, 4186.153809, 4204.102539, 4211.794922, 4199.487305, 4201.538574, 4207.692383, 4202.563965, 4208.205078, 4196.922852, 4184.102539, 4200.512695, 4184.102539, 0.000000, 8301.000000, 8215.000000, 0.000000, 0.000000, 0.000000, -19796.000000, 205.641022, 4.000000, 4.000000, 4.000000, 4.000000, 4.000000, 4.000000, 4.000000, 4.000000, 0.000000, 4.000000, 4.000000, 4.000000, 4.000000, 4.000000, 4.000000, 4.000000
24.000000, 0.000000, 4198.974121, 4186.666504, 4187.692383, 4204.102539, 4215.897461, 4205.127930, 4207.692383, 4200.000000, 4203.589844, 4204.615234, 4201.025391, 4189.230469, 4210.256348, 4190.769043, 0.000000, 8301.000000, 8215.000000, 0.000000, 0.000000, 0.000000, -19796.000000, 213.333328, 4.000000, 4.000000, 4.000000, 4.000000, 4.000000, 4.000000, 4.000000, 4.000000, 0.000000, 4.000000, 4.000000, 4.000000, 4.000000, 4.000000, 4.000000, 4.000000
25.000000, 0.000000, 4201.538574, 4187.692383, 4193.846191, 4204.615234, 4219.487305, 4212.307617, 4222.051270, 4201.025391, 4203.589844, 4202.563965, 4201.025391, 4195.384277, 4212.820313, 4194.358887, 0.000000, 8301.000000, 8212.000000, 0.000000, 0.000000, 0.000000, -19796.000000, 221.025635, 4.000000, 4.000000, 4.000000, 4.000000, 4.000000, 4.000000, 4.000000, 4.000000, 0.000000, 4.000000, 4.000000, 4.000000, 4.000000, 4.000000, 4.000000, 4.000000
26.000000, 0.000000, 4200.000000, 4186.666504, 4195.384277, 4201.025391, 4215.384277, 4206.153809, 4216.410156, 4202.563965, 4203.076660, 4202.563965, 4196.410156, 4193.846191, 4199.487305, 4192.307617, 0.000000, 8301.000000, 8212.000000, 0.000000, 0.000000, 0.000000, -19796.000000, 228.717941, 4.000000, 4.000000, 4.000000, 4.000000, 4.000000, 4.000000, 4.000000, 4.000000, 0.000000, 4.000000, 4.000000, 4.000000, 4.000000, 4.000000, 4.000000, 4.000000
27.000000, 0.000000, 4197.436035, 4193.846191, 4195.897461, 4198.461426, 4212.820313, 4198.461426, 4209.230469, 4200.512695, 4202.563965, 4202.563965, 4196.922852, 4193.846191, 4202.563965, 4196.922852, 0.000000, 8291.000000, 8209.000000, 0.000000, 0.000000, 0.000000, -19796.000000, 236.923065, 4.000000, 4.000000, 4.000000, 4.000000, 4.000000, 4.000000, 4.000000, 4.000000, 0.000000, 4.000000, 4.000000, 4.000000, 4.000000, 4.000000, 4.000000, 4.000000
28.000000, 0.000000, 4202.563965, 4198.974121, 4200.000000, 4202.051270, 4210.769043, 4200.512695, 4212.307617, 4197.948730, 4201.538574, 4203.589844, 4202.051270, 4201.538574, 4219.487305, 4204.615234, 0.000000, 8291.000000, 8209.000000, 0.000000, 0.000000, 0.000000, -19796.000000, 245.128204, 4.000000, 4.000000, 4.000000, 4.000000, 4.000000, 4.000000, 4.000000, 4.000000, 0.000000, 4.000000, 4.000000, 4.000000, 4.000000, 4.000000, 4.000000, 4.000000
29.000000, 0.000000, 4200.512695, 4197.436035, 4195.897461, 4202.563965, 4201.538574, 4201.538574, 4207.179199, 4191.794922, 4201.025391, 4203.076660, 4202.051270, 4200.000000, 4214.871582, 4198.974121, 0.000000, 8294.000000, 8205.000000, 0.000000, 0.000000, 0.000000, -19796.000000, 252.820511, 4.000000, 4.000000, 4.000000, 4.000000, 4.000000, 4.000000, 4.000000, 4.000000, 0.000000, 4.000000, 4.000000, 4.000000, 4.000000, 4.000000, 4.000000, 4.000000
30.000000, 0.000000, 4191.281738, 4193.846191, 4186.153809, 4196.922852, 4192.820313, 4198.974121, 4205.641113, 4204.102539, 4201.538574, 4206.153809, 4195.897461, 4188.205078, 4204.102539, 4187.692383, 0.000000, 8294.000000, 8205.000000, 0.000000, 0.000000, 0.000000, -19796.000000, 261.025635, 4.000000, 4.000000, 4.000000, 4.000000, 4.000000, 4.000000, 4.000000, 4.000000, 0.000000, 4.000000, 4.000000, 4.000000, 4.000000, 4.000000, 4.000000, 4.000000
31.000000, 0.000000, 4188.717773, 4195.384277, 4185.641113, 4194.871582, 4198.974121, 4203.589844, 4217.436035, 4226.153809, 4201.025391, 4213.846191, 4199.487305, 4187.179199, 4211.794922, 4187.692383, 0.000000, 8291.000000, 8203.000000, 0.000000, 0.000000, 0.000000, -19796.000000, 268.717957, 4.000000, 4.000000, 4.000000, 4.000000, 4.000000, 4.000000, 4.000000, 4.000000, 0.000000, 4.000000, 4.000000, 4.000000, 4.000000, 4.000000, 4.000000, 4.000000
32.000000, 0.000000, 4189.230469, 4202.051270, 4189.230469, 4198.461426, 4207.179199, 4206.153809, 4218.461426, 4213.846191, 4201.025391, 4217.436035, 4203.589844, 4189.230469, 4214.358887, 4189.230469, 0.000000, 8291.000000, 8203.000000, 0.000000, 0.000000, 0.000000, -19796.000000, 276.923065, 4.000000, 4.000000, 4.000000, 4.000000, 4.000000, 4.000000, 4.000000, 4.000000, 0.000000, 4.000000, 4.000000, 4.000000, 4.000000, 4.000000, 4.000000, 4.000000
33.000000, 0.000000, 4187.692383, 4204.615234, 4186.153809, 4194.871582, 4203.076660, 4204.102539, 4214.871582, 4195.384277, 4202.051270, 4214.358887, 4195.384277, 4183.589844, 4202.563965, 4183.589844, 0.000000, 8279.000000, 8197.000000, 0.000000, 0.000000, 0.000000, -19796.000000, 284.615387, 4.000000, 4.000000, 4.000000, 4.000000, 4.000000, 4.000000, 4.000000, 4.000000, 0.000000, 4.000000, 4.000000, 4.000000, 4.000000, 4.000000, 4.000000, 4.000000
34.000000, 0.000000, 4183.076660, 4199.487305, 4180.000000, 4187.179199, 4198.461426, 4198.974121, 4214.358887, 4201.538574, 4201.538574, 4209.230469, 4189.230469, 4181.538574, 4199.487305, 4180.000000, 0.000000, 8279.000000, 8197.000000, 0.000000, 0.000000, 0.000000, -19796.000000, 292.820496, 4.000000, 4.000000, 4.000000, 4.000000, 4.000000, 4.000000, 4.000000, 4.000000, 0.000000, 4.000000, 4.000000, 4.000000, 4.000000, 4.000000, 4.000000, 4.000000
35.000000, 0.000000, 4174.871582, 4194.871582, 4173.846191, 4184.615234, 4197.948730, 4188.205078, 4202.563965, 4193.333008, 4201.025391, 4201.538574, 4190.256348, 4182.563965, 4203.589844, 4183.076660, 0.000000, 8276.000000, 8192.000000, 0.000000, 0.000000, 0.000000, -19796.000000, 300.512817, 4.000000, 4.000000, 4.000000, 4.000000, 4.000000, 4.000000, 4.000000, 4.000000, 0.000000, 4.000000, 4.000000, 4.000000, 4.000000, 4.000000, 4.000000, 4.000000
36.000000, 0.000000, 4174.358887, 4195.897461, 4166.666504, 4183.589844, 4196.922852, 4186.153809, 4197.436035, 4177.436035, 4203.589844, 4196.922852, 4188.205078, 4176.410156, 4200.000000, 4180.512695, 0.000000, 8276.000000, 8192.000000, 0.000000, 0.000000, 0.000000, -19796.000000, 308.717926, 4.000000, 4.000000, 4.000000, 4.000000, 4.000000, 4.000000, 4.000000, 4.000000, 0.000000, 4.000000, 4.000000, 4.000000, 4.000000, 4.000000, 4.000000, 4.000000
37.000000, 0.000000, 4183.589844, 4201.538574, 4170.769043, 4188.717773, 4199.487305, 4197.948730, 4205.641113, 4186.153809, 4205.127930, 4198.974121, 4187.179199, 4170.256348, 4195.384277, 4176.922852, 0.000000, 8261.000000, 8186.000000, 0.000000, 0.000000, 0.000000, -19796.000000, 316.410248, 4.000000, 4.000000, 4.000000, 4.000000, 4.000000, 4.000000, 4.000000, 4.000000, 0.000000, 4.000000, 4.000000, 4.000000, 4.000000, 4.000000, 4.000000, 4.000000
38.000000, 0.000000, 4186.666504, 4207.179199, 4182.563965, 4197.436035, 4199.487305, 4203.076660, 4205.641113, 4191.794922, 4203.076660, 4202.051270, 4192.820313, 4174.358887, 4201.025391, 4181.538574, 0.000000, 8261.000000, 8186.000000, 0.000000, 0.000000, 0.000000, -19796.000000, 324.102570, 4.000000, 4.000000, 4.000000, 4.000000, 4.000000, 4.000000, 4.000000, 4.000000, 0.000000, 4.000000, 4.000000, 4.000000, 4.000000, 4.000000, 4.000000, 4.000000
39.000000, 0.000000, 4184.102539, 4208.205078, 4183.076660, 4196.410156, 4197.948730, 4199.487305, 4203.076660, 4187.179199, 4202.051270, 4207.179199, 4198.974121, 4183.076660, 4212.307617, 4186.153809, 0.000000, 8244.000000, 8176.000000, 0.000000, 0.000000, 0.000000, -19796.000000, 332.307678, 4.000000, 4.000000, 4.000000, 4.000000, 4.000000, 4.000000, 4.000000, 4.000000, 0.000000, 4.000000, 4.000000, 4.000000, 4.000000, 4.000000, 4.000000, 4.000000
40.000000, 0.000000, 4184.615234, 4202.563965, 4177.436035, 4191.281738, 4208.205078, 4201.538574, 4205.641113, 4192.307617, 4203.589844, 4212.820313, 4200.512695, 4186.153809, 4215.384277, 4184.615234, 0.000000, 8244.000000, 8176.000000, 0.000000, 0.000000, 0.000000, -19796.000000, 340.000000, 4.000000, 4.000000, 4.000000, 4.000000, 4.000000, 4.000000, 4.000000, 4.000000, 0.000000, 4.000000, 4.000000, 4.000000, 4.000000, 4.000000, 4.000000, 4.000000
41.000000, 0.000000, 4183.589844, 4197.948730, 4177.948730, 4196.410156, 4217.948730, 4203.589844, 4203.076660, 4188.205078, 4203.076660, 4212.820313, 4199.487305, 4184.615234, 4212.307617, 4183.589844, 0.000000, 8220.000000, 8160.000000, 0.000000, 0.000000, 0.000000, -19796.000000, 347.692291, 4.000000, 4.000000, 4.000000, 4.000000, 4.000000, 4.000000, 4.000000, 4.000000, 0.000000, 4.000000, 4.000000, 4.000000, 4.000000, 4.000000, 4.000000, 4.000000
42.000000, 0.000000, 4184.102539, 4201.538574, 4178.461426, 4202.563965, 4211.281738, 4199.487305, 4198.461426, 4174.871582, 4202.051270, 4208.205078, 4201.025391, 4184.102539, 4214.358887, 4186.666504, 0.000000, 8220.000000, 8160.000000, 0.000000, 0.000000, 0.000000, -19796.000000, 355.384613, 4.000000, 4.000000, 4.000000, 4.000000, 4.000000, 4.000000, 4.000000, 4.000000, 0.000000, 4.000000, 4.000000, 4.000000, 4.000000, 4.000000, 4.000000, 4.000000
43.000000, 0.000000, 4184.102539, 4203.076660, 4171.281738, 4196.410156, 4202.051270, 4200.000000, 4202.051270, 4178.974121, 4201.538574, 4204.102539, 4202.051270, 4180.000000, 4215.897461, 4186.153809, 0.000000, 8174.000000, 8159.000000, 0.000000, 0.000000, 0.000000, -19796.000000, 363.589722, 4.000000, 4.000000, 4.000000, 4.000000, 4.000000, 4.000000, 4.000000, 4.000000, 0.000000, 4.000000, 4.000000, 4.000000, 4.000000, 4.000000, 4.000000, 4.000000
44.000000, 0.000000, 4176.410156, 4196.922852, 4164.615234, 4187.692383, 4201.025391, 4204.102539, 4209.743652, 4188.717773, 4201.025391, 4200.512695, 4194.871582, 4171.281738, 4207.692383, 4183.589844, 0.000000, 8174.000000, 8159.000000, 0.000000, 0.000000, 0.000000, -19796.000000, 371.282043, 4.000000, 4.000000, 4.000000, 4.000000, 4.000000, 4.000000, 4.000000, 4.000000, 0.000000, 4.000000, 4.000000, 4.000000, 4.000000, 4.000000, 4.000000, 4.000000
45.000000, 0.000000, 4175.384277, 4196.410156, 4165.127930, 4184.615234, 4197.948730, 4203.076660, 4212.820313, 4185.127930, 4202.563965, 4196.922852, 4190.256348, 4170.256348, 4204.615234, 4182.051270, 0.000000, 8144.000000, 8148.000000, 0.000000, 0.000000, 0.000000, -19796.000000, 379.487183, 4.000000, 4.000000, 4.000000, 4.000000, 4.000000, 4.000000, 4.000000, 4.000000, 0.000000, 4.000000, 4.000000, 4.000000, 4.000000, 4.000000, 4.000000, 4.000000
46.000000, 0.000000, 4181.025391, 4202.051270, 4168.205078, 4188.205078, 4197.948730, 4204.102539, 4213.333008, 4186.153809, 4204.102539, 4200.000000, 4197.436035, 4178.974121, 4212.307617, 4183.589844, 0.000000, 8144.000000, 8148.000000, 0.000000, 0.000000, 0.000000, -19796.000000, 387.179474, 4.000000, 4.000000, 4.000000, 4.000000, 4.000000, 4.000000, 4.000000, 4.000000, 0.000000, 4.000000, 4.000000, 4.000000, 4.000000, 4.000000, 4.000000, 4.000000
47.000000, 0.000000, 4184.102539, 4205.127930, 4172.820313, 4194.358887, 4208.717773, 4213.846191, 4218.974121, 4206.666504, 4204.102539, 4210.256348, 4204.102539, 4187.692383, 4217.436035, 4192.307617, 0.000000, 8093.000000, 8135.000000, 0.000000, 0.000000, 0.000000, -19796.000000, 395.384613, 4.000000, 4.000000, 4.000000, 4.000000, 4.000000, 4.000000, 4.000000, 4.000000, 0.000000, 4.000000, 4.000000, 4.000000, 4.000000, 4.000000, 4.000000, 4.000000
48.000000, 0.000000, 4189.743652, 4205.641113, 4177.948730, 4198.974121, 4217.948730, 4218.461426, 4222.563965, 4219.487305, 4203.076660, 4216.922852, 4201.538574, 4188.717773, 4219.487305, 4196.410156, 0.000000, 8093.000000, 8135.000000, 0.000000, 0.000000, 0.000000, -19796.000000, 403.076904, 4.000000, 4.000000, 4.000000, 4.000000, 4.000000, 4.000000, 4.000000, 4.000000, 0.000000, 4.000000, 4.000000, 4.000000, 4.000000, 4.000000, 4.000000, 4.000000
49.000000, 0.000000, 4196.922852, 4204.615234, 4183.076660, 4203.076660, 4217.948730, 4208.205078, 4213.846191, 4208.205078, 4202.563965, 4215.384277, 4200.000000, 4184.615234, 4220.512695, 4192.307617, 0.000000, 8065.000000, 8127.000000, 0.000000, 0.000000, 0.000000, -19796.000000, 410.769226, 4.000000, 4.000000, 4.000000, 4.000000, 4.000000, 4.000000, 4.000000, 4.000000, 0.000000, 4.000000, 4.000000, 4.000000, 4.000000, 4.000000, 4.000000, 4.000000
50.000000, 0.000000, 4198.461426, 4206.153809, 4186.153809, 4204.615234, 4216.410156, 4200.512695, 4209.743652, 4199.487305, 4203.076660, 4214.871582, 4200.000000, 4181.538574, 4218.974121, 4189.743652, 0.000000, 8065.000000, 8127.000000, 0.000000, 0.000000, 0.000000, -19796.000000, 418.461517, 4.000000, 4.000000, 4.000000, 4.000000, 4.000000, 4.000000, 4.000000, 4.000000, 0.000000, 4.000000, 4.000000, 4.000000, 4.000000, 4.000000, 4.000000, 4.000000
51.000000, 0.000000, 4197.948730, 4209.230469, 4184.615234, 4204.102539, 4214.871582, 4203.589844, 4213.846191, 4201.538574, 4203.589844, 4213.846191, 4200.512695, 4182.051270, 4217.948730, 4192.820313, 0.000000, 8024.000000, 8117.000000, 0.000000, 0.000000, 0.000000, -19796.000000, 426.666656, 4.000000, 4.000000, 4.000000, 4.000000, 4.000000, 4.000000, 4.000000, 4.000000, 0.000000, 4.000000, 4.000000, 4.000000, 4.000000, 4.000000, 4.000000, 4.000000
52.000000, 0.000000, 4196.922852, 4206.153809, 4183.076660, 4201.538574, 4204.615234, 4204.102539, 4213.333008, 4191.794922, 4203.076660, 4204.615234, 4202.051270, 4185.127930, 4217.948730, 4190.769043, 0.000000, 8024.000000, 8117.000000, 0.000000, 0.000000, 0.000000, -19796.000000, 434.358978, 4.000000, 4.000000, 4.000000, 4.000000, 4.000000, 4.000000, 4.000000, 4.000000, 0.000000, 4.000000, 4.000000, 4.000000, 4.000000, 4.000000, 4.000000, 4.000000
53.000000, 0.000000, 4189.743652, 4198.461426, 4180.512695, 4196.410156, 4192.820313, 4200.000000, 4213.333008, 4179.487305, 4203.589844, 4199.487305, 4199.487305, 4186.666504, 4216.922852, 4187.692383, 0.000000, 8021.000000, 8111.000000, 0.000000, 0.000000, 0.000000, -19796.000000, 442.051270, 4.000000, 4.000000, 4.000000, 4.000000, 4.000000, 4.000000, 4.000000, 4.000000, 0.000000, 4.000000, 4.000000, 4.000000, 4.000000, 4.000000, 4.000000, 4.000000
54.000000, 0.000000, 4186.153809, 4195.384277, 4181.025391, 4193.846191, 4195.384277, 4198.974121, 4213.846191, 4188.205078, 4204.102539, 4206.666504, 4199.487305, 4184.102539, 4220.512695, 4192.820313, 0.000000, 8021.000000, 8111.000000, 0.000000, 0.000000, 0.000000, -19796.000000, 450.256409, 4.000000, 4.000000, 4.000000, 4.000000, 4.000000, 4.000000, 4.000000, 4.000000, 0.000000, 4.000000, 4.000000, 4.000000, 4.000000, 4.000000, 4.000000, 4.000000
55.000000, 0.000000, 4195.384277, 4197.948730, 4188.205078, 4198.461426, 4209.743652, 4202.051270, 4212.820313, 4200.512695, 4202.051270, 4214.358887, 4209.230469, 4190.769043, 4234.358887, 4201.538574, 0.000000, 8023.000000, 8115.000000, 0.000000, 0.000000, 0.000000, -19796.000000, 457.948700, 4.000000, 4.000000, 4.000000, 4.000000, 4.000000, 4.000000, 4.000000, 4.000000, 0.000000, 4.000000, 4.000000, 4.000000, 4.000000, 4.000000, 4.000000, 4.000000
56.000000, 0.000000, 4202.051270, 4199.487305, 4189.743652, 4203.076660, 4216.410156, 4205.127930, 4214.871582, 4202.563965, 4202.563965, 4216.922852, 4218.974121, 4203.589844, 4244.102539, 4206.153809, 0.000000, 8023.000000, 8115.000000, 0.000000, 0.000000, 0.000000, -19796.000000, 466.153839, 4.000000, 4.000000, 4.000000, 4.000000, 4.000000, 4.000000, 4.000000, 4.000000, 0.000000, 4.000000, 4.000000, 4.000000, 4.000000, 4.000000, 4.000000, 4.000000
57.000000, 0.000000, 4198.974121, 4201.538574, 4187.692383, 4202.563965, 4211.281738, 4201.025391, 4212.820313, 4201.025391, 4205.127930, 4220.000000, 4218.461426, 4203.589844, 4240.000000, 4204.615234, 0.000000, 8053.000000, 8124.000000, 0.000000, 0.000000, 0.000000, -19796.000000, 473.846130, 4.000000, 4.000000, 4.000000, 4.000000, 4.000000, 4.000000, 4.000000, 4.000000, 0.000000, 4.000000, 4.000000, 4.000000, 4.000000, 4.000000, 4.000000, 4.000000
58.000000, 0.000000, 4205.641113, 4207.179199, 4196.410156, 4207.692383, 4208.717773, 4197.436035, 4202.051270, 4193.333008, 4205.127930, 4223.076660, 4214.358887, 4198.461426, 4234.871582, 4206.153809, 0.000000, 8053.000000, 8124.000000, 0.000000, 0.000000, 0.000000, -19796.000000, 481.538452, 4.000000, 4.000000, 4.000000, 4.000000, 4.000000, 4.000000, 4.000000, 4.000000, 0.000000, 4.000000, 4.000000, 4.000000, 4.000000, 4.000000, 4.000000, 4.000000
59.000000, 0.000000, 4217.948730, 4213.333008, 4203.076660, 4216.410156, 4211.281738, 4199.487305, 4197.436035, 4181.538574, 4203.076660, 4223.076660, 4214.871582, 4203.076660, 4239.487305, 4210.256348, 0.000000, 8073.000000, 8121.000000, 0.000000, 0.000000, 0.000000, -19796.000000, 489.743591, 4.000000, 4.000000, 4.000000, 4.000000, 4.000000, 4.000000, 4.000000, 4.000000, 0.000000, 4.000000, 4.000000, 4.000000, 4.000000, 4.000000, 4.000000, 4.000000
60.000000, 0.000000, 4212.307617, 4209.230469, 4192.820313, 4211.281738, 4216.922852, 4203.076660, 4198.974121, 4181.538574, 4204.102539, 4218.974121, 4209.230469, 4202.051270, 4235.384277, 4203.076660, 0.000000, 8073.000000, 8121.000000, 0.000000, 0.000000, 0.000000, -19796.000000, 497.435883, 4.000000, 4.000000, 4.000000, 4.000000, 4.000000, 4.000000, 4.000000, 4.000000, 0.000000, 4.000000, 4.000000, 4.000000, 4.000000, 4.000000, 4.000000, 4.000000
61.000000, 0.000000, 4194.358887, 4193.333008, 4178.974121, 4195.384277, 4215.384277, 4208.717773, 4205.127930, 4194.358887, 4203.589844, 4211.281738, 4192.307617, 4187.692383, 4212.820313, 4187.179199, 0.000000, 8122.000000, 8123.000000, 0.000000, 0.000000, 0.000000, -19796.000000, 505.128204, 4.000000, 4.000000, 4.000000, 4.000000, 4.000000, 4.000000, 4.000000, 4.000000, 0.000000, 4.000000, 4.000000, 4.000000, 4.000000, 4.000000, 4.000000, 4.000000
62.000000, 0.000000, 4184.615234, 4186.153809, 4176.922852, 4183.589844, 4200.000000, 4216.410156, 4215.897461, 4202.563965, 4201.538574, 4207.179199, 4183.589844, 4180.512695, 4202.051270, 4182.051270, 0.000000, 8122.000000, 8123.000000, 0.000000, 0.000000, 0.000000, -19796.000000, 513.333313, 4.000000, 4.000000, 4.000000, 4.000000, 4.000000, 4.000000, 4.000000, 4.000000, 0.000000, 4.000000, 4.000000, 4.000000, 4.000000, 4.000000, 4.000000, 4.000000
63.000000, 0.000000, 4188.205078, 4190.769043, 4185.127930, 4188.717773, 4194.358887, 4215.384277, 4217.436035, 4199.487305, 4202.563965, 4215.384277, 4193.846191, 4188.717773, 4211.794922, 4192.820313, 0.000000, 8156.000000, 8128.000000, 0.000000, 0.000000, 0.000000, -19796.000000, 521.025635, 4.000000, 4.000000, 4.000000, 4.000000, 4.000000, 4.000000, 4.000000, 4.000000, 0.000000, 4.000000, 4.000000, 4.000000, 4.000000, 4.000000, 4.000000, 4.000000
64.000000, 0.000000, 4201.025391, 4196.922852, 4193.333008, 4203.589844, 4206.666504, 4205.641113, 4210.769043, 4203.076660, 4203.589844, 4225.641113, 4205.127930, 4200.000000, 4220.000000, 4203.076660, 3190.000000, 8156.000000, 8128.000000, 0.000000, 0.000000, 0.000000, -19796.000000, 529.230774, 4.000000, 4.000000, 4.000000, 4.000000, 4.000000, 4.000000, 4.000000, 4.000000, 0.000000, 4.000000, 4.000000, 4.000000, 4.000000, 4.000000, 4.000000, 4.000000
65.000000, 0.000000, 4205.641113, 4208.205078, 4200.512695, 4206.153809, 4209.743652, 4200.000000, 4210.256348, 4203.076660, 4202.563965, 4222.563965, 4203.076660, 4202.563965, 4223.076660, 4202.051270, 3546.000000, 8186.000000, 8129.000000, 0.000000, 0.000000, 0.000000, -19796.000000, 536.923035, 4.000000, 4.000000, 4.000000, 4.000000, 4.000000, 4.000000, 4.000000, 4.000000, 0.000000, 4.000000, 4.000000, 4.000000, 4.000000, 4.000000, 4.000000, 4.000000
66.000000, 0.000000, 4200.000000, 4215.897461, 4196.922852, 4198.461426, 4200.000000, 4200.000000, 4210.769043, 4188.717773, 4201.538574, 4212.820313, 4198.461426, 4202.563965, 4224.615234, 4195.897461, 3576.000000, 8186.000000, 8129.000000, 0.000000, 0.000000, 0.000000, -19796.000000, 545.128174, 4.000000, 4.000000, 4.000000, 4.000000, 4.000000, 4.000000, 4.000000, 4.000000, 0.000000, 4.000000, 4.000000, 4.000000, 4.000000, 4.000000, 4.000000, 4.000000
67.000000, 0.000000, 4205.641113, 4216.410156, 4189.230469, 4204.615234, 4201.538574, 4196.410156, 4204.102539, 4189.743652, 4203.076660, 4215.897461, 4204.102539, 4202.563965, 4230.256348, 4201.025391, 2681.000000, 8253.000000, 8131.000000, 0.000000, 0.000000, 0.000000, -19796.000000, 552.820496, 4.000000, 4.000000, 4.000000, 4.000000, 4.000000, 4.000000, 4.000000, 4.000000, 0.000000, 4.000000, 4.000000, 4.000000, 4.000000, 4.000000, 4.000000, 4.000000
68.000000, 0.000000, 4214.358887, 4220.000000, 4190.769043, 4212.820313, 4209.230469, 4191.794922, 4194.358887, 4202.051270, 4204.102539, 4224.615234, 4212.307617, 4203.076660, 4241.538574, 4212.820313, 3555.000000, 8253.000000, 8131.000000, 0.000000, 0.000000, 0.000000, -19796.000000, 561.025635, 4.000000, 4.000000, 4.000000, 4.000000, 4.000000, 4.000000, 4.000000, 4.000000, 0.000000, 4.000000, 4.000000, 4.000000, 4.000000, 4.000000, 4.000000, 4.000000
69.000000, 0.000000, 4213.846191, 4230.256348, 4196.410156, 4209.743652, 4202.051270, 4194.358887, 4191.794922, 4203.076660, 4204.102539, 4230.256348, 4217.436035, 4209.743652, 4252.820313, 4217.948730, 3583.000000, 8283.000000, 8151.000000, 0.000000, 0.000000, 0.000000, -19796.000000, 569.230774, 4.000000, 4.000000, 4.000000, 4.000000, 4.000000, 4.000000, 4.000000, 4.000000, 0.000000, 4.000000, 4.000000, 4.000000, 4.000000, 4.000000, 4.000000, 4.000000
70.000000, 0.000000, 4216.922852, 4234.871582, 4195.384277, 4212.307617, 4197.948730, 4199.487305, 4198.461426, 4200.000000, 4203.589844, 4232.820313, 4216.922852, 4211.281738, 4249.230469, 4216.410156, 3443.000000, 8283.000000, 8151.000000, 0.000000, 0.000000, 0.000000, -19796.000000, 576.923035, 4.000000, 4.000000, 4.000000, 4.000000, 4.000000, 4.000000, 4.000000, 4.000000, 0.000000, 4.000000, 4.000000, 4.000000, 4.000000, 4.000000, 4.000000, 4.000000
71.000000, 0.000000, 4215.897461, 4230.256348, 4186.153809, 4213.846191, 4207.179199, 4198.974121, 4197.948730, 4197.436035, 4202.563965, 4231.281738, 4208.717773, 4203.589844, 4236.410156, 4213.333008, 3514.000000, 8333.000000, 8179.000000, 0.000000, 0.000000, 0.000000, -19796.000000, 585.128174, 4.000000, 4.000000, 4.000000, 4.000000, 4.000000, 4.000000, 4.000000, 4.000000, 0.000000, 4.000000, 4.000000, 4.000000, 4.000000, 4.000000, 4.000000, 4.000000
72.000000, 0.000000, 4206.666504, 4229.230469, 4185.127930, 4203.589844, 4214.871582, 4199.487305, 4192.307617, 4189.743652, 4201.538574, 4228.717773, 4201.538574, 4199.487305, 4232.820313, 4211.281738, 0.000000, 8333.000000, 8179.000000, 0.000000, 0.000000, 0.000000, -19796.000000, 592.820496, 4.000000, 4.000000, 4.000000, 4.000000, 4.000000, 4.000000, 4.000000, 4.000000, 0.000000, 4.000000, 4.000000, 4.000000, 4.000000, 4.000000, 4.000000, 4.000000
73.000000, 0.000000, 4205.641113, 4232.307617, 4191.794922, 4201.538574, 4211.794922, 4201.538574, 4196.410156, 4181.025391, 4202.051270, 4226.153809, 4202.563965, 4202.051270, 4232.307617, 4210.769043, 2927.000000, 8354.000000, 8181.000000, 0.000000, 0.000000, 0.000000, -19796.000000, 601.025635, 4.000000, 4.000000, 4.000000, 4.000000, 4.000000, 4.000000, 4.000000, 4.000000, 0.000000, 4.000000, 4.000000, 4.000000, 4.000000, 4.000000, 4.000000, 4.000000
74.000000, 0.000000, 4214.871582, 4233.846191, 4196.410156, 4212.307617, 4210.769043, 4201.538574, 4210.256348, 4187.179199, 4203.589844, 4228.717773, 4209.230469, 4206.666504, 4233.333008, 4213.846191, 3585.000000, 8354.000000, 8181.000000, 0.000000, 0.000000, 0.000000, -19796.000000, 608.717957, 4.000000, 4.000000, 4.000000, 4.000000, 4.000000, 4.000000, 4.000000, 4.000000, 0.000000, 4.000000, 4.000000, 4.000000, 4.000000, 4.000000, 4.000000, 4.000000
75.000000, 0.000000, 4219.487305, 4241.025391, 4205.641113, 4216.922852, 4212.307617, 4202.563965, 4217.436035, 4202.051270, 4202.051270, 4231.281738, 4215.897461, 4212.820313, 4241.025391, 4217.948730, 3556.000000, 8374.000000, 8190.000000, 0.000000, 0.000000, 0.000000, -19796.000000, 616.923035, 4.000000, 4.000000, 4.000000, 4.000000, 4.000000, 4.000000, 4.000000, 4.000000, 0.000000, 4.000000, 4.000000, 4.000000, 4.000000, 4.000000, 4.000000, 4.000000
76.000000, 0.000000, 4217.948730, 4257.948730, 4217.948730, 4213.846191, 4206.153809, 4202.563965, 4217.948730, 4194.358887, 4203.076660, 4225.127930, 4213.846191, 4213.333008, 4244.615234, 4219.487305, 3521.000000, 8374.000000, 8190.000000, 0.000000, 0.000000, 0.000000, -19796.000000, 624.615356, 4.000000, 4.000000, 4.000000, 4.000000, 4.000000, 4.000000, 4.000000, 4.000000, 0.000000, 4.000000, 4.000000, 4.000000, 4.000000, 4.000000, 4.000000, 4.000000
77.000000, 0.000000, 4216.410156, 4266.153809, 4217.436035, 4207.179199, 4202.563965, 4198.974121, 4213.333008, 4169.230469, 4206.153809, 4215.897461, 4204.102539, 4208.205078, 4230.769043, 4215.384277, 3472.000000, 8375.000000, 8204.000000, 0.000000, 0.000000, 0.000000, -19796.000000, 632.820496, 4.000000, 4.000000, 4.000000, 4.000000, 4.000000, 4.000000, 4.000000, 4.000000, 0.000000, 4.000000, 4.000000, 4.000000, 4.000000, 4.000000, 4.000000, 4.000000
78.000000, 0.000000, 4214.871582, 4257.436035, 4206.153809, 4202.563965, 4204.102539, 4198.461426, 4205.127930, 4171.281738, 4204.102539, 4215.897461, 4205.641113, 4211.794922, 4218.461426, 4215.384277, 3585.000000, 8375.000000, 8204.000000, 0.000000, 0.000000, 0.000000, -19796.000000, 640.512817, 4.000000, 4.000000, 4.000000, 4.000000, 4.000000, 4.000000, 4.000000, 4.000000, 0.000000, 4.000000, 4.000000, 4.000000, 4.000000, 4.000000, 4.000000, 4.000000
79.000000, 0.000000, 4218.974121, 4249.230469, 4203.589844, 4207.179199, 4198.974121, 4202.051270, 4204.102539, 4187.179199, 4201.538574, 4221.025391, 4219.487305, 4220.000000, 4220.512695, 4229.230469, 3556.000000, 8371.000000, 8220.000000, 0.000000, 0.000000, 0.000000, -19796.000000, 648.717957, 4.000000, 4.000000, 4.000000, 4.000000, 4.000000, 4.000000, 4.000000, 4.000000, 0.000000, 4.000000, 4.000000, 4.000000, 4.000000, 4.000000, 4.000000, 4.000000
80.000000, 0.000000, 4224.102539, 4249.230469, 4211.281738, 4216.922852, 4201.025391, 4198.974121, 4205.641113, 4179.487305, 4203.076660, 4218.461426, 4219.487305, 4223.076660, 4213.333008, 4234.871582, 3521.000000, 8371.000000, 8220.000000, 0.000000, 0.000000, 0.000000, -19796.000000, 656.923035, 4.000000, 4.000000, 4.000000, 4.000000, 4.000000, 4.000000, 4.000000, 4.000000, 0.000000, 4.000000, 4.000000, 4.000000, 4.000000, 4.000000, 4.000000, 4.000000
81.000000, 0.000000, 4216.922852, 4250.769043, 4210.256348, 4214.358887, 4212.307617, 4193.333008, 4197.436035, 4174.358887, 4202.563965, 4212.307617, 4207.692383, 4216.922852, 4192.820313, 4223.589844, 3472.000000, 8368.000000, 8261.000000, 0.000000, 0.000000, 0.000000, -19796.000000, 664.615356, 4.000000, 4.000000, 4.000000, 4.000000, 4.000000, 4.000000, 4.000000, 4.000000, 0.000000, 4.000000, 4.000000, 4.000000, 4.000000, 4.000000, 4.000000, 4.000000
82.000000, 0.000000, 4204.615234, 4247.692383, 4203.589844, 4201.538574, 4215.897461, 4196.922852, 4197.948730, 4195.384277, 4202.051270, 4214.871582, 4196.922852, 4203.076660, 4175.897461, 4210.769043, 3585.000000, 8368.000000, 8261.000000, 0.000000, 0.000000, 0.000000, -19796.000000, 672.820496, 4.000000, 4.000000, 4.000000, 4.000000, 4.000000, 4.000000, 4.000000, 4.000000, 0.000000, 4.000000, 4.000000, 4.000000, 4.000000, 4.000000, 4.000000, 4.000000
83.000000, 0.000000, 4199.487305, 4240.000000, 4201.025391, 4197.436035, 4209.230469, 4204.102539, 4212.307617, 4206.666504, 4204.102539, 4214.358887, 4189.230469, 4194.358887, 4165.127930, 4202.051270, 3556.000000, 8364.000000, 8270.000000, 0.000000, 0.000000, 0.000000, -19796.000000, 680.512817, 4.000000, 4.000000, 4.000000, 4.000000, 4.000000, 4.000000, 4.000000, 4.000000, 0.000000, 4.000000, 4.000000, 4.000000, 4.000000, 4.000000, 4.000000, 4.000000
84.000000, 0.000000, 4196.922852, 4228.717773, 4196.410156, 4201.025391, 4206.153809, 4201.538574, 4209.230469, 4193.333008, 4203.589844, 4203.076660, 4182.051270, 4188.205078, 4156.410156, 4196.410156, 3521.000000, 8364.000000, 8270.000000, 0.000000, 0.000000, 0.000000, -19796.000000, 688.717957, 4.000000, 4.000000, 4.000000, 4.000000, 4.000000, 4.000000, 4.000000, 4.000000, 0.000000, 4.000000, 4.000000, 4.000000, 4.000000, 4.000000, 4.000000, 4.000000
85.000000, 0.000000, 4192.820313, 4220.512695, 4191.281738, 4199.487305, 4207.179199, 4197.948730, 4198.974121, 4183.076660, 4202.563965, 4196.410156, 4174.358887, 4184.102539, 4152.820313, 4194.871582, 3472.000000, 8351.000000, 8237.000000, 0.000000, 0.000000, 0.000000, -19796.000000, 696.410217, 4.000000, 4.000000, 4.000000, 4.000000, 4.000000, 4.000000, 4.000000, 4.000000, 0.000000, 4.000000, 4.000000, 4.000000, 4.000000, 4.000000, 4.000000, 4.000000
86.000000, 0.000000, 4189.743652, 4217.436035, 4196.410156, 4197.436035, 4200.000000, 4200.000000, 4209.743652, 4184.102539, 4203.076660, 4198.461426, 4170.256348, 4184.615234, 4153.333008, 4194.871582, 3585.000000, 8351.000000, 8237.000000, 0.000000, 0.000000, 0.000000, -19796.000000, 704.615356, 4.000000, 4.000000, 4.000000, 4.000000, 4.000000, 4.000000, 4.000000, 4.000000, 0.000000, 4.000000, 4.000000, 4.000000, 4.000000, 4.000000, 4.000000, 4.000000
87.000000, 0.000000, 4189.230469, 4210.256348, 4194.871582, 4201.025391, 4192.820313, 4200.000000, 4211.281738, 4184.102539, 4202.563965, 4199.487305, 4173.333008, 4186.666504, 4158.461426, 4194.871582, 3556.000000, 8342.000000, 8192.000000, 0.000000, 0.000000, 0.000000, -19796.000000, 712.307678, 4.000000, 4.000000, 4.000000, 4.000000, 4.000000, 4.000000, 4.000000, 4.000000, 0.000000, 4.000000, 4.000000, 4.000000, 4.000000, 4.000000, 4.000000, 4.000000
88.000000, 0.000000, 4192.307617, 4208.205078, 4190.769043, 4200.512695, 4194.358887, 4197.948730, 4200.512695, 4180.512695, 4202.051270, 4195.897461, 4183.589844, 4189.743652, 4171.281738, 4202.563965, 3521.000000, 8342.000000, 8192.000000, 0.000000, 0.000000, 0.000000, -19796.000000, 720.512817, 4.000000, 4.000000, 4.000000, 4.000000, 4.000000, 4.000000, 4.000000, 4.000000, 0.000000, 4.000000, 4.000000, 4.000000, 4.000000, 4.000000, 4.000000, 4.000000
89.000000, 0.000000, 4201.538574, 4214.871582, 4203.589844, 4197.436035, 4203.589844, 4201.025391, 4208.205078, 4189.743652, 4203.076660, 4200.000000, 4193.846191, 4201.538574, 4186.666504, 4215.384277, 3472.000000, 8324.000000, 8150.000000, 0.000000, 0.000000, 0.000000, -19796.000000, 728.205139, 4.000000, 4.000000, 4.000000, 4.000000, 4.000000, 4.000000, 4.000000, 4.000000, 0.000000, 4.000000, 4.000000, 4.000000, 4.000000, 4.000000, 4.000000, 4.000000
90.000000, 0.000000, 4207.692383, 4207.692383, 4205.641113, 4203.076660, 4212.820313, 4203.589844, 4211.794922, 4196.410156, 4203.076660, 4212.820313, 4203.076660, 4205.641113, 4201.025391, 4223.589844, 3585.000000, 8324.000000, 8150.000000, 0.000000, 0.000000, 0.000000, -19796.000000, 736.410217, 4.000000, 4.000000, 4.000000, 4.000000, 4.000000, 4.000000, 4.000000, 4.000000, 0.000000, 4.000000, 4.000000, 4.000000, 4.000000, 4.000000, 4.000000, 4.000000
91.000000, 0.000000, 4200.512695, 4186.666504, 4178.974121, 4201.025391, 4210.256348, 4199.487305, 4198.461426, 4195.384277, 4202.051270, 4211.794922, 4205.641113, 4193.333008, 4205.641113, 4217.436035, 3556.000000, 8281.000000, 8065.000000, 0.000000, 0.000000, 0.000000, -19796.000000, 744.615356, 4.000000, 4.000000, 4.000000, 4.000000, 4.000000, 4.000000, 4.000000, 4.000000, 0.000000, 4.000000, 4.000000, 4.000000, 4.000000, 4.000000, 4.000000, 4.000000
92.000000, 0.000000, 4185.127930, 4181.538574, 4163.589844, 4188.205078, 4202.051270, 4197.948730, 4197.436035, 4195.384277, 4202.051270, 4198.974121, 4195.384277, 4181.025391, 4195.897461, 4201.025391, 3521.000000, 8281.000000, 8065.000000, 0.000000, 0.000000, 0.000000, -19796.000000, 752.307678, 4.000000, 4.000000, 4.000000, 4.000000, 4.000000, 4.000000, 4.000000, 4.000000, 0.000000, 4.000000, 4.000000, 4.000000, 4.000000, 4.000000, 4.000000, 4.000000
93.000000, 0.000000, 4180.512695, 4190.769043, 4170.769043, 4181.025391, 4200.000000, 4201.025391, 4206.666504, 4199.487305, 4202.051270, 4197.948730, 4188.717773, 4183.076660, 4191.281738, 4196.410156, 3472.000000, 8262.000000, 8037.000000, 0.000000, 0.000000, 0.000000, -19796.000000, 760.512817, 4.000000, 4.000000, 4.000000, 4.000000, 4.000000, 4.000000, 4.000000, 4.000000, 0.000000, 4.000000, 4.000000, 4.000000, 4.000000, 4.000000, 4.000000, 4.000000
94.000000, 0.000000, 4192.820313, 4186.666504, 4178.974121, 4188.717773, 4198.974121, 4200.512695, 4202.563965, 4207.179199, 4202.051270, 4204.615234, 4197.436035, 4195.384277, 4206.153809, 4210.256348, 3585.000000, 8262.000000, 8037.000000, 0.000000, 0.000000, 0.000000, -19796.000000, 768.205139, 4.000000, 4.000000, 4.000000, 4.000000, 4.000000, 4.000000, 4.000000, 4.000000, 0.000000, 4.000000, 4.000000, 4.000000, 4.000000, 4.000000, 4.000000, 4.000000
95.000000, 0.000000, 4204.615234, 4182.563965, 4193.846191, 4206.153809, 4197.948730, 4197.948730, 4196.922852, 4202.563965, 4202.051270, 4206.666504, 4209.230469, 4204.615234, 4217.436035, 4223.076660, 3556.000000, 8217.000000, 8020.000000, 0.000000, 0.000000, 0.000000, -19796.000000, 775.897400, 4.000000, 4.000000, 4.000000, 4.000000, 4.000000, 4.000000, 4.000000, 4.000000, 0.000000, 4.000000, 4.000000, 4.000000, 4.000000, 4.000000, 4.000000, 4.000000
96.000000, 0.000000, 4209.230469, 4192.307617, 4206.666504, 4211.281738, 4208.205078, 4201.025391, 4205.641113, 4203.076660, 4202.051270, 4211.794922, 4213.333008, 4205.127930, 4214.871582, 4223.076660, 3521.000000, 8217.000000, 8020.000000, 0.000000, 0.000000, 0.000000, -19796.000000, 784.102539, 4.000000, 4.000000, 4.000000, 4.000000, 4.000000, 4.000000, 4.000000, 4.000000, 0.000000, 4.000000, 4.000000, 4.000000, 4.000000, 4.000000, 4.000000, 4.000000
97.000000, 0.000000, 4215.384277, 4200.512695, 4199.487305, 4205.127930, 4218.974121, 4204.615234, 4218.461426, 4215.897461, 4203.076660, 4217.436035, 4210.769043, 4203.076660, 4213.333008, 4218.974121, 3472.000000, 8198.000000, 8028.000000, 0.000000, 0.000000, 0.000000, -19796.000000, 792.307678, 4.000000, 4.000000, 4.000000, 4.000000, 4.000000, 4.000000, 4.000000, 4.000000, 0.000000, 4.000000, 4.000000, 4.000000, 4.000000, 4.000000, 4.000000, 4.000000
98.000000, 0.000000, 4217.436035, 4201.025391, 4194.871582, 4205.127930, 4212.307617, 4202.051270, 4216.922852, 4208.205078, 4203.076660, 4213.846191, 4206.666504, 4200.000000, 4214.358887, 4217.436035, 3585.000000, 8198.000000, 8028.000000, 0.000000, 0.000000, 0.000000, -19796.000000, 800.000000, 4.000000, 4.000000, 4.000000, 4.000000, 4.000000, 4.000000, 4.000000, 4.000000, 0.000000, 4.000000, 4.000000, 4.000000, 4.000000, 4.000000, 4.000000, 4.000000
99.000000, 0.000000, 4207.179199, 4198.461426, 4198.461426, 4209.743652, 4206.153809, 4200.000000, 4206.666504, 4195.897461, 4202.563965, 4215.897461, 4206.666504, 4197.436035, 4211.281738, 4213.846191, 3556.000000, 8181.000000, 8036.000000, 0.000000, 0.000000, 0.000000, -19796.000000, 807.692261, 4.000000, 4.000000, 4.000000, 4.000000, 4.000000, 4.000000, 4.000000, 4.000000, 0.000000, 4.000000, 4.000000, 4.000000, 4.000000, 4.000000, 4.000000, 4.000000
100.000000, 0.000000, 4198.974121, 4191.794922, 4192.307617, 4203.076660, 4206.666504, 4201.025391, 4210.256348, 4215.384277, 4203.076660, 4216.410156, 4207.692383, 4195.897461, 4203.589844, 4206.153809, 3521.000000, 8181.000000, 8036.000000, 0.000000, 0.000000, 0.000000, -19796.000000, 815.897400, 4.000000, 4.000000, 4.000000, 4.000000, 4.000000, 4.000000, 4.000000, 4.000000, 0.000000, 4.000000, 4.000000, 4.000000, 4.000000, 4.000000, 4.000000, 4.000000
101.000000, 0.000000, 4200.000000, 4180.512695, 4188.205078, 4195.897461, 4196.410156, 4201.538574, 4210.256348, 4216.922852, 4203.076660, 4205.641113, 4200.000000, 4195.897461, 4197.436035, 4201.538574, 3472.000000, 8164.000000, 8047.000000, 0.000000, 0.000000, 0.000000, -19796.000000, 823.589722, 4.000000, 4.000000, 4.000000, 4.000000, 4.000000, 4.000000, 4.000000, 4.000000, 0.000000, 4.000000, 4.000000, 4.000000, 4.000000, 4.000000, 4.000000, 4.000000
102.000000, 0.000000, 4200.000000, 4180.000000, 4196.922852, 4198.461426, 4190.769043, 4200.512695, 4198.974121, 4192.820313, 4201.025391, 4202.563965, 4198.974121, 4198.974121, 4204.102539, 4207.179199, 3585.000000, 8164.000000, 8047.000000, 0.000000, 0.000000, 0.000000, -19796.000000, 831.282043, 4.000000, 4.000000, 4.000000, 4.000000, 4.000000, 4.000000, 4.000000, 4.000000, 0.000000, 4.000000, 4.000000, 4.000000, 4.000000, 4.000000, 4.000000, 4.000000
103.000000, 0.000000, 4201.025391, 4190.769043, 4203.589844, 4200.512695, 4200.000000, 4202.051270, 4205.127930, 4203.076660, 4201.538574, 4213.846191, 4212.820313, 4206.153809, 4220.512695, 4215.897461, 3556.000000, 8158.000000, 8064.000000, 0.000000, 0.000000, 0.000000, -19796.000000, 839.487183, 4.000000, 4.000000, 4.000000, 4.000000, 4.000000, 4.000000, 4.000000, 4.000000, 0.000000, 4.000000, 4.000000, 4.000000, 4.000000, 4.000000, 4.000000, 4.000000
104.000000, 0.000000, 4209.743652, 4188.717773, 4198.974121, 4201.025391, 4209.230469, 4202.051270, 4214.358887, 4223.076660, 4204.102539, 4220.000000, 4217.436035, 4206.153809, 4229.230469, 4216.410156, 3521.000000, 8158.000000, 8064.000000, 0.000000, 0.000000, 0.000000, -19796.000000, 847.179443, 4.000000, 4.000000, 4.000000, 4.000000, 4.000000, 4.000000, 4.000000, 4.000000, 0.000000, 4.000000, 4.000000, 4.000000, 4.000000, 4.000000, 4.000000, 4.000000
105.000000, 0.000000, 4216.410156, 4183.589844, 4195.384277, 4202.563965, 4211.281738, 4200.000000, 4203.076660, 4225.641113, 4204.615234, 4224.615234, 4217.948730, 4204.615234, 4232.307617, 4219.487305, 3472.000000, 8157.000000, 8079.000000, 0.000000, 0.000000, 0.000000, -19796.000000, 855.384583, 4.000000, 4.000000, 4.000000, 4.000000, 4.000000, 4.000000, 4.000000, 4.000000, 0.000000, 4.000000, 4.000000, 4.000000, 4.000000, 4.000000, 4.000000, 4.000000
106.000000, 0.000000, 4216.922852, 4192.820313, 4197.436035, 4203.076660, 4208.717773, 4197.948730, 4197.436035, 4228.205078, 4202.563965, 4234.871582, 4226.153809, 4206.153809, 4240.512695, 4227.179199, 3585.000000, 8157.000000, 8079.000000, 0.000000, 0.000000, 0.000000, -19796.000000, 863.076904, 4.000000, 4.000000, 4.000000, 4.000000, 4.000000, 4.000000, 4.000000, 4.000000, 0.000000, 4.000000, 4.000000, 4.000000, 4.000000, 4.000000, 4.000000, 4.000000
107.000000, 0.000000, 4215.384277, 4198.461426, 4199.487305, 4204.102539, 4203.589844, 4192.307617, 4205.127930, 4221.538574, 4203.076660, 4233.333008, 4226.153809, 4204.615234, 4242.563965, 4223.076660, 3556.000000, 8161.000000, 8097.000000, 0.000000, 0.000000, 0.000000, -19796.000000, 870.769226, 4.000000, 4.000000, 4.000000, 4.000000, 4.000000, 4.000000, 4.000000, 4.000000, 0.000000, 4.000000, 4.000000, 4.000000, 4.000000, 4.000000, 4.000000, 4.000000
108.000000, 0.000000, 4213.846191, 4188.205078, 4200.000000, 4203.589844, 4196.922852, 4184.615234, 4204.102539, 4210.256348, 4203.589844, 4219.487305, 4216.410156, 4200.512695, 4234.358887, 4213.846191, 3521.000000, 8161.000000, 8097.000000, 0.000000, 0.000000, 0.000000, -19796.000000, 878.974365, 4.000000, 4.000000, 4.000000, 4.000000, 4.000000, 4.000000, 4.000000, 4.000000, 0.000000, 4.000000, 4.000000, 4.000000, 4.000000, 4.000000, 4.000000, 4.000000
109.000000, 0.000000, 4212.820313, 4181.538574, 4200.512695, 4204.102539, 4188.205078, 4187.692383, 4200.512695, 4209.743652, 4202.051270, 4217.436035, 4213.846191, 4202.051270, 4230.769043, 4214.358887, 3472.000000, 8167.000000, 8149.000000, 0.000000, 0.000000, 0.000000, -19796.000000, 886.666626, 4.000000, 4.000000, 4.000000, 4.000000, 4.000000, 4.000000, 4.000000, 4.000000, 0.000000, 4.000000, 4.000000, 4.000000, 4.000000, 4.000000, 4.000000, 4.000000
110.000000, 0.000000, 4212.820313, 4192.307617, 4201.538574, 4203.076660, 4183.076660, 4199.487305, 4209.743652, 4209.230469, 4201.025391, 4225.641113, 4216.410156, 4207.179199, 4232.820313, 4216.922852, 3585.000000, 8167.000000, 8149.000000, 0.000000, 0.000000, 0.000000, -19796.000000, 894.358948, 4.000000, 4.000000, 4.000000, 4.000000, 4.000000, 4.000000, 4.000000, 4.000000, 0.000000, 4.000000, 4.000000, 4.000000, 4.000000, 4.000000, 4.000000, 4.000000
111.000000, 0.000000, 4213.846191, 4204.615234, 4203.589844, 4200.000000, 4190.256348, 4203.076660, 4216.922852, 4214.871582, 4202.563965, 4227.179199, 4217.436035, 4212.307617, 4233.333008, 4216.410156, 3556.000000, 8171.000000, 8175.000000, 0.000000, 0.000000, 0.000000, -19796.000000, 902.564087, 4.000000, 4.000000, 4.000000, 4.000000, 4.000000, 4.000000, 4.000000, 4.000000, 0.000000, 4.000000, 4.000000, 4.000000, 4.000000, 4.000000, 4.000000, 4.000000
112.000000, 0.000000, 4216.922852, 4205.127930, 4207.179199, 4201.025391, 4203.076660, 4201.538574, 4216.410156, 4217.948730, 4203.076660, 4223.076660, 4219.487305, 4219.487305, 4234.358887, 4220.000000, 3521.000000, 8171.000000, 8175.000000, 0.000000, 0.000000, 0.000000, -19796.000000, 910.256409, 4.000000, 4.000000, 4.000000, 4.000000, 4.000000, 4.000000, 4.000000, 4.000000, 0.000000, 4.000000, 4.000000, 4.000000, 4.000000, 4.000000, 4.000000, 4.000000
113.000000, 0.000000, 4219.487305, 4198.974121, 4209.230469, 4204.615234, 4202.563965, 4207.692383, 4217.948730, 4208.205078, 4202.051270, 4216.410156, 4217.948730, 4216.410156, 4232.820313, 4220.512695, 3472.000000, 8173.000000, 8203.000000, 0.000000, 0.000000, 0.000000, -19796.000000, 917.948669, 4.000000, 4.000000, 4.000000, 4.000000, 4.000000, 4.000000, 4.000000, 4.000000, 0.000000, 4.000000, 4.000000, 4.000000, 4.000000, 4.000000, 4.000000, 4.000000
114.000000, 0.000000, 4216.410156, 4203.076660, 4205.127930, 4205.127930, 4196.410156, 4212.307617, 4221.538574, 4210.769043, 4201.538574, 4203.076660, 4214.871582, 4207.692383, 4227.179199, 4215.384277, 3585.000000, 8173.000000, 8203.000000, 0.000000, 0.000000, 0.000000, -19796.000000, 926.153809, 4.000000, 4.000000, 4.000000, 4.000000, 4.000000, 4.000000, 4.000000, 4.000000, 0.000000, 4.000000, 4.000000, 4.000000, 4.000000, 4.000000, 4.000000, 4.000000
115.000000, 0.000000, 4214.358887, 4215.897461, 4203.076660, 4204.102539, 4195.897461, 4206.153809, 4216.410156, 4221.025391, 4202.051270, 4196.922852, 4215.897461, 4211.794922, 4228.717773, 4214.871582, 3556.000000, 8176.000000, 8254.000000, 0.000000, 0.000000, 0.000000, -19796.000000, 933.846130, 4.000000, 4.000000, 4.000000, 4.000000, 4.000000, 4.000000, 4.000000, 4.000000, 0.000000, 4.000000, 4.000000, 4.000000, 4.000000, 4.000000, 4.000000, 4.000000
116.000000, 0.000000, 4214.871582, 4218.461426, 4203.589844, 4206.666504, 4192.820313, 4200.512695, 4204.102539, 4221.025391, 4202.051270, 4210.769043, 4220.512695, 4218.461426, 4233.846191, 4219.487305, 3521.000000, 8176.000000, 8254.000000, 0.000000, 0.000000, 0.000000, -19796.000000, 942.051270, 4.000000, 4.000000, 4.000000, 4.000000, 4.000000, 4.000000, 4.000000, 4.000000, 0.000000, 4.000000, 4.000000, 4.000000, 4.000000, 4.000000, 4.000000, 4.000000
117.000000, 0.000000, 4212.307617, 4212.307617, 4202.563965, 4205.641113, 4182.051270, 4201.538574, 4199.487305, 4218.461426, 4202.051270, 4218.974121, 4216.922852, 4211.794922, 4229.230469, 4216.410156, 3472.000000, 8178.000000, 8265.000000, 0.000000, 0.000000, 0.000000, -19796.000000, 949.743591, 4.000000, 4.000000, 4.000000, 4.000000, 4.000000, 4.000000, 4.000000, 4.000000, 0.000000, 4.000000, 4.000000, 4.000000, 4.000000, 4.000000, 4.000000, 4.000000
118.000000, 0.000000, 4207.692383, 4212.307617, 4197.436035, 4200.512695, 4181.538574, 4198.974121, 4196.410156, 4207.692383, 4202.051270, 4206.153809, 4203.589844, 4196.922852, 4217.436035, 4204.615234, 3585.000000, 8178.000000, 8265.000000, 0.000000, 0.000000, 0.000000, -19796.000000, 957.948669, 4.000000, 4.000000, 4.000000, 4.000000, 4.000000, 4.000000, 4.000000, 4.000000, 0.000000, 4.000000, 4.000000, 4.000000, 4.000000, 4.000000, 4.000000, 4.000000
119.000000, 0.000000, 4203.589844, 4219.487305, 4190.769043, 4197.436035, 4192.307617, 4190.256348, 4186.153809, 4187.692383, 4202.051270, 4198.461426, 4198.974121, 4186.666504, 4212.307617, 4198.974121, 3556.000000, 8184.000000, 8281.000000, 0.000000, 0.000000, 0.000000, -19796.000000, 965.640991, 4.000000, 4.000000, 4.000000, 4.000000, 4.000000, 4.000000, 4.000000, 4.000000, 0.000000, 4.000000, 4.000000, 4.000000, 4.000000, 4.000000, 4.000000, 4.000000
120.000000, 0.000000, 4200.000000, 4217.948730, 4184.615234, 4197.948730, 4194.358887, 4186.666504, 4181.025391, 4182.563965, 4202.051270, 4198.974121, 4201.538574, 4184.102539, 4214.871582, 4197.948730, 3521.000000, 8184.000000, 8281.000000, 0.000000, 0.000000, 0.000000, -19796.000000, 973.846130, 4.000000, 4.000000, 4.000000, 4.000000, 4.000000, 4.000000, 4.000000, 4.000000, 0.000000, 4.000000, 4.000000, 4.000000, 4.000000, 4.000000, 4.000000, 4.000000
121.000000, 0.000000, 4196.410156, 4215.897461, 4183.076660, 4197.948730, 4186.153809, 4184.102539, 4184.102539, 4183.076660, 4202.051270, 4192.820313, 4197.948730, 4187.179199, 4213.846191, 4194.871582, 3472.000000, 8190.000000, 8279.000000, 0.000000, 0.000000, 0.000000, -19796.000000, 982.051270, 4.000000, 4.000000, 4.000000, 4.000000, 4.000000, 4.000000, 4.000000, 4.000000, 0.000000, 4.000000, 4.000000, 4.000000, 4.000000, 4.000000, 4.000000, 4.000000
122.000000, 0.000000, 4198.461426, 4222.051270, 4186.666504, 4199.487305, 4184.615234, 4181.538574, 4184.102539, 4171.794922, 4202.563965, 4185.127930, 4195.384277, 4190.256348, 4212.307617, 4195.384277, 3585.000000, 8190.000000, 8279.000000, 0.000000, 0.000000, 0.000000, -19796.000000, 989.743591, 4.000000, 4.000000, 4.000000, 4.000000, 4.000000, 4.000000, 4.000000, 4.000000, 0.000000, 4.000000, 4.000000, 4.000000, 4.000000, 4.000000, 4.000000, 4.000000
123.000000, 0.000000, 4210.769043, 4227.692383, 4196.410156, 4208.717773, 4191.281738, 4178.974121, 4184.102539, 4168.717773, 4203.076660, 4186.666504, 4208.717773, 4202.563965, 4225.127930, 4208.205078, 3556.000000, 8192.000000, 8272.000000, 0.000000, 0.000000, 0.000000, -19796.000000, 997.435852, 4.000000, 4.000000, 4.000000, 4.000000, 4.000000, 4.000000, 4.000000, 4.000000, 0.000000, 4.000000, 4.000000, 4.000000, 4.000000, 4.000000, 4.000000, 4.000000
124.000000, 0.000000, 4222.563965, 4228.205078, 4206.666504, 4217.948730, 4192.820313, 4173.333008, 4186.153809, 4171.794922, 4202.563965, 4192.307617, 4218.461426, 4217.436035, 4235.897461, 4223.076660, 3521.000000, 8192.000000, 8272.000000, 0.000000, 0.000000, 0.000000, -19795.000000, 5.128205, 4.000000, 4.000000, 4.000000, 4.000000, 4.000000, 4.000000, 4.000000, 4.000000, 0.000000, 4.000000, 4.000000, 4.000000, 4.000000, 4.000000, 4.000000, 4.000000
125.000000, 0.000000, 4215.384277, 4224.615234, 4206.666504, 4216.922852, 4190.256348, 4170.256348, 4185.641113, 4167.179199, 4201.538574, 4190.256348, 4208.205078, 4211.794922, 4222.051270, 4215.897461, 3472.000000, 8211.000000, 8254.000000, 0.000000, 0.000000, 0.000000, -19795.000000, 13.333333, 4.000000, 4.000000, 4.000000, 4.000000, 4.000000, 4.000000, 4.000000, 4.000000, 0.000000, 4.000000, 4.000000, 4.000000, 4.000000, 4.000000, 4.000000, 4.000000
126.000000, 0.000000, 4202.563965, 4228.205078, 4202.563965, 4207.179199, 4186.666504, 4175.897461, 4188.205078, 4168.717773, 4201.025391, 4183.589844, 4192.820313, 4196.410156, 4209.743652, 4201.025391, 3585.000000, 8211.000000, 8254.000000, 0.000000, 0.000000, 0.000000, -19795.000000, 21.025640, 4.000000, 4.000000, 4.000000, 4.000000, 4.000000, 4.000000, 4.000000, 4.000000, 0.000000, 4.000000, 4.000000, 4.000000, 4.000000, 4.000000, 4.000000, 4.000000
127.000000, 0.000000, 4201.025391, 4230.256348, 4199.487305, 4202.051270, 4177.948730, 4180.000000, 4188.205078, 4182.051270, 4202.051270, 4184.102539, 4185.127930, 4191.281738, 4210.256348, 4196.410156, 56.000000, 8214.000000, 8244.000000, 0.000000, 0.000000, 0.000000, -19795.000000, 29.230768, 4.000000, 4.000000, 4.000000, 4.000000, 4.000000, 4.000000, 4.000000, 4.000000, 0.000000, 4.000000, 4.000000, 4.000000, 4.000000, 4.000000, 4.000000, 4.000000
0.000000, 0.000000, 4200.000000, 4223.589844, 4199.487305, 4200.512695, 4173.846191, 4178.461426, 4183.076660, 4185.127930, 4202.051270, 4186.666504, 4187.692383, 4187.692383, 4204.615234, 4191.794922, 3190.000000, 8214.000000, 8244.000000, 0.000000, 0.000000, 0.000000, -19795.000000, 36.923077, 4.000000, 4.000000, 4.000000, 4.000000, 4.000000, 4.000000, 4.000000, 4.000000, 0.000000, 4.000000, 4.000000, 4.000000, 4.000000, 4.000000, 4.000000, 4.000000
1.000000, 0.000000, 4196.410156, 4221.025391, 4201.025391, 4198.974121, 4184.615234, 4187.692383, 4190.769043, 4190.256348, 4202.051270, 4185.127930, 4188.205078, 4188.205078, 4202.051270, 4188.717773, 3546.000000, 8207.000000, 8218.000000, 0.000000, 0.000000, 0.000000, -19795.000000, 45.128204, 4.000000, 4.000000, 4.000000, 4.000000, 4.000000, 4.000000, 4.000000, 4.000000, 0.000000, 4.000000, 4.000000, 4.000000, 4.000000, 4.000000, 4.000000, 4.000000
2.000000, 0.000000, 4200.512695, 4222.563965, 4195.384277, 4196.410156, 4193.846191, 4201.025391, 4205.127930, 4210.256348, 4202.563965, 4189.743652, 4184.102539, 4200.512695, 4212.820313, 4200.512695, 3576.000000, 8207.000000, 8218.000000, 0.000000, 0.000000, 0.000000, -19795.000000, 52.820511, 4.000000, 4.000000, 4.000000, 4.000000, 4.000000, 4.000000, 4.000000, 4.000000, 0.000000, 4.000000, 4.000000, 4.000000, 4.000000, 4.000000, 4.000000, 4.000000
3.000000, 0.000000, 4197.436035, 4218.974121, 4187.179199, 4188.205078, 4187.692383, 4195.384277, 4200.512695, 4205.641113, 4203.589844, 4202.051270, 4194.871582, 4206.666504, 4218.974121, 4207.692383, 2678.000000, 8196.000000, 8202.000000, 0.000000, 0.000000, 0.000000, -19795.000000, 60.512817, 4.000000, 4.000000, 4.000000, 4.000000, 4.000000, 4.000000, 4.000000, 4.000000, 0.000000, 4.000000, 4.000000, 4.000000, 4.000000, 4.000000, 4.000000, 4.000000
4.000000, 0.000000, 4187.692383, 4217.948730, 4186.153809, 4183.589844, 4183.076660, 4182.563965, 4187.179199, 4189.743652, 4203.076660, 4203.076660, 4213.333008, 4195.384277, 4217.948730, 4202.051270, 3552.000000, 8196.000000, 8202.000000, 0.000000, 0.000000, 0.000000, -19795.000000, 68.205124, 4.000000, 4.000000, 4.000000, 4.000000, 4.000000, 4.000000, 4.000000, 4.000000, 0.000000, 4.000000, 4.000000, 4.000000, 4.000000, 4.000000, 4.000000, 4.000000
5.000000, 0.000000, 4192.307617, 4230.769043, 4190.769043, 4192.820313, 4187.692383, 4183.589844, 4185.641113, 4196.410156, 4202.051270, 4189.230469, 4200.000000, 4188.717773, 4217.436035, 4202.051270, 3586.000000, 8182.000000, 8188.000000, 0.000000, 0.000000, 0.000000, -19795.000000, 76.410255, 4.000000, 4.000000, 4.000000, 4.000000, 4.000000, 4.000000, 4.000000, 4.000000, 0.000000, 4.000000, 4.000000, 4.000000, 4.000000, 4.000000, 4.000000, 4.000000
6.000000, 0.000000, 4204.615234, 4232.820313, 4191.281738, 4198.461426, 4188.717773, 4189.230469, 4187.692383, 4196.922852, 4203.589844, 4188.717773, 4183.076660, 4195.384277, 4223.076660, 4206.153809, 3444.000000, 8182.000000, 8188.000000, 0.000000, 0.000000, 0.000000, -19795.000000, 84.102562, 4.000000, 4.000000, 4.000000, 4.000000, 4.000000, 4.000000, 4.000000, 4.000000, 0.000000, 4.000000, 4.000000, 4.000000, 4.000000, 4.000000, 4.000000, 4.000000
7.000000, 0.000000, 4201.025391, 4221.025391, 4187.692383, 4190.256348, 4185.641113, 4188.717773, 4188.205078, 4179.487305, 4204.615234, 4202.051270, 4199.487305, 4193.846191, 4230.256348, 4201.025391, 3505.000000, 8175.000000, 8183.000000, 0.000000, 0.000000, 0.000000, -19795.000000, 92.307693, 4.000000, 4.000000, 4.000000, 4.000000, 4.000000, 4.000000, 4.000000, 4.000000, 0.000000, 4.000000, 4.000000, 4.000000, 4.000000, 4.000000, 4.000000, 4.000000
8.000000, 0.000000, 4188.717773, 4214.358887, 4181.025391, 4183.076660, 4184.102539, 4186.666504, 4191.794922, 4177.948730, 4200.000000, 4203.589844, 4208.717773, 4181.025391, 4231.281738, 4195.384277, 0.000000, 8175.000000, 8183.000000, 0.000000, 0.000000, 0.000000, -19795.000000, 100.000000, 4.000000, 4.000000, 4.000000, 4.000000, 4.000000, 4.000000, 4.000000, 4.000000, 0.000000, 4.000000, 4.000000, 4.000000, 4.000000, 4.000000, 4.000000, 4.000000
9.000000, 0.000000, 4192.820313, 4215.384277, 4187.179199, 4190.256348, 4185.127930, 4189.230469, 4193.846191, 4188.717773, 4205.127930, 4201.538574, 4199.487305, 4185.641113, 4235.384277, 4198.461426, 2929.000000, 8170.000000, 8179.000000, 0.000000, 0.000000, 0.000000, -19795.000000, 108.205124, 4.000000, 4.000000, 4.000000, 4.000000, 4.000000, 4.000000, 4.000000, 4.000000, 0.000000, 4.000000, 4.000000, 4.000000, 4.000000, 4.000000, 4.000000, 4.000000
10.000000, 0.000000, 4205.127930, 4223.076660, 4203.076660, 4196.410156, 4175.897461, 4188.717773, 4197.948730, 4189.230469, 4213.846191, 4202.051270, 4201.538574, 4205.641113, 4238.461426, 4206.666504, 3589.000000, 8170.000000, 8179.000000, 0.000000, 0.000000, 0.000000, -19795.000000, 115.897430, 4.000000, 4.000000, 4.000000, 4.000000, 4.000000, 4.000000, 4.000000, 4.000000, 0.000000, 4.000000, 4.000000, 4.000000, 4.000000, 4.000000, 4.000000, 4.000000
11.000000, 0.000000, 4200.000000, 4218.461426, 4198.974121, 4186.666504, 4169.743652, 4181.538574, 4195.897461, 4183.076660, 4207.692383, 4199.487305, 4203.589844, 4205.641113, 4234.358887, 4205.127930, 3556.000000, 8170.000000, 8186.000000, 0.000000, 0.000000, 0.000000, -19795.000000, 123.589737, 4.000000, 4.000000, 4.000000, 4.000000, 4.000000, 4.000000, 4.000000, 4.000000, 0.000000, 4.000000, 4.000000, 4.000000, 4.000000, 4.000000, 4.000000, 4.000000
12.000000, 0.000000, 4184.615234, 4202.051270, 4178.974121, 4177.948730, 4178.461426, 4176.410156, 4190.256348, 4187.692383, 4198.974121, 4201.025391, 4196.410156, 4187.692383, 4235.897461, 4192.820313, 3659.000000, 8170.000000, 8186.000000, 0.000000, 0.000000, 0.000000, -19795.000000, 131.282043, 4.000000, 4.000000, 4.000000, 4.000000, 4.000000, 4.000000, 4.000000, 4.000000, 0.000000, 4.000000, 4.000000, 4.000000, 4.000000, 4.000000, 4.000000, 4.000000
13.000000, 0.000000, 4183.589844, 4197.436035, 4172.820313, 4182.051270, 4184.102539, 4183.076660, 4196.922852, 4210.769043, 4202.051270, 4204.615234, 4197.948730, 4187.692383, 4250.769043, 4191.281738, 3473.000000, 8171.000000, 8182.000000, 0.000000, 0.000000, 0.000000, -19795.000000, 139.487183, 4.000000, 4.000000, 4.000000, 4.000000, 4.000000, 4.000000, 4.000000, 4.000000, 0.000000, 4.000000, 4.000000, 4.000000, 4.000000, 4.000000, 4.000000, 4.000000
14.000000, 0.000000, 4193.333008, 4201.538574, 4178.974121, 4186.666504, 4181.538574, 4194.358887, 4204.615234, 4221.025391, 4203.589844, 4204.102539, 4204.615234, 4201.538574, 4268.717773, 4200.512695, 3589.000000, 8171.000000, 8182.000000, 0.000000, 0.000000, 0.000000, -19795.000000, 147.179489, 4.000000, 4.000000, 4.000000, 4.000000, 4.000000, 4.000000, 4.000000, 4.000000, 0.000000, 4.000000, 4.000000, 4.000000, 4.000000, 4.000000, 4.000000, 4.000000
15.000000, 0.000000, 4196.922852, 4199.487305, 4182.051270, 4185.127930, 4186.153809, 4198.461426, 4198.461426, 4204.102539, 4200.512695, 4207.179199, 4204.102539, 4205.641113, 4288.717773, 4204.102539, 3556.000000, 8161.000000, 8157.000000, 0.000000, 0.000000, 0.000000, -19795.000000, 155.384613, 4.000000, 4.000000, 4.000000, 4.000000, 4.000000, 4.000000, 4.000000, 4.000000, 0.000000, 4.000000, 4.000000, 4.000000, 4.000000, 4.000000, 4.000000, 4.000000
16.000000, 0.000000, 4196.922852, 4198.461426, 4183.076660, 4189.743652, 4188.205078, 4198.974121, 4196.922852, 4197.436035, 4202.563965, 4208.205078, 4201.025391, 4202.563965, 4311.281738, 4203.076660, 0.000000, 8161.000000, 8157.000000, 0.000000, 0.000000, 0.000000, -19795.000000, 163.076920, 4.000000, 4.000000, 4.000000, 4.000000, 4.000000, 4.000000, 4.000000, 4.000000, 0.000000, 4.000000, 4.000000, 4.000000, 4.000000, 4.000000, 4.000000, 4.000000
17.000000, 0.000000, 4197.948730, 4198.974121, 4185.641113, 4196.922852, 4184.615234, 4198.974121, 4202.051270, 4201.538574, 4203.076660, 4203.076660, 4201.025391, 4202.563965, 4328.717773, 4203.076660, 0.000000, 8170.000000, 8156.000000, 0.000000, 0.000000, 0.000000, -19795.000000, 171.282043, 4.000000, 4.000000, 4.000000, 4.000000, 4.000000, 4.000000, 4.000000, 4.000000, 0.000000, 4.000000, 4.000000, 4.000000, 4.000000, 4.000000, 4.000000, 4.000000
18.000000, 0.000000, 4201.025391, 4203.076660, 4188.717773, 4198.461426, 4191.281738, 4193.333008, 4196.410156, 4192.820313, 4202.563965, 4194.358887, 4200.000000, 4202.051270, 4338.974121, 4201.025391, 0.000000, 8170.000000, 8156.000000, 0.000000, 0.000000, 0.000000, -19795.000000, 178.974350, 4.000000, 4.000000, 4.000000, 4.000000, 4.000000, 4.000000, 4.000000, 4.000000, 0.000000, 4.000000, 4.000000, 4.000000, 4.000000, 4.000000, 4.000000, 4.000000
19.000000, 0.000000, 4198.461426, 4212.820313, 4187.692383, 4191.794922, 4182.563965, 4184.615234, 4191.794922, 4182.563965, 4203.076660, 4182.051270, 4188.717773, 4202.563965, 4341.025391, 4196.922852, 0.000000, 8171.000000, 8157.000000, 0.000000, 0.000000, 0.000000, -19795.000000, 186.666656, 4.000000, 4.000000, 4.000000, 4.000000, 4.000000, 4.000000, 4.000000, 4.000000, 0.000000, 4.000000, 4.000000, 4.000000, 4.000000, 4.000000, 4.000000, 4.000000
20.000000, 0.000000, 4193.333008, 4213.333008, 4186.153809, 4183.589844, 4158.461426, 4181.538574, 4196.410156, 4169.743652, 4202.563965, 4177.948730, 4182.051270, 4202.051270, 4344.615234, 4196.922852, 0.000000, 8171.000000, 8157.000000, 0.000000, 0.000000, 0.000000, -19795.000000, 194.358963, 4.000000, 4.000000, 4.000000, 4.000000, 4.000000, 4.000000, 4.000000, 4.000000, 0.000000, 4.000000, 4.000000, 4.000000, 4.000000, 4.000000, 4.000000, 4.000000
21.000000, 0.000000, 4196.922852, 4207.692383, 4194.358887, 4189.743652, 4166.666504, 4190.769043, 4201.538574, 4165.127930, 4202.051270, 4188.205078, 4194.358887, 4201.538574, 4352.820313, 4198.461426, 0.000000, 8176.000000, 8127.000000, 0.000000, 0.000000, 0.000000, -19795.000000, 202.564102, 4.000000, 4.000000, 4.000000, 4.000000, 4.000000, 4.000000, 4.000000, 4.000000, 0.000000, 4.000000, 4.000000, 4.000000, 4.000000, 4.000000, 4.000000, 4.000000
22.000000, 0.000000, 4203.589844, 4213.846191, 4207.692383, 4201.538574, 4192.820313, 4202.051270, 4205.641113, 4180.000000, 4202.563965, 4192.307617, 4200.512695, 4206.666504, 4357.435547, 4205.127930, 0.000000, 8176.000000, 8127.000000, 0.000000, 0.000000, 0.000000, -19795.000000, 210.256409, 4.000000, 4.000000, 4.000000, 4.000000, 4.000000, 4.000000, 4.000000, 4.000000, 0.000000, 4.000000, 4.000000, 4.000000, 4.000000, 4.000000, 4.000000, 4.000000
23.000000, 0.000000, 4204.102539, 4224.102539, 4209.743652, 4203.589844, 4192.307617, 4199.487305, 4200.512695, 4172.307617, 4204.102539, 4183.589844, 4190.769043, 4202.051270, 4350.256348, 4206.666504, 0.000000, 8179.000000, 8128.000000, 0.000000, 0.000000, 0.000000, -19795.000000, 218.461533, 4.000000, 4.000000, 4.000000, 4.000000, 4.000000, 4.000000, 4.000000, 4.000000, 0.000000, 4.000000, 4.000000, 4.000000, 4.000000, 4.000000, 4.000000, 4.000000
24.000000, 0.000000, 4199.487305, 4209.743652, 4186.153809, 4198.461426, 4181.025391, 4188.717773, 4190.769043, 4156.410156, 4200.512695, 4185.127930, 4186.153809, 4183.589844, 4334.871582, 4193.333008, 0.000000, 8179.000000, 8128.000000, 0.000000, 0.000000, 0.000000, -19795.000000, 226.153839, 4.000000, 4.000000, 4.000000, 4.000000, 4.000000, 4.000000, 4.000000, 4.000000, 0.000000, 4.000000, 4.000000, 4.000000, 4.000000, 4.000000, 4.000000, 4.000000
25.000000, 0.000000, 4199.487305, 4208.717773, 4183.589844, 4195.897461, 4183.589844, 4188.205078, 4194.871582, 4177.436035, 4201.025391, 4194.358887, 4183.589844, 4183.076660, 4324.102539, 4187.179199, 0.000000, 8187.000000, 8141.000000, 0.000000, 0.000000, 0.000000, -19795.000000, 234.358963, 4.000000, 4.000000, 4.000000, 4.000000, 4.000000, 4.000000, 4.000000, 4.000000, 0.000000, 4.000000, 4.000000, 4.000000, 4.000000, 4.000000, 4.000000, 4.000000
26.000000, 0.000000, 4203.076660, 4242.563965, 4227.692383, 4197.436035, 4183.589844, 4192.820313, 4209.230469, 4201.538574, 4214.871582, 4195.897461, 4185.641113, 4209.230469, 4317.436035, 4197.948730, 0.000000, 8187.000000, 8141.000000, 0.000000, 0.000000, 0.000000, -19795.000000, 242.051270, 4.000000, 4.000000, 4.000000, 4.000000, 4.000000, 4.000000, 4.000000, 4.000000, 0.000000, 4.000000, 4.000000, 4.000000, 4.000000, 4.000000, 4.000000, 4.000000
27.000000, 0.000000, 4201.025391, 4242.051270, 4237.436035, 4202.563965, 4182.051270, 4185.127930, 4207.179199, 4202.563965, 4218.461426, 4197.436035, 4198.461426, 4220.512695, 4311.794922, 4205.127930, 0.000000, 8193.000000, 8132.000000, 0.000000, 0.000000, 0.000000, -19795.000000, 249.743576, 4.000000, 4.000000, 4.000000, 4.000000, 4.000000, 4.000000, 4.000000, 4.000000, 0.000000, 4.000000, 4.000000, 4.000000, 4.000000, 4.000000, 4.000000, 4.000000
28.000000, 0.000000, 4192.307617, 4201.025391, 4195.384277, 4201.025391, 4186.666504, 4183.076660, 4200.000000, 4200.000000, 4204.102539, 4202.563965, 4197.948730, 4202.563965, 4311.794922, 4196.922852, 0.000000, 8193.000000, 8132.000000, 0.000000, 0.000000, 0.000000, -19795.000000, 257.948700, 4.000000, 4.000000, 4.000000, 4.000000, 4.000000, 4.000000, 4.000000, 4.000000, 0.000000, 4.000000, 4.000000, 4.000000, 4.000000, 4.000000, 4.000000, 4.000000
29.000000, 0.000000, 4185.641113, 4188.205078, 4176.922852, 4188.205078, 4176.922852, 4190.769043, 4203.589844, 4196.922852, 4197.948730, 4204.102539, 4182.051270, 4188.717773, 4309.743652, 4187.692383, 0.000000, 8213.000000, 8141.000000, 0.000000, 0.000000, 0.000000, -19795.000000, 265.641022, 4.000000, 4.000000, 4.000000, 4.000000, 4.000000, 4.000000, 4.000000, 4.000000, 0.000000, 4.000000, 4.000000, 4.000000, 4.000000, 4.000000, 4.000000, 4.000000
30.000000, 0.000000, 4185.641113, 4203.076660, 4183.589844, 4184.102539, 4173.846191, 4191.281738, 4205.127930, 4188.205078, 4204.615234, 4198.974121, 4180.512695, 4187.179199, 4300.512695, 4184.615234, 0.000000, 8213.000000, 8141.000000, 0.000000, 0.000000, 0.000000, -19795.000000, 273.333313, 4.000000, 4.000000, 4.000000, 4.000000, 4.000000, 4.000000, 4.000000, 4.000000, 0.000000, 4.000000, 4.000000, 4.000000, 4.000000, 4.000000, 4.000000, 4.000000
31.000000, 0.000000, 4187.179199, 4202.563965, 4181.538574, 4188.717773, 4190.256348, 4185.641113, 4201.025391, 4178.461426, 4205.641113, 4189.230469, 4185.127930, 4184.615234, 4292.820313, 4184.102539, 0.000000, 8219.000000, 8136.000000, 0.000000, 0.000000, 0.000000, -19795.000000, 281.538452, 4.000000, 4.000000, 4.000000, 4.000000, 4.000000, 4.000000, 4.000000, 4.000000, 0.000000, 4.000000, 4.000000, 4.000000, 4.000000, 4.000000, 4.000000, 4.000000
32.000000, 0.000000, 4188.717773, 4200.000000, 4183.076660, 4186.666504, 4198.974121, 4188.717773, 4195.384277, 4161.538574, 4203.076660, 4183.076660, 4176.922852, 4183.076660, 4288.205078, 4185.641113, 0.000000, 8219.000000, 8136.000000, 0.000000, 0.000000, 0.000000, -19795.000000, 289.230774, 4.000000, 4.000000, 4.000000, 4.000000, 4.000000, 4.000000, 4.000000, 4.000000, 0.000000, 4.000000, 4.000000, 4.000000, 4.000000, 4.000000, 4.000000, 4.000000
33.000000, 0.000000, 4185.641113, 4202.051270, 4188.205078, 4181.025391, 4191.794922, 4194.871582, 4191.794922, 4153.333008, 4204.102539, 4179.487305, 4162.051270, 4177.948730, 4275.384277, 4176.922852, 0.000000, 8229.000000, 8124.000000, 0.000000, 0.000000, 0.000000, -19795.000000, 297.435883, 4.000000, 4.000000, 4.000000, 4.000000, 4.000000, 4.000000, 4.000000, 4.000000, 0.000000, 4.000000, 4.000000, 4.000000, 4.000000, 4.000000, 4.000000, 4.000000
34.000000, 0.000000, 4181.025391, 4202.051270, 4190.769043, 4185.127930, 4197.948730, 4201.538574, 4200.000000, 4157.436035, 4204.615234, 4169.230469, 4153.846191, 4173.846191, 4261.025391, 4166.153809, 0.000000, 8229.000000, 8124.000000, 0.000000, 0.000000, 0.000000, -19795.000000, 305.641022, 4.000000, 4.000000, 4.000000, 4.000000, 4.000000, 4.000000, 4.000000, 4.000000, 0.000000, 4.000000, 4.000000, 4.000000, 4.000000, 4.000000, 4.000000, 4.000000
35.000000, 0.000000, 4180.000000, 4198.461426, 4194.871582, 4184.615234, 4201.025391, 4206.666504, 4206.666504, 4166.153809, 4204.102539, 4167.179199, 4159.487305, 4180.512695, 4260.512695, 4171.281738, 0.000000, 8245.000000, 8091.000000, 0.000000, 0.000000, 0.000000, -19795.000000, 313.333313, 4.000000, 4.000000, 4.000000, 4.000000, 4.000000, 4.000000, 4.000000, 4.000000, 0.000000, 4.000000, 4.000000, 4.000000, 4.000000, 4.000000, 4.000000, 4.000000
36.000000, 0.000000, 4184.615234, 4186.666504, 4189.743652, 4180.000000, 4183.076660, 4196.922852, 4192.820313, 4180.000000, 4204.102539, 4190.256348, 4169.230469, 4185.127930, 4275.384277, 4183.589844, 0.000000, 8245.000000, 8091.000000, 0.000000, 0.000000, 0.000000, -19795.000000, 321.538452, 4.000000, 4.000000, 4.000000, 4.000000, 4.000000, 4.000000, 4.000000, 4.000000, 0.000000, 4.000000, 4.000000, 4.000000, 4.000000, 4.000000, 4.000000, 4.000000
37.000000, 0.000000, 4196.410156, 4190.769043, 4187.692383, 4193.846191, 4187.692383, 4187.692383, 4181.025391, 4189.230469, 4204.102539, 4214.358887, 4182.051270, 4190.256348, 4293.846191, 4193.846191, 0.000000, 8251.000000, 8081.000000, 0.000000, 0.000000, 0.000000, -19795.000000, 329.230774, 4.000000, 4.000000, 4.000000, 4.000000, 4.000000, 4.000000, 4.000000, 4.000000, 0.000000, 4.000000, 4.000000, 4.000000, 4.000000, 4.000000, 4.000000, 4.000000
38.000000, 0.000000, 4204.102539, 4209.743652, 4195.897461, 4207.692383, 4203.076660, 4188.205078, 4184.102539, 4193.846191, 4204.102539, 4220.512695, 4188.717773, 4198.461426, 4298.974121, 4199.487305, 0.000000, 8251.000000, 8081.000000, 0.000000, 0.000000, 0.000000, -19795.000000, 336.923065, 4.000000, 4.000000, 4.000000, 4.000000, 4.000000, 4.000000, 4.000000, 4.000000, 0.000000, 4.000000, 4.000000, 4.000000, 4.000000, 4.000000, 4.000000, 4.000000
39.000000, 0.000000, 4201.025391, 4208.205078, 4198.974121, 4201.025391, 4198.974121, 4187.692383, 4185.641113, 4203.076660, 4204.102539, 4217.436035, 4188.205078, 4200.512695, 4294.871582, 4197.948730, 0.000000, 8251.000000, 8085.000000, 0.000000, 0.000000, 0.000000, -19795.000000, 345.128204, 4.000000, 4.000000, 4.000000, 4.000000, 4.000000, 4.000000, 4.000000, 4.000000, 0.000000, 4.000000, 4.000000, 4.000000, 4.000000, 4.000000, 4.000000, 4.000000
40.000000, 0.000000, 4198.974121, 4191.794922, 4197.436035, 4198.974121, 4203.589844, 4191.794922, 4193.846191, 4205.127930, 4204.102539, 4216.922852, 4193.846191, 4205.127930, 4299.487305, 4198.461426, 0.000000, 8251.000000, 8085.000000, 0.000000, 0.000000, 0.000000, -19795.000000, 352.820496, 4.000000, 4.000000, 4.000000, 4.000000, 4.000000, 4.000000, 4.000000, 4.000000, 0.000000, 4.000000, 4.000000, 4.000000, 4.000000, 4.000000, 4.000000, 4.000000
41.000000, 0.000000, 4205.127930, 4195.384277, 4200.000000, 4207.692383, 4220.512695, 4202.051270, 4205.641113, 4200.000000, 4204.102539, 4222.563965, 4202.563965, 4219.487305, 4309.230469, 4206.666504, 0.000000, 8245.000000, 8088.000000, 0.000000, 0.000000, 0.000000, -19795.000000, 361.025635, 4.000000, 4.000000, 4.000000, 4.000000, 4.000000, 4.000000, 4.000000, 4.000000, 0.000000, 4.000000, 4.000000, 4.000000, 4.000000, 4.000000, 4.000000, 4.000000
42.000000, 0.000000, 4206.153809, 4200.512695, 4200.512695, 4205.641113, 4223.076660, 4204.102539, 4205.127930, 4204.102539, 4204.102539, 4230.256348, 4205.127930, 4217.948730, 4311.281738, 4204.102539, 0.000000, 8245.000000, 8088.000000, 0.000000, 0.000000, 0.000000, -19795.000000, 368.717926, 4.000000, 4.000000, 4.000000, 4.000000, 4.000000, 4.000000, 4.000000, 4.000000, 0.000000, 4.000000, 4.000000, 4.000000, 4.000000, 4.000000, 4.000000, 4.000000
43.000000, 0.000000, 4194.871582, 4192.820313, 4197.436035, 4196.410156, 4217.948730, 4201.538574, 4200.000000, 4207.179199, 4204.102539, 4230.256348, 4198.461426, 4202.563965, 4296.922852, 4190.256348, 0.000000, 8239.000000, 8098.000000, 0.000000, 0.000000, 0.000000, -19795.000000, 376.410248, 4.000000, 4.000000, 4.000000, 4.000000, 4.000000, 4.000000, 4.000000, 4.000000, 0.000000, 4.000000, 4.000000, 4.000000, 4.000000, 4.000000, 4.000000, 4.000000
44.000000, 0.000000, 4188.717773, 4187.692383, 4193.333008, 4197.948730, 4217.948730, 4202.051270, 4199.487305, 4188.205078, 4204.102539, 4221.538574, 4187.692383, 4197.948730, 4282.051270, 4184.102539, 0.000000, 8239.000000, 8098.000000, 0.000000, 0.000000, 0.000000, -19795.000000, 384.615387, 4.000000, 4.000000, 4.000000, 4.000000, 4.000000, 4.000000, 4.000000, 4.000000, 0.000000, 4.000000, 4.000000, 4.000000, 4.000000, 4.000000, 4.000000, 4.000000
45.000000, 0.000000, 4195.384277, 4185.641113, 4189.230469, 4201.025391, 4219.487305, 4202.563965, 4203.589844, 4177.948730, 4204.102539, 4213.333008, 4185.127930, 4199.487305, 4284.102539, 4186.153809, 0.000000, 8234.000000, 8123.000000, 0.000000, 0.000000, 0.000000, -19795.000000, 392.307678, 4.000000, 4.000000, 4.000000, 4.000000, 4.000000, 4.000000, 4.000000, 4.000000, 0.000000, 4.000000, 4.000000, 4.000000, 4.000000, 4.000000, 4.000000, 4.000000
46.000000, 0.000000, 4208.205078, 4190.256348, 4199.487305, 4200.512695, 4225.127930, 4207.692383, 4214.358887, 4198.461426, 4204.102539, 4222.051270, 4200.512695, 4207.179199, 4290.256348, 4194.871582, 0.000000, 8234.000000, 8123.000000, 0.000000, 0.000000, 0.000000, -19795.000000, 400.000000, 4.000000, 4.000000, 4.000000, 4.000000, 4.000000, 4.000000, 4.000000, 4.000000, 0.000000, 4.000000, 4.000000, 4.000000, 4.000000, 4.000000, 4.000000, 4.000000
47.000000, 0.000000, 4211.794922, 4197.948730, 4216.410156, 4207.179199, 4218.974121, 4209.230469, 4215.897461, 4205.127930, 4204.102539, 4229.743652, 4205.127930, 4214.358887, 4281.538574, 4200.512695, 0.000000, 8225.000000, 8123.000000, 0.000000, 0.000000, 0.000000, -19795.000000, 408.205109, 4.000000, 4.000000, 4.000000, 4.000000, 4.000000, 4.000000, 4.000000, 4.000000, 0.000000, 4.000000, 4.000000, 4.000000, 4.000000, 4.000000, 4.000000, 4.000000
48.000000, 0.000000, 4207.179199, 4197.948730, 4218.461426, 4215.384277, 4212.820313, 4200.000000, 4202.563965, 4191.794922, 4204.102539, 4220.000000, 4196.410156, 4209.743652, 4277.436035, 4200.512695, 0.000000, 8225.000000, 8123.000000, 0.000000, 0.000000, 0.000000, -19795.000000, 415.897430, 4.000000, 4.000000, 4.000000, 4.000000, 4.000000, 4.000000, 4.000000, 4.000000, 0.000000, 4.000000, 4.000000, 4.000000, 4.000000, 4.000000, 4.000000, 4.000000
49.000000, 0.000000, 4204.102539, 4181.025391, 4205.127930, 4208.717773, 4221.538574, 4197.436035, 4198.461426, 4191.794922, 4204.102539, 4210.769043, 4194.871582, 4201.538574, 4281.538574, 4200.000000, 0.000000, 8198.000000, 8119.000000, 0.000000, 0.000000, 0.000000, -19795.000000, 423.589722, 4.000000, 4.000000, 4.000000, 4.000000, 4.000000, 4.000000, 4.000000, 4.000000, 0.000000, 4.000000, 4.000000, 4.000000, 4.000000, 4.000000, 4.000000, 4.000000
50.000000, 0.000000, 4203.589844, 4177.436035, 4197.948730, 4198.461426, 4225.641113, 4200.512695, 4202.563965, 4195.384277, 4204.102539, 4216.410156, 4190.256348, 4198.974121, 4271.281738, 4200.000000, 0.000000, 8198.000000, 8119.000000, 0.000000, 0.000000, 0.000000, -19795.000000, 431.794861, 4.000000, 4.000000, 4.000000, 4.000000, 4.000000, 4.000000, 4.000000, 4.000000, 0.000000, 4.000000, 4.000000, 4.000000, 4.000000, 4.000000, 4.000000, 4.000000
51.000000, 0.000000, 4210.769043, 4197.436035, 4209.743652, 4207.179199, 4220.512695, 4199.487305, 4202.563965, 4197.436035, 4203.589844, 4220.512695, 4188.717773, 4202.051270, 4260.000000, 4201.025391, 0.000000, 8188.000000, 8139.000000, 0.000000, 0.000000, 0.000000, -19795.000000, 439.487183, 4.000000, 4.000000, 4.000000, 4.000000, 4.000000, 4.000000, 4.000000, 4.000000, 0.000000, 4.000000, 4.000000, 4.000000, 4.000000, 4.000000, 4.000000, 4.000000
52.000000, 0.000000, 4218.461426, 4202.051270, 4221.025391, 4215.384277, 4225.127930, 4201.538574, 4207.692383, 4208.717773, 4205.641113, 4220.512695, 4199.487305, 4210.256348, 4254.358887, 4202.563965, 0.000000, 8188.000000, 8139.000000, 0.000000, 0.000000, 0.000000, -19795.000000, 447.692291, 4.000000, 4.000000, 4.000000, 4.000000, 4.000000, 4.000000, 4.000000, 4.000000, 0.000000, 4.000000, 4.000000, 4.000000, 4.000000, 4.000000, 4.000000, 4.000000
53.000000, 0.000000, 4213.846191, 4186.666504, 4210.769043, 4206.666504, 4236.922852, 4205.127930, 4216.922852, 4208.717773, 4203.589844, 4228.717773, 4204.615234, 4213.333008, 4240.000000, 4201.538574, 0.000000, 8175.000000, 8173.000000, 0.000000, 0.000000, 0.000000, -19795.000000, 455.384613, 4.000000, 4.000000, 4.000000, 4.000000, 4.000000, 4.000000, 4.000000, 4.000000, 0.000000, 4.000000, 4.000000, 4.000000, 4.000000, 4.000000, 4.000000, 4.000000
54.000000, 0.000000, 4202.563965, 4181.538574, 4204.615234, 4201.025391, 4228.205078, 4203.076660, 4217.948730, 4203.076660, 4202.563965, 4234.871582, 4198.461426, 4206.666504, 4223.589844, 4197.948730, 0.000000, 8175.000000, 8173.000000, 0.000000, 0.000000, 0.000000, -19795.000000, 463.076904, 4.000000, 4.000000, 4.000000, 4.000000, 4.000000, 4.000000, 4.000000, 4.000000, 0.000000, 4.000000, 4.000000, 4.000000, 4.000000, 4.000000, 4.000000, 4.000000
55.000000, 0.000000, 4199.487305, 4191.281738, 4214.871582, 4203.076660, 4214.871582, 4200.512695, 4211.281738, 4213.333008, 4211.281738, 4232.820313, 4198.974121, 4205.127930, 4213.846191, 4196.922852, 0.000000, 8143.000000, 8195.000000, 0.000000, 0.000000, 0.000000, -19795.000000, 471.282043, 4.000000, 4.000000, 4.000000, 4.000000, 4.000000, 4.000000, 4.000000, 4.000000, 0.000000, 4.000000, 4.000000, 4.000000, 4.000000, 4.000000, 4.000000, 4.000000
