title:winkRight7, recorded:21.05.18 17.23.05, timestamp started:2018-05-12T20:28:52.032863+02:00            , sampling:128, subject:Noé, labels:COUNTER INTERPOLATED AF3 F7 F3 FC5 T7 P7 O1 O2 P8 T8 FC6 F4 F8 AF4 RAW_CQ GYROX GYROY MARKER MARKER_HARDWARE SYNC TIME_STAMP_s TIME_STAMP_ms CQ_AF3 CQ_F7 CQ_F3 CQ_FC5 CQ_T7 CQ_P7 CQ_O1 CQ_O2 CQ_P8 CQ_T8 CQ_FC6 CQ_F4 CQ_F8 CQ_AF4 CQ_CMS CQ_DRL, chan:40, samples:2469, units:emotiv
111.000000, 0.000000, 4178.461426, 4198.974121, 4186.666504, 4202.563965, 4270.256348, 4220.000000, 4188.717773, 4178.974121, 4203.589844, 4160.000000, 4120.000000, 4155.384277, 4189.743652, 4142.051270, 3553.000000, 8198.000000, 8177.000000, 0.000000, 0.000000, 0.000000, -19978.000000, 334.358978, 4.000000, 4.000000, 4.000000, 4.000000, 4.000000, 4.000000, 4.000000, 4.000000, 0.000000, 4.000000, 4.000000, 4.000000, 4.000000, 4.000000, 4.000000, 4.000000
112.000000, 0.000000, 4165.127930, 4188.717773, 4179.487305, 4191.281738, 4259.487305, 4213.333008, 4189.743652, 4161.538574, 4203.589844, 4152.820313, 4104.102539, 4145.127930, 4175.384277, 4128.717773, 3522.000000, 8198.000000, 8177.000000, 0.000000, 0.000000, 0.000000, -19978.000000, 342.051270, 4.000000, 4.000000, 4.000000, 4.000000, 4.000000, 4.000000, 4.000000, 4.000000, 0.000000, 4.000000, 4.000000, 4.000000, 4.000000, 4.000000, 4.000000, 4.000000
113.000000, 0.000000, 4156.410156, 4182.051270, 4180.000000, 4185.641113, 4247.179199, 4204.102539, 4182.051270, 4148.205078, 4202.563965, 4148.205078, 4098.974121, 4150.256348, 4170.256348, 4127.179199, 3471.000000, 8198.000000, 8190.000000, 0.000000, 0.000000, 0.000000, -19978.000000, 350.256409, 4.000000, 4.000000, 4.000000, 4.000000, 4.000000, 4.000000, 4.000000, 4.000000, 0.000000, 4.000000, 4.000000, 4.000000, 4.000000, 4.000000, 4.000000, 4.000000
114.000000, 0.000000, 4161.538574, 4184.615234, 4189.230469, 4186.666504, 4250.256348, 4199.487305, 4168.717773, 4150.256348, 4202.563965, 4142.563965, 4097.948730, 4152.307617, 4169.743652, 4127.692383, 3582.000000, 8198.000000, 8190.000000, 0.000000, 0.000000, 0.000000, -19978.000000, 357.948700, 4.000000, 4.000000, 4.000000, 4.000000, 4.000000, 4.000000, 4.000000, 4.000000, 0.000000, 4.000000, 4.000000, 4.000000, 4.000000, 4.000000, 4.000000, 4.000000
115.000000, 0.000000, 4164.102539, 4183.589844, 4193.846191, 4186.666504, 4247.692383, 4207.692383, 4174.358887, 4158.461426, 4203.076660, 4142.563965, 4098.461426, 4156.410156, 4168.717773, 4127.692383, 3553.000000, 8196.000000, 8191.000000, 0.000000, 0.000000, 0.000000, -19978.000000, 366.153839, 4.000000, 4.000000, 4.000000, 4.000000, 4.000000, 4.000000, 4.000000, 4.000000, 0.000000, 4.000000, 4.000000, 4.000000, 4.000000, 4.000000, 4.000000, 4.000000
116.000000, 0.000000, 4155.384277, 4177.436035, 4190.769043, 4187.179199, 4244.102539, 4214.358887, 4188.205078, 4170.256348, 4202.051270, 4151.281738, 4102.563965, 4166.153809, 4170.769043, 4129.230469, 3522.000000, 8196.000000, 8191.000000, 0.000000, 0.000000, 0.000000, -19978.000000, 373.846130, 4.000000, 4.000000, 4.000000, 4.000000, 4.000000, 4.000000, 4.000000, 4.000000, 0.000000, 4.000000, 4.000000, 4.000000, 4.000000, 4.000000, 4.000000, 4.000000
117.000000, 0.000000, 4149.743652, 4178.461426, 4184.615234, 4186.666504, 4249.230469, 4214.871582, 4187.692383, 4180.512695, 4202.051270, 4154.871582, 4099.487305, 4163.076660, 4171.281738, 4126.666504, 3471.000000, 8188.000000, 8197.000000, 0.000000, 0.000000, 0.000000, -19978.000000, 382.051270, 4.000000, 4.000000, 4.000000, 4.000000, 4.000000, 4.000000, 4.000000, 4.000000, 0.000000, 4.000000, 4.000000, 4.000000, 4.000000, 4.000000, 4.000000, 4.000000
118.000000, 0.000000, 4152.820313, 4177.948730, 4181.025391, 4187.179199, 4250.769043, 4218.461426, 4180.000000, 4177.948730, 4202.563965, 4150.256348, 4098.974121, 4158.974121, 4170.256348, 4122.563965, 3582.000000, 8188.000000, 8197.000000, 0.000000, 0.000000, 0.000000, -19978.000000, 389.743591, 4.000000, 4.000000, 4.000000, 4.000000, 4.000000, 4.000000, 4.000000, 4.000000, 0.000000, 4.000000, 4.000000, 4.000000, 4.000000, 4.000000, 4.000000, 4.000000
119.000000, 0.000000, 4156.410156, 4175.384277, 4186.666504, 4191.281738, 4244.615234, 4220.512695, 4174.358887, 4163.076660, 4202.563965, 4146.666504, 4106.153809, 4164.615234, 4178.974121, 4123.076660, 3553.000000, 8194.000000, 8194.000000, 0.000000, 0.000000, 0.000000, -19978.000000, 397.948700, 4.000000, 4.000000, 4.000000, 4.000000, 4.000000, 4.000000, 4.000000, 4.000000, 0.000000, 4.000000, 4.000000, 4.000000, 4.000000, 4.000000, 4.000000, 4.000000
120.000000, 0.000000, 4155.897461, 4173.333008, 4187.692383, 4191.281738, 4243.076660, 4216.410156, 4164.102539, 4147.179199, 4202.563965, 4140.512695, 4101.538574, 4163.076660, 4185.127930, 4124.102539, 3522.000000, 8194.000000, 8194.000000, 0.000000, 0.000000, 0.000000, -19978.000000, 406.153839, 4.000000, 4.000000, 4.000000, 4.000000, 4.000000, 4.000000, 4.000000, 4.000000, 0.000000, 4.000000, 4.000000, 4.000000, 4.000000, 4.000000, 4.000000, 4.000000
121.000000, 0.000000, 4154.871582, 4172.820313, 4179.487305, 4187.179199, 4248.717773, 4214.358887, 4154.871582, 4138.461426, 4203.076660, 4130.256348, 4091.281982, 4155.384277, 4178.461426, 4118.461426, 3471.000000, 8199.000000, 8194.000000, 0.000000, 0.000000, 0.000000, -19978.000000, 413.846130, 4.000000, 4.000000, 4.000000, 4.000000, 4.000000, 4.000000, 4.000000, 4.000000, 0.000000, 4.000000, 4.000000, 4.000000, 4.000000, 4.000000, 4.000000, 4.000000
122.000000, 0.000000, 4153.333008, 4175.384277, 4173.846191, 4184.102539, 4249.743652, 4212.820313, 4153.333008, 4134.871582, 4202.563965, 4117.436035, 4089.743408, 4155.384277, 4170.769043, 4111.281738, 3582.000000, 8199.000000, 8194.000000, 0.000000, 0.000000, 0.000000, -19978.000000, 422.051270, 4.000000, 4.000000, 4.000000, 4.000000, 4.000000, 4.000000, 4.000000, 4.000000, 0.000000, 4.000000, 4.000000, 4.000000, 4.000000, 4.000000, 4.000000, 4.000000
123.000000, 0.000000, 4150.769043, 4173.846191, 4175.384277, 4181.538574, 4244.102539, 4208.205078, 4156.410156, 4134.358887, 4201.538574, 4111.281738, 4088.205078, 4156.410156, 4168.717773, 4110.256348, 3553.000000, 8200.000000, 8199.000000, 0.000000, 0.000000, 0.000000, -19978.000000, 429.743591, 4.000000, 4.000000, 4.000000, 4.000000, 4.000000, 4.000000, 4.000000, 4.000000, 0.000000, 4.000000, 4.000000, 4.000000, 4.000000, 4.000000, 4.000000, 4.000000
124.000000, 0.000000, 4157.436035, 4173.846191, 4182.563965, 4186.666504, 4246.153809, 4212.820313, 4162.563965, 4141.538574, 4203.076660, 4120.512695, 4091.794678, 4165.641113, 4175.897461, 4123.076660, 3522.000000, 8200.000000, 8199.000000, 0.000000, 0.000000, 0.000000, -19978.000000, 437.948700, 4.000000, 4.000000, 4.000000, 4.000000, 4.000000, 4.000000, 4.000000, 4.000000, 0.000000, 4.000000, 4.000000, 4.000000, 4.000000, 4.000000, 4.000000, 4.000000
125.000000, 0.000000, 4169.743652, 4180.000000, 4192.820313, 4198.461426, 4251.281738, 4220.000000, 4163.076660, 4145.127930, 4203.589844, 4135.897461, 4105.127930, 4181.025391, 4186.153809, 4137.948730, 3471.000000, 8199.000000, 8194.000000, 0.000000, 0.000000, 0.000000, -19978.000000, 445.641022, 4.000000, 4.000000, 4.000000, 4.000000, 4.000000, 4.000000, 4.000000, 4.000000, 0.000000, 4.000000, 4.000000, 4.000000, 4.000000, 4.000000, 4.000000, 4.000000
126.000000, 0.000000, 4173.333008, 4184.615234, 4198.461426, 4203.076660, 4248.717773, 4217.948730, 4155.897461, 4138.974121, 4202.051270, 4140.512695, 4112.820313, 4184.615234, 4189.743652, 4141.538574, 3582.000000, 8199.000000, 8194.000000, 0.000000, 0.000000, 0.000000, -19978.000000, 453.846130, 4.000000, 4.000000, 4.000000, 4.000000, 4.000000, 4.000000, 4.000000, 4.000000, 0.000000, 4.000000, 4.000000, 4.000000, 4.000000, 4.000000, 4.000000, 4.000000
127.000000, 0.000000, 4168.717773, 4182.563965, 4197.948730, 4201.025391, 4246.666504, 4215.897461, 4156.922852, 4141.538574, 4201.538574, 4137.436035, 4110.769043, 4181.025391, 4187.692383, 4140.512695, 56.000000, 8199.000000, 8189.000000, 0.000000, 0.000000, 0.000000, -19978.000000, 462.051270, 4.000000, 4.000000, 4.000000, 4.000000, 4.000000, 4.000000, 4.000000, 4.000000, 0.000000, 4.000000, 4.000000, 4.000000, 4.000000, 4.000000, 4.000000, 4.000000
0.000000, 0.000000, 4168.717773, 4177.948730, 4195.384277, 4201.538574, 4251.794922, 4220.512695, 4170.769043, 4155.384277, 4201.538574, 4138.461426, 4103.589844, 4177.948730, 4188.717773, 4136.410156, 3189.000000, 8199.000000, 8189.000000, 0.000000, 0.000000, 0.000000, -19978.000000, 469.743591, 4.000000, 4.000000, 4.000000, 4.000000, 4.000000, 4.000000, 4.000000, 4.000000, 0.000000, 4.000000, 4.000000, 4.000000, 4.000000, 4.000000, 4.000000, 4.000000
1.000000, 0.000000, 4169.230469, 4177.436035, 4192.820313, 4203.076660, 4253.333008, 4220.000000, 4170.769043, 4153.846191, 4202.051270, 4141.538574, 4095.897217, 4173.333008, 4189.230469, 4129.743652, 3546.000000, 8200.000000, 8187.000000, 0.000000, 0.000000, 0.000000, -19978.000000, 477.948700, 4.000000, 4.000000, 4.000000, 4.000000, 4.000000, 4.000000, 4.000000, 4.000000, 0.000000, 4.000000, 4.000000, 4.000000, 4.000000, 4.000000, 4.000000, 4.000000
2.000000, 0.000000, 4162.051270, 4175.384277, 4189.230469, 4201.538574, 4249.743652, 4215.384277, 4161.025391, 4137.948730, 4203.076660, 4133.333008, 4088.717773, 4166.666504, 4185.641113, 4123.589844, 3569.000000, 8200.000000, 8187.000000, 0.000000, 0.000000, 0.000000, -19978.000000, 485.641022, 4.000000, 4.000000, 4.000000, 4.000000, 4.000000, 4.000000, 4.000000, 4.000000, 0.000000, 4.000000, 4.000000, 4.000000, 4.000000, 4.000000, 4.000000, 4.000000
3.000000, 0.000000, 4155.384277, 4168.205078, 4183.076660, 4197.436035, 4247.692383, 4214.871582, 4164.102539, 4135.384277, 4203.589844, 4126.153809, 4084.102539, 4158.461426, 4184.615234, 4118.461426, 2556.000000, 8201.000000, 8184.000000, 0.000000, 0.000000, 0.000000, -19978.000000, 493.846130, 4.000000, 4.000000, 4.000000, 4.000000, 4.000000, 4.000000, 4.000000, 4.000000, 0.000000, 4.000000, 4.000000, 4.000000, 4.000000, 4.000000, 4.000000, 4.000000
4.000000, 0.000000, 4155.384277, 4162.563965, 4181.538574, 4191.794922, 4243.589844, 4215.384277, 4168.717773, 4145.641113, 4202.563965, 4128.205078, 4080.000000, 4155.897461, 4185.127930, 4111.281738, 3552.000000, 8201.000000, 8184.000000, 0.000000, 0.000000, 0.000000, -19978.000000, 501.538452, 4.000000, 4.000000, 4.000000, 4.000000, 4.000000, 4.000000, 4.000000, 4.000000, 0.000000, 4.000000, 4.000000, 4.000000, 4.000000, 4.000000, 4.000000, 4.000000
5.000000, 0.000000, 4151.794922, 4157.948730, 4180.000000, 4186.153809, 4241.538574, 4215.384277, 4161.025391, 4150.256348, 4202.051270, 4129.743652, 4076.923096, 4162.563965, 4181.538574, 4105.641113, 3581.000000, 8204.000000, 8183.000000, 0.000000, 0.000000, 0.000000, -19978.000000, 509.743591, 4.000000, 4.000000, 4.000000, 4.000000, 4.000000, 4.000000, 4.000000, 4.000000, 0.000000, 4.000000, 4.000000, 4.000000, 4.000000, 4.000000, 4.000000, 4.000000
6.000000, 0.000000, 4146.153809, 4156.410156, 4176.410156, 4184.102539, 4242.051270, 4216.410156, 4155.384277, 4152.307617, 4203.076660, 4131.281738, 4076.923096, 4165.641113, 4184.102539, 4106.666504, 3448.000000, 8204.000000, 8183.000000, 0.000000, 0.000000, 0.000000, -19978.000000, 517.435913, 4.000000, 4.000000, 4.000000, 4.000000, 4.000000, 4.000000, 4.000000, 4.000000, 0.000000, 4.000000, 4.000000, 4.000000, 4.000000, 4.000000, 4.000000, 4.000000
7.000000, 0.000000, 4147.692383, 4158.461426, 4177.436035, 4186.153809, 4234.358887, 4217.436035, 4163.076660, 4152.820313, 4203.076660, 4132.820313, 4075.897217, 4158.974121, 4190.769043, 4106.666504, 3511.000000, 8204.000000, 8177.000000, 0.000000, 0.000000, 0.000000, -19978.000000, 525.640991, 4.000000, 4.000000, 4.000000, 4.000000, 4.000000, 4.000000, 4.000000, 4.000000, 0.000000, 4.000000, 4.000000, 4.000000, 4.000000, 4.000000, 4.000000, 4.000000
8.000000, 0.000000, 4151.794922, 4157.948730, 4179.487305, 4188.717773, 4229.743652, 4218.461426, 4165.127930, 4143.076660, 4201.538574, 4127.692383, 4074.358887, 4154.358887, 4191.794922, 4105.641113, 0.000000, 8204.000000, 8177.000000, 0.000000, 0.000000, 0.000000, -19978.000000, 533.846130, 4.000000, 4.000000, 4.000000, 4.000000, 4.000000, 4.000000, 4.000000, 4.000000, 0.000000, 4.000000, 4.000000, 4.000000, 4.000000, 4.000000, 4.000000, 4.000000
9.000000, 0.000000, 4154.871582, 4155.897461, 4180.512695, 4190.256348, 4242.563965, 4220.000000, 4155.897461, 4137.948730, 4202.051270, 4123.589844, 4074.871582, 4158.461426, 4193.846191, 4106.153809, 2965.000000, 8198.000000, 8174.000000, 0.000000, 0.000000, 0.000000, -19978.000000, 541.538452, 4.000000, 4.000000, 4.000000, 4.000000, 4.000000, 4.000000, 4.000000, 4.000000, 0.000000, 4.000000, 4.000000, 4.000000, 4.000000, 4.000000, 4.000000, 4.000000
10.000000, 0.000000, 4151.281738, 4153.846191, 4180.000000, 4191.281738, 4251.281738, 4220.512695, 4152.820313, 4153.846191, 4202.563965, 4127.692383, 4072.820313, 4158.974121, 4196.922852, 4108.205078, 3582.000000, 8198.000000, 8174.000000, 0.000000, 0.000000, 0.000000, -19978.000000, 549.743591, 4.000000, 4.000000, 4.000000, 4.000000, 4.000000, 4.000000, 4.000000, 4.000000, 0.000000, 4.000000, 4.000000, 4.000000, 4.000000, 4.000000, 4.000000, 4.000000
11.000000, 0.000000, 4143.076660, 4151.794922, 4177.436035, 4187.692383, 4241.538574, 4215.384277, 4155.384277, 4155.897461, 4201.025391, 4125.641113, 4064.615234, 4153.846191, 4191.281738, 4105.641113, 3313.000000, 8195.000000, 8173.000000, 0.000000, 0.000000, 0.000000, -19978.000000, 557.435913, 4.000000, 4.000000, 4.000000, 4.000000, 4.000000, 4.000000, 4.000000, 4.000000, 0.000000, 4.000000, 4.000000, 4.000000, 4.000000, 4.000000, 4.000000, 4.000000
12.000000, 0.000000, 4147.692383, 4150.769043, 4178.974121, 4185.641113, 4234.358887, 4205.641113, 4153.333008, 4134.358887, 4201.538574, 4120.512695, 4064.615234, 4158.974121, 4187.692383, 4102.051270, 3525.000000, 8195.000000, 8173.000000, 0.000000, 0.000000, 0.000000, -19978.000000, 565.640991, 4.000000, 4.000000, 4.000000, 4.000000, 4.000000, 4.000000, 4.000000, 4.000000, 0.000000, 4.000000, 4.000000, 4.000000, 4.000000, 4.000000, 4.000000, 4.000000
13.000000, 0.000000, 4158.974121, 4149.230469, 4183.589844, 4193.333008, 4236.922852, 4204.615234, 4150.769043, 4132.820313, 4202.563965, 4124.102539, 4074.871582, 4172.307617, 4200.512695, 4112.307617, 3471.000000, 8193.000000, 8167.000000, 0.000000, 0.000000, 0.000000, -19978.000000, 573.333313, 4.000000, 4.000000, 4.000000, 4.000000, 4.000000, 4.000000, 4.000000, 4.000000, 0.000000, 4.000000, 4.000000, 4.000000, 4.000000, 4.000000, 4.000000, 4.000000
14.000000, 0.000000, 4156.410156, 4150.769043, 4187.179199, 4200.000000, 4234.358887, 4209.743652, 4153.333008, 4141.025391, 4202.051270, 4125.127930, 4077.435791, 4175.897461, 4212.307617, 4122.563965, 3582.000000, 8193.000000, 8167.000000, 0.000000, 0.000000, 0.000000, -19978.000000, 581.538452, 4.000000, 4.000000, 4.000000, 4.000000, 4.000000, 4.000000, 4.000000, 4.000000, 0.000000, 4.000000, 4.000000, 4.000000, 4.000000, 4.000000, 4.000000, 4.000000
15.000000, 0.000000, 4157.948730, 4155.384277, 4191.281738, 4200.512695, 4233.333008, 4212.307617, 4152.307617, 4138.974121, 4202.051270, 4127.179199, 4079.487061, 4175.384277, 4213.333008, 4123.076660, 3313.000000, 8199.000000, 8164.000000, 0.000000, 0.000000, 0.000000, -19978.000000, 589.743591, 4.000000, 4.000000, 4.000000, 4.000000, 4.000000, 4.000000, 4.000000, 4.000000, 0.000000, 4.000000, 4.000000, 4.000000, 4.000000, 4.000000, 4.000000, 4.000000
16.000000, 0.000000, 4171.281738, 4160.000000, 4197.948730, 4202.563965, 4241.538574, 4214.871582, 4153.333008, 4146.666504, 4202.563965, 4136.922852, 4088.205078, 4183.589844, 4222.051270, 4123.589844, 0.000000, 8199.000000, 8164.000000, 0.000000, 0.000000, 0.000000, -19978.000000, 597.435913, 4.000000, 4.000000, 4.000000, 4.000000, 4.000000, 4.000000, 4.000000, 4.000000, 0.000000, 4.000000, 4.000000, 4.000000, 4.000000, 4.000000, 4.000000, 4.000000
17.000000, 0.000000, 4174.358887, 4161.025391, 4197.948730, 4203.589844, 4242.563965, 4214.358887, 4156.922852, 4156.410156, 4202.563965, 4142.051270, 4090.256348, 4187.179199, 4230.256348, 4128.205078, 0.000000, 8200.000000, 8167.000000, 0.000000, 0.000000, 0.000000, -19978.000000, 605.640991, 4.000000, 4.000000, 4.000000, 4.000000, 4.000000, 4.000000, 4.000000, 4.000000, 0.000000, 4.000000, 4.000000, 4.000000, 4.000000, 4.000000, 4.000000, 4.000000
18.000000, 0.000000, 4168.717773, 4163.076660, 4190.769043, 4201.538574, 4234.871582, 4213.333008, 4160.512695, 4162.563965, 4201.538574, 4146.153809, 4095.384521, 4188.205078, 4234.358887, 4134.871582, 0.000000, 8200.000000, 8167.000000, 0.000000, 0.000000, 0.000000, -19978.000000, 613.333313, 4.000000, 4.000000, 4.000000, 4.000000, 4.000000, 4.000000, 4.000000, 4.000000, 0.000000, 4.000000, 4.000000, 4.000000, 4.000000, 4.000000, 4.000000, 4.000000
19.000000, 0.000000, 4172.307617, 4169.230469, 4193.846191, 4200.512695, 4231.281738, 4223.076660, 4166.153809, 4169.743652, 4202.051270, 4155.897461, 4108.205078, 4198.974121, 4245.127930, 4141.025391, 0.000000, 8203.000000, 8169.000000, 0.000000, 0.000000, 0.000000, -19978.000000, 621.538452, 4.000000, 4.000000, 4.000000, 4.000000, 4.000000, 4.000000, 4.000000, 4.000000, 0.000000, 4.000000, 4.000000, 4.000000, 4.000000, 4.000000, 4.000000, 4.000000
20.000000, 0.000000, 4179.487305, 4171.794922, 4206.153809, 4203.076660, 4233.333008, 4232.307617, 4167.692383, 4176.410156, 4202.563965, 4161.025391, 4108.717773, 4201.538574, 4250.769043, 4143.076660, 0.000000, 8203.000000, 8169.000000, 0.000000, 0.000000, 0.000000, -19978.000000, 629.230774, 4.000000, 4.000000, 4.000000, 4.000000, 4.000000, 4.000000, 4.000000, 4.000000, 0.000000, 4.000000, 4.000000, 4.000000, 4.000000, 4.000000, 4.000000, 4.000000
21.000000, 0.000000, 4178.461426, 4171.281738, 4209.743652, 4204.615234, 4235.384277, 4230.769043, 4168.205078, 4173.333008, 4202.563965, 4151.794922, 4094.871582, 4188.717773, 4240.000000, 4134.871582, 0.000000, 8208.000000, 8170.000000, 0.000000, 0.000000, 0.000000, -19978.000000, 637.435852, 4.000000, 4.000000, 4.000000, 4.000000, 4.000000, 4.000000, 4.000000, 4.000000, 0.000000, 4.000000, 4.000000, 4.000000, 4.000000, 4.000000, 4.000000, 4.000000
22.000000, 0.000000, 4173.333008, 4170.256348, 4204.615234, 4200.512695, 4235.384277, 4228.205078, 4167.692383, 4157.948730, 4202.051270, 4140.512695, 4084.102539, 4182.563965, 4226.153809, 4125.641113, 0.000000, 8208.000000, 8170.000000, 0.000000, 0.000000, 0.000000, -19978.000000, 645.128174, 4.000000, 4.000000, 4.000000, 4.000000, 4.000000, 4.000000, 4.000000, 4.000000, 0.000000, 4.000000, 4.000000, 4.000000, 4.000000, 4.000000, 4.000000, 4.000000
23.000000, 0.000000, 4168.205078, 4166.153809, 4192.820313, 4188.717773, 4230.769043, 4223.589844, 4158.974121, 4136.410156, 4202.563965, 4135.384277, 4078.974365, 4184.102539, 4219.487305, 4115.897461, 0.000000, 8212.000000, 8175.000000, 0.000000, 0.000000, 0.000000, -19978.000000, 653.333313, 4.000000, 4.000000, 4.000000, 4.000000, 4.000000, 4.000000, 4.000000, 4.000000, 0.000000, 4.000000, 4.000000, 4.000000, 4.000000, 4.000000, 4.000000, 4.000000
24.000000, 0.000000, 4161.025391, 4167.692383, 4184.615234, 4183.076660, 4227.179199, 4217.948730, 4151.794922, 4129.230469, 4203.076660, 4136.922852, 4074.871582, 4178.461426, 4214.871582, 4111.281738, 0.000000, 8212.000000, 8175.000000, 0.000000, 0.000000, 0.000000, -19978.000000, 661.538452, 4.000000, 4.000000, 4.000000, 4.000000, 4.000000, 4.000000, 4.000000, 4.000000, 0.000000, 4.000000, 4.000000, 4.000000, 4.000000, 4.000000, 4.000000, 4.000000
25.000000, 0.000000, 4156.922852, 4176.922852, 4183.076660, 4193.333008, 4231.794922, 4219.487305, 4157.948730, 4151.281738, 4202.051270, 4142.563965, 4076.410156, 4174.358887, 4216.922852, 4116.410156, 0.000000, 8212.000000, 8176.000000, 0.000000, 0.000000, 0.000000, -19978.000000, 669.230774, 4.000000, 4.000000, 4.000000, 4.000000, 4.000000, 4.000000, 4.000000, 4.000000, 0.000000, 4.000000, 4.000000, 4.000000, 4.000000, 4.000000, 4.000000, 4.000000
26.000000, 0.000000, 4158.461426, 4180.512695, 4181.025391, 4198.461426, 4234.871582, 4221.025391, 4154.358887, 4160.000000, 4201.025391, 4138.974121, 4075.897217, 4172.820313, 4218.461426, 4112.307617, 0.000000, 8212.000000, 8176.000000, 0.000000, 0.000000, 0.000000, -19978.000000, 677.435852, 4.000000, 4.000000, 4.000000, 4.000000, 4.000000, 4.000000, 4.000000, 4.000000, 0.000000, 4.000000, 4.000000, 4.000000, 4.000000, 4.000000, 4.000000, 4.000000
27.000000, 0.000000, 4150.256348, 4178.461426, 4174.358887, 4189.230469, 4231.794922, 4217.436035, 4143.589844, 4134.871582, 4202.563965, 4120.512695, 4063.076904, 4163.076660, 4203.589844, 4094.871582, 0.000000, 8211.000000, 8175.000000, 0.000000, 0.000000, 0.000000, -19978.000000, 685.128174, 4.000000, 4.000000, 4.000000, 4.000000, 4.000000, 4.000000, 4.000000, 4.000000, 0.000000, 4.000000, 4.000000, 4.000000, 4.000000, 4.000000, 4.000000, 4.000000
28.000000, 0.000000, 4136.410156, 4175.897461, 4166.666504, 4183.076660, 4225.641113, 4218.974121, 4148.717773, 4127.692383, 4203.076660, 4112.820313, 4050.256348, 4152.820313, 4191.281738, 4087.179443, 0.000000, 8211.000000, 8175.000000, 0.000000, 0.000000, 0.000000, -19978.000000, 693.333313, 4.000000, 4.000000, 4.000000, 4.000000, 4.000000, 4.000000, 4.000000, 4.000000, 0.000000, 4.000000, 4.000000, 4.000000, 4.000000, 4.000000, 4.000000, 4.000000
29.000000, 0.000000, 4139.487305, 4173.333008, 4170.256348, 4182.563965, 4211.794922, 4218.974121, 4154.871582, 4150.256348, 4202.051270, 4122.563965, 4050.769043, 4151.794922, 4192.820313, 4088.717773, 0.000000, 8208.000000, 8172.000000, 0.000000, 0.000000, 0.000000, -19978.000000, 701.025635, 4.000000, 4.000000, 4.000000, 4.000000, 4.000000, 4.000000, 4.000000, 4.000000, 0.000000, 4.000000, 4.000000, 4.000000, 4.000000, 4.000000, 4.000000, 4.000000
30.000000, 0.000000, 4150.769043, 4177.436035, 4177.948730, 4184.102539, 4199.487305, 4208.205078, 4146.153809, 4153.846191, 4201.538574, 4127.692383, 4063.589600, 4158.974121, 4203.589844, 4089.230713, 0.000000, 8208.000000, 8172.000000, 0.000000, 0.000000, 0.000000, -19978.000000, 709.230774, 4.000000, 4.000000, 4.000000, 4.000000, 4.000000, 4.000000, 4.000000, 4.000000, 0.000000, 4.000000, 4.000000, 4.000000, 4.000000, 4.000000, 4.000000, 4.000000
31.000000, 0.000000, 4158.974121, 4190.256348, 4181.025391, 4191.794922, 4208.717773, 4198.974121, 4140.000000, 4138.974121, 4202.563965, 4130.256348, 4075.897217, 4165.641113, 4221.538574, 4100.000000, 0.000000, 8205.000000, 8169.000000, 0.000000, 0.000000, 0.000000, -19978.000000, 717.435852, 4.000000, 4.000000, 4.000000, 4.000000, 4.000000, 4.000000, 4.000000, 4.000000, 0.000000, 4.000000, 4.000000, 4.000000, 4.000000, 4.000000, 4.000000, 4.000000
32.000000, 0.000000, 4167.179199, 4202.563965, 4182.051270, 4200.000000, 4222.563965, 4201.538574, 4142.051270, 4141.025391, 4203.076660, 4140.512695, 4078.461426, 4169.230469, 4231.281738, 4113.846191, 0.000000, 8205.000000, 8169.000000, 0.000000, 0.000000, 0.000000, -19978.000000, 725.128174, 4.000000, 4.000000, 4.000000, 4.000000, 4.000000, 4.000000, 4.000000, 4.000000, 0.000000, 4.000000, 4.000000, 4.000000, 4.000000, 4.000000, 4.000000, 4.000000
33.000000, 0.000000, 4168.717773, 4206.666504, 4183.589844, 4201.538574, 4220.000000, 4208.717773, 4144.102539, 4146.666504, 4202.051270, 4138.461426, 4074.358887, 4169.743652, 4223.076660, 4111.794922, 0.000000, 8206.000000, 8170.000000, 0.000000, 0.000000, 0.000000, -19978.000000, 733.333313, 4.000000, 4.000000, 4.000000, 4.000000, 4.000000, 4.000000, 4.000000, 4.000000, 0.000000, 4.000000, 4.000000, 4.000000, 4.000000, 4.000000, 4.000000, 4.000000
34.000000, 0.000000, 4162.051270, 4205.641113, 4186.153809, 4201.025391, 4213.333008, 4213.333008, 4153.846191, 4144.102539, 4201.538574, 4124.102539, 4068.205078, 4164.102539, 4210.256348, 4101.538574, 0.000000, 8206.000000, 8170.000000, 0.000000, 0.000000, 0.000000, -19978.000000, 741.025635, 4.000000, 4.000000, 4.000000, 4.000000, 4.000000, 4.000000, 4.000000, 4.000000, 0.000000, 4.000000, 4.000000, 4.000000, 4.000000, 4.000000, 4.000000, 4.000000
35.000000, 0.000000, 4161.538574, 4204.615234, 4190.256348, 4202.051270, 4214.358887, 4210.769043, 4154.358887, 4131.794922, 4201.538574, 4120.000000, 4061.025635, 4156.922852, 4208.717773, 4098.461426, 0.000000, 8203.000000, 8163.000000, 0.000000, 0.000000, 0.000000, -19978.000000, 749.230774, 4.000000, 4.000000, 4.000000, 4.000000, 4.000000, 4.000000, 4.000000, 4.000000, 0.000000, 4.000000, 4.000000, 4.000000, 4.000000, 4.000000, 4.000000, 4.000000
36.000000, 0.000000, 4173.333008, 4208.205078, 4194.871582, 4201.538574, 4215.897461, 4203.589844, 4138.461426, 4119.487305, 4200.512695, 4122.051270, 4062.051270, 4159.487305, 4215.897461, 4104.102539, 0.000000, 8203.000000, 8163.000000, 0.000000, 0.000000, 0.000000, -19978.000000, 756.923035, 4.000000, 4.000000, 4.000000, 4.000000, 4.000000, 4.000000, 4.000000, 4.000000, 0.000000, 4.000000, 4.000000, 4.000000, 4.000000, 4.000000, 4.000000, 4.000000
37.000000, 0.000000, 4184.102539, 4215.384277, 4201.025391, 4204.102539, 4215.384277, 4207.179199, 4140.512695, 4133.846191, 4200.512695, 4120.512695, 4069.743408, 4170.256348, 4212.820313, 4111.281738, 0.000000, 8209.000000, 8149.000000, 0.000000, 0.000000, 0.000000, -19978.000000, 765.128174, 4.000000, 4.000000, 4.000000, 4.000000, 4.000000, 4.000000, 4.000000, 4.000000, 0.000000, 4.000000, 4.000000, 4.000000, 4.000000, 4.000000, 4.000000, 4.000000
38.000000, 0.000000, 4188.717773, 4216.410156, 4204.615234, 4209.743652, 4215.384277, 4215.897461, 4157.948730, 4156.410156, 4202.051270, 4128.717773, 4077.948730, 4178.461426, 4212.307617, 4118.461426, 0.000000, 8209.000000, 8149.000000, 0.000000, 0.000000, 0.000000, -19978.000000, 772.820496, 4.000000, 4.000000, 4.000000, 4.000000, 4.000000, 4.000000, 4.000000, 4.000000, 0.000000, 4.000000, 4.000000, 4.000000, 4.000000, 4.000000, 4.000000, 4.000000
39.000000, 0.000000, 4202.563965, 4228.205078, 4203.589844, 4212.820313, 4218.974121, 4216.410156, 4157.436035, 4156.410156, 4203.076660, 4142.563965, 4090.769043, 4185.127930, 4233.333008, 4131.794922, 0.000000, 8207.000000, 8139.000000, 0.000000, 0.000000, 0.000000, -19978.000000, 781.025635, 4.000000, 4.000000, 4.000000, 4.000000, 4.000000, 4.000000, 4.000000, 4.000000, 0.000000, 4.000000, 4.000000, 4.000000, 4.000000, 4.000000, 4.000000, 4.000000
40.000000, 0.000000, 4218.461426, 4241.025391, 4208.717773, 4214.871582, 4220.000000, 4212.307617, 4152.820313, 4153.846191, 4201.538574, 4146.666504, 4099.487305, 4189.230469, 4251.281738, 4142.563965, 0.000000, 8207.000000, 8139.000000, 0.000000, 0.000000, 0.000000, -19978.000000, 788.717957, 4.000000, 4.000000, 4.000000, 4.000000, 4.000000, 4.000000, 4.000000, 4.000000, 0.000000, 4.000000, 4.000000, 4.000000, 4.000000, 4.000000, 4.000000, 4.000000
41.000000, 0.000000, 4221.538574, 4234.358887, 4216.410156, 4217.436035, 4210.256348, 4215.384277, 4158.461426, 4159.487305, 4200.000000, 4143.589844, 4098.461426, 4187.692383, 4250.256348, 4148.717773, 0.000000, 8208.000000, 8138.000000, 0.000000, 0.000000, 0.000000, -19978.000000, 796.923035, 4.000000, 4.000000, 4.000000, 4.000000, 4.000000, 4.000000, 4.000000, 4.000000, 0.000000, 4.000000, 4.000000, 4.000000, 4.000000, 4.000000, 4.000000, 4.000000
42.000000, 0.000000, 4223.076660, 4235.384277, 4213.846191, 4220.512695, 4205.127930, 4213.846191, 4158.461426, 4156.410156, 4201.538574, 4143.076660, 4096.410156, 4187.179199, 4247.179199, 4154.871582, 0.000000, 8208.000000, 8138.000000, 0.000000, 0.000000, 0.000000, -19978.000000, 804.615356, 4.000000, 4.000000, 4.000000, 4.000000, 4.000000, 4.000000, 4.000000, 4.000000, 0.000000, 4.000000, 4.000000, 4.000000, 4.000000, 4.000000, 4.000000, 4.000000
43.000000, 0.000000, 4229.743652, 4247.692383, 4206.153809, 4218.974121, 4205.641113, 4203.589844, 4152.820313, 4150.256348, 4203.076660, 4140.512695, 4091.794678, 4187.692383, 4236.410156, 4148.717773, 0.000000, 8202.000000, 8133.000000, 0.000000, 0.000000, 0.000000, -19978.000000, 812.820496, 4.000000, 4.000000, 4.000000, 4.000000, 4.000000, 4.000000, 4.000000, 4.000000, 0.000000, 4.000000, 4.000000, 4.000000, 4.000000, 4.000000, 4.000000, 4.000000
44.000000, 0.000000, 4230.256348, 4247.179199, 4202.051270, 4212.820313, 4200.512695, 4202.563965, 4151.794922, 4152.820313, 4202.051270, 4136.410156, 4084.102539, 4180.512695, 4212.820313, 4140.512695, 0.000000, 8202.000000, 8133.000000, 0.000000, 0.000000, 0.000000, -19978.000000, 820.512817, 4.000000, 4.000000, 4.000000, 4.000000, 4.000000, 4.000000, 4.000000, 4.000000, 0.000000, 4.000000, 4.000000, 4.000000, 4.000000, 4.000000, 4.000000, 4.000000
45.000000, 0.000000, 4231.794922, 4251.281738, 4204.102539, 4213.846191, 4201.025391, 4208.717773, 4153.333008, 4153.846191, 4202.051270, 4138.461426, 4088.205078, 4174.871582, 4201.538574, 4150.256348, 0.000000, 8197.000000, 8136.000000, 0.000000, 0.000000, 0.000000, -19978.000000, 828.717957, 4.000000, 4.000000, 4.000000, 4.000000, 4.000000, 4.000000, 4.000000, 4.000000, 0.000000, 4.000000, 4.000000, 4.000000, 4.000000, 4.000000, 4.000000, 4.000000
46.000000, 0.000000, 4238.461426, 4265.127930, 4204.615234, 4220.512695, 4205.127930, 4213.846191, 4161.025391, 4156.922852, 4204.102539, 4142.051270, 4097.948730, 4180.000000, 4197.948730, 4160.000000, 0.000000, 8197.000000, 8136.000000, 0.000000, 0.000000, 0.000000, -19978.000000, 836.410217, 4.000000, 4.000000, 4.000000, 4.000000, 4.000000, 4.000000, 4.000000, 4.000000, 0.000000, 4.000000, 4.000000, 4.000000, 4.000000, 4.000000, 4.000000, 4.000000
47.000000, 0.000000, 4238.461426, 4267.692383, 4207.179199, 4221.025391, 4203.076660, 4213.846191, 4160.000000, 4156.922852, 4203.076660, 4139.487305, 4096.410156, 4186.153809, 4186.666504, 4155.897461, 0.000000, 8195.000000, 8145.000000, 0.000000, 0.000000, 0.000000, -19978.000000, 844.615356, 4.000000, 4.000000, 4.000000, 4.000000, 4.000000, 4.000000, 4.000000, 4.000000, 0.000000, 4.000000, 4.000000, 4.000000, 4.000000, 4.000000, 4.000000, 4.000000
48.000000, 0.000000, 4236.410156, 4265.641113, 4210.256348, 4224.102539, 4207.692383, 4212.307617, 4150.256348, 4147.692383, 4202.051270, 4134.871582, 4091.794678, 4185.127930, 4176.410156, 4155.897461, 0.000000, 8195.000000, 8145.000000, 0.000000, 0.000000, 0.000000, -19978.000000, 852.307678, 4.000000, 4.000000, 4.000000, 4.000000, 4.000000, 4.000000, 4.000000, 4.000000, 0.000000, 4.000000, 4.000000, 4.000000, 4.000000, 4.000000, 4.000000, 4.000000
49.000000, 0.000000, 4235.384277, 4273.333008, 4210.769043, 4231.794922, 4218.461426, 4212.820313, 4156.410156, 4150.256348, 4202.051270, 4133.333008, 4092.820313, 4186.153809, 4168.205078, 4158.974121, 0.000000, 8192.000000, 8144.000000, 0.000000, 0.000000, 0.000000, -19978.000000, 860.000000, 4.000000, 4.000000, 4.000000, 4.000000, 4.000000, 4.000000, 4.000000, 4.000000, 0.000000, 4.000000, 4.000000, 4.000000, 4.000000, 4.000000, 4.000000, 4.000000
50.000000, 0.000000, 4236.410156, 4281.538574, 4212.820313, 4233.846191, 4218.461426, 4218.974121, 4164.615234, 4154.358887, 4202.051270, 4129.743652, 4093.845947, 4189.230469, 4167.692383, 4158.461426, 0.000000, 8192.000000, 8144.000000, 0.000000, 0.000000, 0.000000, -19978.000000, 868.205078, 4.000000, 4.000000, 4.000000, 4.000000, 4.000000, 4.000000, 4.000000, 4.000000, 0.000000, 4.000000, 4.000000, 4.000000, 4.000000, 4.000000, 4.000000, 4.000000
51.000000, 0.000000, 4235.897461, 4282.051270, 4208.717773, 4229.743652, 4215.897461, 4219.487305, 4154.358887, 4142.051270, 4201.538574, 4123.076660, 4088.717773, 4181.538574, 4167.179199, 4151.794922, 0.000000, 8189.000000, 8142.000000, 0.000000, 0.000000, 0.000000, -19978.000000, 875.897400, 4.000000, 4.000000, 4.000000, 4.000000, 4.000000, 4.000000, 4.000000, 4.000000, 0.000000, 4.000000, 4.000000, 4.000000, 4.000000, 4.000000, 4.000000, 4.000000
52.000000, 0.000000, 4224.102539, 4276.922852, 4202.051270, 4223.076660, 4215.897461, 4212.820313, 4147.692383, 4138.974121, 4202.051270, 4124.615234, 4082.563965, 4171.794922, 4156.922852, 4137.436035, 0.000000, 8189.000000, 8142.000000, 0.000000, 0.000000, 0.000000, -19978.000000, 884.102539, 4.000000, 4.000000, 4.000000, 4.000000, 4.000000, 4.000000, 4.000000, 4.000000, 0.000000, 4.000000, 4.000000, 4.000000, 4.000000, 4.000000, 4.000000, 4.000000
53.000000, 0.000000, 4213.846191, 4271.794922, 4196.922852, 4215.384277, 4215.384277, 4213.846191, 4153.333008, 4151.281738, 4201.538574, 4133.333008, 4085.128174, 4170.256348, 4155.897461, 4133.846191, 0.000000, 8187.000000, 8138.000000, 0.000000, 0.000000, 0.000000, -19978.000000, 891.794861, 4.000000, 4.000000, 4.000000, 4.000000, 4.000000, 4.000000, 4.000000, 4.000000, 0.000000, 4.000000, 4.000000, 4.000000, 4.000000, 4.000000, 4.000000, 4.000000
54.000000, 0.000000, 4217.436035, 4270.256348, 4195.384277, 4214.358887, 4217.436035, 4218.974121, 4156.410156, 4154.358887, 4201.025391, 4137.948730, 4091.281982, 4172.307617, 4169.230469, 4139.487305, 0.000000, 8187.000000, 8138.000000, 0.000000, 0.000000, 0.000000, -19978.000000, 899.487183, 4.000000, 4.000000, 4.000000, 4.000000, 4.000000, 4.000000, 4.000000, 4.000000, 0.000000, 4.000000, 4.000000, 4.000000, 4.000000, 4.000000, 4.000000, 4.000000
55.000000, 0.000000, 4214.871582, 4268.717773, 4195.897461, 4217.948730, 4216.922852, 4220.000000, 4156.922852, 4154.358887, 4201.025391, 4139.487305, 4092.307617, 4173.846191, 4171.794922, 4133.846191, 0.000000, 8187.000000, 8137.000000, 0.000000, 0.000000, 0.000000, -19978.000000, 907.692261, 4.000000, 4.000000, 4.000000, 4.000000, 4.000000, 4.000000, 4.000000, 4.000000, 0.000000, 4.000000, 4.000000, 4.000000, 4.000000, 4.000000, 4.000000, 4.000000
56.000000, 0.000000, 4205.127930, 4266.153809, 4197.436035, 4216.410156, 4216.410156, 4217.948730, 4157.948730, 4152.820313, 4201.538574, 4136.410156, 4085.128174, 4170.769043, 4164.615234, 4124.102539, 0.000000, 8187.000000, 8137.000000, 0.000000, 0.000000, 0.000000, -19978.000000, 915.384583, 4.000000, 4.000000, 4.000000, 4.000000, 4.000000, 4.000000, 4.000000, 4.000000, 0.000000, 4.000000, 4.000000, 4.000000, 4.000000, 4.000000, 4.000000, 4.000000
57.000000, 0.000000, 4207.692383, 4265.127930, 4202.051270, 4213.333008, 4212.820313, 4215.384277, 4156.922852, 4139.487305, 4202.563965, 4126.153809, 4078.461426, 4170.769043, 4165.641113, 4122.563965, 0.000000, 8184.000000, 8150.000000, 0.000000, 0.000000, 0.000000, -19978.000000, 923.589722, 4.000000, 4.000000, 4.000000, 4.000000, 4.000000, 4.000000, 4.000000, 4.000000, 0.000000, 4.000000, 4.000000, 4.000000, 4.000000, 4.000000, 4.000000, 4.000000
58.000000, 0.000000, 4214.871582, 4257.436035, 4201.538574, 4213.333008, 4204.615234, 4215.384277, 4160.512695, 4142.051270, 4202.563965, 4126.666504, 4083.076904, 4180.000000, 4170.769043, 4129.743652, 0.000000, 8184.000000, 8150.000000, 0.000000, 0.000000, 0.000000, -19978.000000, 931.282043, 4.000000, 4.000000, 4.000000, 4.000000, 4.000000, 4.000000, 4.000000, 4.000000, 0.000000, 4.000000, 4.000000, 4.000000, 4.000000, 4.000000, 4.000000, 4.000000
59.000000, 0.000000, 4215.897461, 4250.769043, 4201.538574, 4218.974121, 4208.205078, 4212.307617, 4160.000000, 4156.922852, 4201.538574, 4139.487305, 4096.922852, 4189.743652, 4172.820313, 4137.948730, 0.000000, 8190.000000, 8157.000000, 0.000000, 0.000000, 0.000000, -19978.000000, 938.974365, 4.000000, 4.000000, 4.000000, 4.000000, 4.000000, 4.000000, 4.000000, 4.000000, 0.000000, 4.000000, 4.000000, 4.000000, 4.000000, 4.000000, 4.000000, 4.000000
60.000000, 0.000000, 4211.281738, 4251.281738, 4205.127930, 4216.922852, 4220.000000, 4203.589844, 4151.281738, 4145.127930, 4200.512695, 4141.538574, 4103.076660, 4188.205078, 4174.358887, 4132.307617, 0.000000, 8190.000000, 8157.000000, 0.000000, 0.000000, 0.000000, -19978.000000, 947.179443, 4.000000, 4.000000, 4.000000, 4.000000, 4.000000, 4.000000, 4.000000, 4.000000, 0.000000, 4.000000, 4.000000, 4.000000, 4.000000, 4.000000, 4.000000, 4.000000
61.000000, 0.000000, 4209.230469, 4249.230469, 4204.102539, 4207.692383, 4217.436035, 4197.436035, 4155.897461, 4136.410156, 4201.538574, 4137.436035, 4101.538574, 4190.256348, 4177.436035, 4126.153809, 0.000000, 8201.000000, 8171.000000, 0.000000, 0.000000, 0.000000, -19978.000000, 954.871765, 4.000000, 4.000000, 4.000000, 4.000000, 4.000000, 4.000000, 4.000000, 4.000000, 0.000000, 4.000000, 4.000000, 4.000000, 4.000000, 4.000000, 4.000000, 4.000000
62.000000, 0.000000, 4214.871582, 4250.769043, 4206.153809, 4211.281738, 4212.307617, 4200.512695, 4172.307617, 4152.820313, 4201.538574, 4138.974121, 4106.153809, 4198.974121, 4183.076660, 4136.410156, 0.000000, 8201.000000, 8171.000000, 0.000000, 0.000000, 0.000000, -19978.000000, 962.564087, 4.000000, 4.000000, 4.000000, 4.000000, 4.000000, 4.000000, 4.000000, 4.000000, 0.000000, 4.000000, 4.000000, 4.000000, 4.000000, 4.000000, 4.000000, 4.000000
63.000000, 0.000000, 4221.025391, 4255.897461, 4213.333008, 4218.461426, 4216.922852, 4207.692383, 4171.794922, 4147.179199, 4201.025391, 4138.974121, 4105.641113, 4202.563965, 4186.666504, 4142.563965, 0.000000, 8202.000000, 8180.000000, 0.000000, 0.000000, 0.000000, -19978.000000, 970.769226, 4.000000, 4.000000, 4.000000, 4.000000, 4.000000, 4.000000, 4.000000, 4.000000, 0.000000, 4.000000, 4.000000, 4.000000, 4.000000, 4.000000, 4.000000, 4.000000
64.000000, 0.000000, 4219.487305, 4253.333008, 4211.281738, 4214.871582, 4217.436035, 4214.871582, 4169.230469, 4132.307617, 4200.512695, 4135.897461, 4098.974121, 4196.410156, 4184.102539, 4135.384277, 3183.000000, 8202.000000, 8180.000000, 0.000000, 0.000000, 0.000000, -19978.000000, 978.461487, 4.000000, 4.000000, 4.000000, 4.000000, 4.000000, 4.000000, 4.000000, 4.000000, 0.000000, 4.000000, 4.000000, 4.000000, 4.000000, 4.000000, 4.000000, 4.000000
65.000000, 0.000000, 4217.436035, 4250.256348, 4205.641113, 4212.307617, 4212.307617, 4220.512695, 4185.127930, 4157.436035, 4201.025391, 4143.076660, 4100.512695, 4189.743652, 4183.076660, 4133.846191, 3541.000000, 8206.000000, 8188.000000, 0.000000, 0.000000, 0.000000, -19978.000000, 986.666626, 4.000000, 4.000000, 4.000000, 4.000000, 4.000000, 4.000000, 4.000000, 4.000000, 0.000000, 4.000000, 4.000000, 4.000000, 4.000000, 4.000000, 4.000000, 4.000000
66.000000, 0.000000, 4218.974121, 4252.820313, 4208.205078, 4215.897461, 4215.384277, 4220.512695, 4186.666504, 4178.461426, 4202.563965, 4155.897461, 4108.205078, 4190.256348, 4192.820313, 4137.436035, 3563.000000, 8206.000000, 8188.000000, 0.000000, 0.000000, 0.000000, -19978.000000, 994.358948, 4.000000, 4.000000, 4.000000, 4.000000, 4.000000, 4.000000, 4.000000, 4.000000, 0.000000, 4.000000, 4.000000, 4.000000, 4.000000, 4.000000, 4.000000, 4.000000
67.000000, 0.000000, 4216.922852, 4251.794922, 4209.743652, 4214.871582, 4216.922852, 4215.897461, 4169.230469, 4165.127930, 4204.102539, 4158.461426, 4112.307617, 4193.846191, 4201.538574, 4135.384277, 2549.000000, 8211.000000, 8197.000000, 0.000000, 0.000000, 0.000000, -19977.000000, 2.564102, 4.000000, 4.000000, 4.000000, 4.000000, 4.000000, 4.000000, 4.000000, 4.000000, 0.000000, 4.000000, 4.000000, 4.000000, 4.000000, 4.000000, 4.000000, 4.000000
68.000000, 0.000000, 4216.922852, 4243.589844, 4210.256348, 4214.871582, 4207.692383, 4213.333008, 4174.358887, 4169.743652, 4202.051270, 4154.358887, 4117.948730, 4197.948730, 4200.000000, 4134.358887, 3552.000000, 8211.000000, 8197.000000, 0.000000, 0.000000, 0.000000, -19977.000000, 10.256410, 4.000000, 4.000000, 4.000000, 4.000000, 4.000000, 4.000000, 4.000000, 4.000000, 0.000000, 4.000000, 4.000000, 4.000000, 4.000000, 4.000000, 4.000000, 4.000000
69.000000, 0.000000, 4219.487305, 4244.615234, 4216.922852, 4221.025391, 4203.076660, 4217.948730, 4191.794922, 4193.333008, 4200.512695, 4163.589844, 4127.179199, 4207.179199, 4203.589844, 4137.436035, 3578.000000, 8213.000000, 8194.000000, 0.000000, 0.000000, 0.000000, -19977.000000, 17.948717, 4.000000, 4.000000, 4.000000, 4.000000, 4.000000, 4.000000, 4.000000, 4.000000, 0.000000, 4.000000, 4.000000, 4.000000, 4.000000, 4.000000, 4.000000, 4.000000
70.000000, 0.000000, 4216.922852, 4253.333008, 4223.589844, 4221.538574, 4213.333008, 4212.820313, 4190.256348, 4189.743652, 4201.538574, 4172.307617, 4130.769043, 4215.897461, 4216.410156, 4138.974121, 3448.000000, 8213.000000, 8194.000000, 0.000000, 0.000000, 0.000000, -19977.000000, 26.153845, 4.000000, 4.000000, 4.000000, 4.000000, 4.000000, 4.000000, 4.000000, 4.000000, 0.000000, 4.000000, 4.000000, 4.000000, 4.000000, 4.000000, 4.000000, 4.000000
71.000000, 0.000000, 4217.948730, 4250.769043, 4224.615234, 4217.948730, 4218.974121, 4201.538574, 4183.076660, 4186.153809, 4200.512695, 4163.076660, 4128.717773, 4215.384277, 4216.922852, 4137.948730, 3515.000000, 8204.000000, 8190.000000, 0.000000, 0.000000, 0.000000, -19977.000000, 33.846153, 4.000000, 4.000000, 4.000000, 4.000000, 4.000000, 4.000000, 4.000000, 4.000000, 0.000000, 4.000000, 4.000000, 4.000000, 4.000000, 4.000000, 4.000000, 4.000000
72.000000, 0.000000, 4225.127930, 4243.589844, 4229.230469, 4224.102539, 4213.333008, 4207.179199, 4187.179199, 4200.000000, 4198.974121, 4152.820313, 4123.589844, 4216.410156, 4210.256348, 4140.000000, 0.000000, 8204.000000, 8190.000000, 0.000000, 0.000000, 0.000000, -19977.000000, 41.538460, 4.000000, 4.000000, 4.000000, 4.000000, 4.000000, 4.000000, 4.000000, 4.000000, 0.000000, 4.000000, 4.000000, 4.000000, 4.000000, 4.000000, 4.000000, 4.000000
73.000000, 0.000000, 4226.153809, 4246.666504, 4236.922852, 4230.769043, 4211.794922, 4217.436035, 4191.281738, 4199.487305, 4201.025391, 4153.333008, 4118.974121, 4218.461426, 4210.769043, 4138.461426, 2965.000000, 8202.000000, 8184.000000, 0.000000, 0.000000, 0.000000, -19977.000000, 49.743587, 4.000000, 4.000000, 4.000000, 4.000000, 4.000000, 4.000000, 4.000000, 4.000000, 0.000000, 4.000000, 4.000000, 4.000000, 4.000000, 4.000000, 4.000000, 4.000000
74.000000, 0.000000, 4216.922852, 4242.563965, 4233.333008, 4223.589844, 4209.743652, 4216.410156, 4186.666504, 4183.076660, 4203.076660, 4157.948730, 4113.333008, 4208.205078, 4207.179199, 4128.205078, 3582.000000, 8202.000000, 8184.000000, 0.000000, 0.000000, 0.000000, -19977.000000, 57.435898, 4.000000, 4.000000, 4.000000, 4.000000, 4.000000, 4.000000, 4.000000, 4.000000, 0.000000, 4.000000, 4.000000, 4.000000, 4.000000, 4.000000, 4.000000, 4.000000
75.000000, 0.000000, 4206.666504, 4226.666504, 4219.487305, 4210.256348, 4198.974121, 4215.384277, 4182.051270, 4175.384277, 4202.051270, 4158.974121, 4107.692383, 4193.846191, 4200.000000, 4120.000000, 3505.000000, 8198.000000, 8179.000000, 0.000000, 0.000000, 0.000000, -19977.000000, 65.641022, 4.000000, 4.000000, 4.000000, 4.000000, 4.000000, 4.000000, 4.000000, 4.000000, 0.000000, 4.000000, 4.000000, 4.000000, 4.000000, 4.000000, 4.000000, 4.000000
76.000000, 0.000000, 4196.922852, 4218.974121, 4202.563965, 4199.487305, 4197.948730, 4220.512695, 4186.153809, 4183.589844, 4200.512695, 4155.897461, 4107.179199, 4186.666504, 4198.974121, 4117.436035, 3526.000000, 8198.000000, 8179.000000, 0.000000, 0.000000, 0.000000, -19977.000000, 73.333328, 4.000000, 4.000000, 4.000000, 4.000000, 4.000000, 4.000000, 4.000000, 4.000000, 0.000000, 4.000000, 4.000000, 4.000000, 4.000000, 4.000000, 4.000000, 4.000000
77.000000, 0.000000, 4195.897461, 4221.025391, 4196.410156, 4200.512695, 4202.563965, 4224.615234, 4190.256348, 4185.641113, 4201.025391, 4154.358887, 4108.205078, 4178.974121, 4200.512695, 4115.897461, 3470.000000, 8192.000000, 8182.000000, 0.000000, 0.000000, 0.000000, -19977.000000, 81.025642, 4.000000, 4.000000, 4.000000, 4.000000, 4.000000, 4.000000, 4.000000, 4.000000, 0.000000, 4.000000, 4.000000, 4.000000, 4.000000, 4.000000, 4.000000, 4.000000
78.000000, 0.000000, 4208.205078, 4222.563965, 4205.127930, 4213.846191, 4198.461426, 4226.153809, 4187.179199, 4173.846191, 4201.538574, 4151.794922, 4108.205078, 4174.871582, 4198.974121, 4115.897461, 3582.000000, 8192.000000, 8182.000000, 0.000000, 0.000000, 0.000000, -19977.000000, 88.717949, 4.000000, 4.000000, 4.000000, 4.000000, 4.000000, 4.000000, 4.000000, 4.000000, 0.000000, 4.000000, 4.000000, 4.000000, 4.000000, 4.000000, 4.000000, 4.000000
79.000000, 0.000000, 4218.974121, 4226.666504, 4214.358887, 4223.589844, 4205.127930, 4224.102539, 4184.615234, 4173.846191, 4201.025391, 4144.102539, 4109.743652, 4181.025391, 4202.051270, 4118.974121, 3505.000000, 8200.000000, 8180.000000, 0.000000, 0.000000, 0.000000, -19977.000000, 96.923073, 4.000000, 4.000000, 4.000000, 4.000000, 4.000000, 4.000000, 4.000000, 4.000000, 0.000000, 4.000000, 4.000000, 4.000000, 4.000000, 4.000000, 4.000000, 4.000000
80.000000, 0.000000, 4218.974121, 4236.410156, 4217.948730, 4219.487305, 4216.922852, 4217.948730, 4186.153809, 4184.615234, 4201.538574, 4135.384277, 4107.692383, 4186.153809, 4200.512695, 4120.512695, 3526.000000, 8200.000000, 8180.000000, 0.000000, 0.000000, 0.000000, -19977.000000, 104.615379, 4.000000, 4.000000, 4.000000, 4.000000, 4.000000, 4.000000, 4.000000, 4.000000, 0.000000, 4.000000, 4.000000, 4.000000, 4.000000, 4.000000, 4.000000, 4.000000
81.000000, 0.000000, 4218.461426, 4236.922852, 4220.000000, 4217.948730, 4212.307617, 4215.897461, 4184.102539, 4172.307617, 4202.563965, 4126.153809, 4103.589844, 4186.153809, 4187.692383, 4120.000000, 3470.000000, 8201.000000, 8175.000000, 0.000000, 0.000000, 0.000000, -19977.000000, 112.820511, 4.000000, 4.000000, 4.000000, 4.000000, 4.000000, 4.000000, 4.000000, 4.000000, 0.000000, 4.000000, 4.000000, 4.000000, 4.000000, 4.000000, 4.000000, 4.000000
82.000000, 0.000000, 4223.589844, 4233.333008, 4224.615234, 4224.102539, 4210.769043, 4216.922852, 4182.563965, 4149.230469, 4201.025391, 4122.051270, 4104.102539, 4187.692383, 4184.615234, 4122.051270, 3582.000000, 8201.000000, 8175.000000, 0.000000, 0.000000, 0.000000, -19977.000000, 120.512817, 4.000000, 4.000000, 4.000000, 4.000000, 4.000000, 4.000000, 4.000000, 4.000000, 0.000000, 4.000000, 4.000000, 4.000000, 4.000000, 4.000000, 4.000000, 4.000000
83.000000, 0.000000, 4224.102539, 4234.358887, 4221.538574, 4214.358887, 4217.436035, 4217.436035, 4184.102539, 4157.436035, 4201.538574, 4127.692383, 4105.127930, 4188.717773, 4187.692383, 4124.102539, 3505.000000, 8201.000000, 8178.000000, 0.000000, 0.000000, 0.000000, -19977.000000, 128.717941, 4.000000, 4.000000, 4.000000, 4.000000, 4.000000, 4.000000, 4.000000, 4.000000, 0.000000, 4.000000, 4.000000, 4.000000, 4.000000, 4.000000, 4.000000, 4.000000
84.000000, 0.000000, 4213.846191, 4229.230469, 4206.153809, 4195.897461, 4207.179199, 4216.410156, 4183.076660, 4172.820313, 4203.589844, 4134.871582, 4102.563965, 4182.563965, 4182.051270, 4118.974121, 3526.000000, 8201.000000, 8178.000000, 0.000000, 0.000000, 0.000000, -19977.000000, 136.410248, 4.000000, 4.000000, 4.000000, 4.000000, 4.000000, 4.000000, 4.000000, 4.000000, 0.000000, 4.000000, 4.000000, 4.000000, 4.000000, 4.000000, 4.000000, 4.000000
85.000000, 0.000000, 4214.871582, 4230.256348, 4207.692383, 4199.487305, 4198.461426, 4217.948730, 4186.666504, 4173.846191, 4203.076660, 4150.256348, 4108.717773, 4178.974121, 4187.692383, 4117.948730, 3470.000000, 8200.000000, 8168.000000, 0.000000, 0.000000, 0.000000, -19977.000000, 144.102554, 4.000000, 4.000000, 4.000000, 4.000000, 4.000000, 4.000000, 4.000000, 4.000000, 0.000000, 4.000000, 4.000000, 4.000000, 4.000000, 4.000000, 4.000000, 4.000000
86.000000, 0.000000, 4228.717773, 4241.025391, 4226.153809, 4217.436035, 4209.230469, 4218.461426, 4196.922852, 4192.307617, 4201.538574, 4178.461426, 4132.820313, 4190.769043, 4212.820313, 4131.794922, 3582.000000, 8200.000000, 8168.000000, 0.000000, 0.000000, 0.000000, -19977.000000, 151.794861, 4.000000, 4.000000, 4.000000, 4.000000, 4.000000, 4.000000, 4.000000, 4.000000, 0.000000, 4.000000, 4.000000, 4.000000, 4.000000, 4.000000, 4.000000, 4.000000
87.000000, 0.000000, 4233.846191, 4246.666504, 4231.281738, 4218.974121, 4213.846191, 4216.922852, 4203.589844, 4214.871582, 4201.025391, 4195.384277, 4155.384277, 4204.615234, 4229.743652, 4143.589844, 3505.000000, 8198.000000, 8169.000000, 0.000000, 0.000000, 0.000000, -19977.000000, 160.000000, 4.000000, 4.000000, 4.000000, 4.000000, 4.000000, 4.000000, 4.000000, 4.000000, 0.000000, 4.000000, 4.000000, 4.000000, 4.000000, 4.000000, 4.000000, 4.000000
88.000000, 0.000000, 4232.307617, 4246.666504, 4228.717773, 4216.410156, 4202.563965, 4218.461426, 4201.538574, 4206.153809, 4201.025391, 4190.256348, 4158.461426, 4200.512695, 4230.769043, 4141.538574, 3526.000000, 8198.000000, 8169.000000, 0.000000, 0.000000, 0.000000, -19977.000000, 168.205124, 4.000000, 4.000000, 4.000000, 4.000000, 4.000000, 4.000000, 4.000000, 4.000000, 0.000000, 4.000000, 4.000000, 4.000000, 4.000000, 4.000000, 4.000000, 4.000000
89.000000, 0.000000, 4231.794922, 4244.615234, 4227.179199, 4223.076660, 4197.436035, 4214.358887, 4190.256348, 4186.153809, 4200.512695, 4185.641113, 4154.358887, 4185.641113, 4231.794922, 4138.461426, 3470.000000, 8205.000000, 8165.000000, 0.000000, 0.000000, 0.000000, -19977.000000, 175.897430, 4.000000, 4.000000, 4.000000, 4.000000, 4.000000, 4.000000, 4.000000, 4.000000, 0.000000, 4.000000, 4.000000, 4.000000, 4.000000, 4.000000, 4.000000, 4.000000
90.000000, 0.000000, 4231.281738, 4249.743652, 4224.615234, 4223.589844, 4211.794922, 4210.769043, 4184.615234, 4184.102539, 4201.025391, 4186.153809, 4156.922852, 4188.205078, 4231.794922, 4143.589844, 3582.000000, 8205.000000, 8165.000000, 0.000000, 0.000000, 0.000000, -19977.000000, 183.589737, 4.000000, 4.000000, 4.000000, 4.000000, 4.000000, 4.000000, 4.000000, 4.000000, 0.000000, 4.000000, 4.000000, 4.000000, 4.000000, 4.000000, 4.000000, 4.000000
91.000000, 0.000000, 4226.153809, 4256.410156, 4217.948730, 4216.922852, 4220.512695, 4217.948730, 4192.820313, 4179.487305, 4203.076660, 4174.358887, 4152.820313, 4192.820313, 4221.025391, 4143.076660, 3505.000000, 8207.000000, 8156.000000, 0.000000, 0.000000, 0.000000, -19977.000000, 191.794861, 4.000000, 4.000000, 4.000000, 4.000000, 4.000000, 4.000000, 4.000000, 4.000000, 0.000000, 4.000000, 4.000000, 4.000000, 4.000000, 4.000000, 4.000000, 4.000000
92.000000, 0.000000, 4216.410156, 4252.307617, 4209.743652, 4213.333008, 4205.641113, 4216.922852, 4190.769043, 4165.127930, 4202.563965, 4155.897461, 4140.512695, 4174.871582, 4205.641113, 4128.205078, 3526.000000, 8207.000000, 8156.000000, 0.000000, 0.000000, 0.000000, -19977.000000, 199.487167, 4.000000, 4.000000, 4.000000, 4.000000, 4.000000, 4.000000, 4.000000, 4.000000, 0.000000, 4.000000, 4.000000, 4.000000, 4.000000, 4.000000, 4.000000, 4.000000
93.000000, 0.000000, 4213.333008, 4247.692383, 4212.307617, 4214.871582, 4201.538574, 4212.307617, 4182.563965, 4164.615234, 4200.000000, 4151.794922, 4132.307617, 4155.897461, 4198.461426, 4118.461426, 3470.000000, 8204.000000, 8155.000000, 0.000000, 0.000000, 0.000000, -19977.000000, 207.692307, 4.000000, 4.000000, 4.000000, 4.000000, 4.000000, 4.000000, 4.000000, 4.000000, 0.000000, 4.000000, 4.000000, 4.000000, 4.000000, 4.000000, 4.000000, 4.000000
94.000000, 0.000000, 4218.461426, 4253.846191, 4220.512695, 4218.974121, 4215.897461, 4220.000000, 4191.281738, 4172.820313, 4201.025391, 4157.948730, 4127.692383, 4152.820313, 4202.051270, 4120.512695, 3582.000000, 8204.000000, 8155.000000, 0.000000, 0.000000, 0.000000, -19977.000000, 215.384613, 4.000000, 4.000000, 4.000000, 4.000000, 4.000000, 4.000000, 4.000000, 4.000000, 0.000000, 4.000000, 4.000000, 4.000000, 4.000000, 4.000000, 4.000000, 4.000000
95.000000, 0.000000, 4221.538574, 4255.897461, 4218.974121, 4219.487305, 4211.281738, 4226.153809, 4202.051270, 4176.410156, 4203.589844, 4153.846191, 4126.666504, 4153.333008, 4205.641113, 4120.512695, 3505.000000, 8201.000000, 8153.000000, 0.000000, 0.000000, 0.000000, -19977.000000, 223.076920, 4.000000, 4.000000, 4.000000, 4.000000, 4.000000, 4.000000, 4.000000, 4.000000, 0.000000, 4.000000, 4.000000, 4.000000, 4.000000, 4.000000, 4.000000, 4.000000
96.000000, 0.000000, 4218.461426, 4247.692383, 4211.794922, 4216.922852, 4198.461426, 4218.461426, 4200.000000, 4180.512695, 4202.051270, 4148.205078, 4134.871582, 4150.769043, 4209.230469, 4117.948730, 3526.000000, 8201.000000, 8153.000000, 0.000000, 0.000000, 0.000000, -19977.000000, 231.282043, 4.000000, 4.000000, 4.000000, 4.000000, 4.000000, 4.000000, 4.000000, 4.000000, 0.000000, 4.000000, 4.000000, 4.000000, 4.000000, 4.000000, 4.000000, 4.000000
97.000000, 0.000000, 4215.897461, 4246.153809, 4207.179199, 4216.410156, 4200.512695, 4216.410156, 4202.051270, 4180.000000, 4200.512695, 4150.769043, 4138.461426, 4151.281738, 4212.820313, 4120.000000, 3470.000000, 8208.000000, 8139.000000, 0.000000, 0.000000, 0.000000, -19977.000000, 238.974350, 4.000000, 4.000000, 4.000000, 4.000000, 4.000000, 4.000000, 4.000000, 4.000000, 0.000000, 4.000000, 4.000000, 4.000000, 4.000000, 4.000000, 4.000000, 4.000000
98.000000, 0.000000, 4217.436035, 4251.281738, 4210.769043, 4218.461426, 4203.076660, 4225.127930, 4202.051270, 4170.256348, 4201.025391, 4150.769043, 4138.461426, 4161.538574, 4213.846191, 4125.127930, 3582.000000, 8208.000000, 8139.000000, 0.000000, 0.000000, 0.000000, -19977.000000, 246.666656, 4.000000, 4.000000, 4.000000, 4.000000, 4.000000, 4.000000, 4.000000, 4.000000, 0.000000, 4.000000, 4.000000, 4.000000, 4.000000, 4.000000, 4.000000, 4.000000
99.000000, 0.000000, 4222.051270, 4251.281738, 4218.461426, 4220.000000, 4204.615234, 4228.205078, 4188.205078, 4168.717773, 4201.025391, 4150.256348, 4145.127930, 4175.384277, 4216.922852, 4134.871582, 3505.000000, 8209.000000, 8132.000000, 0.000000, 0.000000, 0.000000, -19977.000000, 254.871796, 4.000000, 4.000000, 4.000000, 4.000000, 4.000000, 4.000000, 4.000000, 4.000000, 0.000000, 4.000000, 4.000000, 4.000000, 4.000000, 4.000000, 4.000000, 4.000000
100.000000, 0.000000, 4225.641113, 4251.281738, 4221.025391, 4220.000000, 4202.563965, 4215.384277, 4181.025391, 4171.281738, 4202.051270, 4150.769043, 4150.769043, 4174.871582, 4224.102539, 4141.025391, 3526.000000, 8209.000000, 8132.000000, 0.000000, 0.000000, 0.000000, -19977.000000, 262.564087, 4.000000, 4.000000, 4.000000, 4.000000, 4.000000, 4.000000, 4.000000, 4.000000, 0.000000, 4.000000, 4.000000, 4.000000, 4.000000, 4.000000, 4.000000, 4.000000
101.000000, 0.000000, 4228.205078, 4255.897461, 4221.025391, 4222.563965, 4194.358887, 4205.641113, 4184.615234, 4167.179199, 4202.051270, 4149.743652, 4151.794922, 4172.307617, 4228.205078, 4140.512695, 3470.000000, 8213.000000, 8096.000000, 0.000000, 0.000000, 0.000000, -19977.000000, 270.256409, 4.000000, 4.000000, 4.000000, 4.000000, 4.000000, 4.000000, 4.000000, 4.000000, 0.000000, 4.000000, 4.000000, 4.000000, 4.000000, 4.000000, 4.000000, 4.000000
102.000000, 0.000000, 4232.307617, 4260.000000, 4223.076660, 4230.256348, 4198.974121, 4210.769043, 4186.666504, 4171.794922, 4201.025391, 4157.948730, 4152.820313, 4178.974121, 4230.769043, 4142.563965, 3582.000000, 8213.000000, 8096.000000, 0.000000, 0.000000, 0.000000, -19977.000000, 277.948700, 4.000000, 4.000000, 4.000000, 4.000000, 4.000000, 4.000000, 4.000000, 4.000000, 0.000000, 4.000000, 4.000000, 4.000000, 4.000000, 4.000000, 4.000000, 4.000000
103.000000, 0.000000, 4231.794922, 4261.538574, 4221.538574, 4229.743652, 4209.230469, 4216.410156, 4192.820313, 4190.256348, 4202.563965, 4174.358887, 4156.410156, 4178.461426, 4238.974121, 4144.102539, 3505.000000, 8219.000000, 8062.000000, 0.000000, 0.000000, 0.000000, -19977.000000, 286.153839, 4.000000, 4.000000, 4.000000, 4.000000, 4.000000, 4.000000, 4.000000, 4.000000, 0.000000, 4.000000, 4.000000, 4.000000, 4.000000, 4.000000, 4.000000, 4.000000
104.000000, 0.000000, 4229.230469, 4263.589844, 4215.897461, 4219.487305, 4205.641113, 4215.897461, 4202.051270, 4202.051270, 4203.589844, 4183.589844, 4162.563965, 4171.794922, 4248.205078, 4143.076660, 3526.000000, 8219.000000, 8062.000000, 0.000000, 0.000000, 0.000000, -19977.000000, 293.846161, 4.000000, 4.000000, 4.000000, 4.000000, 4.000000, 4.000000, 4.000000, 4.000000, 0.000000, 4.000000, 4.000000, 4.000000, 4.000000, 4.000000, 4.000000, 4.000000
105.000000, 0.000000, 4229.230469, 4265.641113, 4211.794922, 4216.922852, 4199.487305, 4217.948730, 4203.076660, 4204.615234, 4201.538574, 4185.641113, 4163.076660, 4167.692383, 4248.717773, 4143.076660, 3470.000000, 8225.000000, 7964.000000, 0.000000, 0.000000, 0.000000, -19977.000000, 302.051270, 4.000000, 4.000000, 4.000000, 4.000000, 4.000000, 4.000000, 4.000000, 4.000000, 0.000000, 4.000000, 4.000000, 4.000000, 4.000000, 4.000000, 4.000000, 4.000000
106.000000, 0.000000, 4225.127930, 4270.256348, 4207.692383, 4218.461426, 4200.000000, 4219.487305, 4205.127930, 4198.974121, 4201.538574, 4182.051270, 4157.436035, 4164.615234, 4246.153809, 4138.461426, 3582.000000, 8225.000000, 7964.000000, 0.000000, 0.000000, 0.000000, -19977.000000, 309.743591, 4.000000, 4.000000, 4.000000, 4.000000, 4.000000, 4.000000, 4.000000, 4.000000, 0.000000, 4.000000, 4.000000, 4.000000, 4.000000, 4.000000, 4.000000, 4.000000
107.000000, 0.000000, 4222.051270, 4270.769043, 4207.179199, 4218.974121, 4200.512695, 4218.461426, 4209.230469, 4187.179199, 4202.563965, 4172.820313, 4156.922852, 4166.153809, 4248.717773, 4137.436035, 3505.000000, 8233.000000, 7931.000000, 0.000000, 0.000000, 0.000000, -19977.000000, 317.948700, 4.000000, 4.000000, 4.000000, 4.000000, 4.000000, 4.000000, 4.000000, 4.000000, 0.000000, 4.000000, 4.000000, 4.000000, 4.000000, 4.000000, 4.000000, 4.000000
108.000000, 0.000000, 4228.717773, 4268.717773, 4215.897461, 4223.589844, 4206.666504, 4221.025391, 4207.179199, 4191.794922, 4201.538574, 4169.743652, 4158.974121, 4175.897461, 4251.794922, 4148.717773, 3526.000000, 8233.000000, 7931.000000, 0.000000, 0.000000, 0.000000, -19977.000000, 325.641022, 4.000000, 4.000000, 4.000000, 4.000000, 4.000000, 4.000000, 4.000000, 4.000000, 0.000000, 4.000000, 4.000000, 4.000000, 4.000000, 4.000000, 4.000000, 4.000000
109.000000, 0.000000, 4233.846191, 4270.769043, 4221.025391, 4231.794922, 4211.281738, 4229.743652, 4207.692383, 4202.051270, 4201.025391, 4175.897461, 4159.487305, 4179.487305, 4250.769043, 4155.897461, 3470.000000, 8240.000000, 7907.000000, 0.000000, 0.000000, 0.000000, -19977.000000, 333.846161, 4.000000, 4.000000, 4.000000, 4.000000, 4.000000, 4.000000, 4.000000, 4.000000, 0.000000, 4.000000, 4.000000, 4.000000, 4.000000, 4.000000, 4.000000, 4.000000
110.000000, 0.000000, 4231.281738, 4274.358887, 4221.025391, 4232.820313, 4204.102539, 4232.307617, 4209.230469, 4193.846191, 4201.538574, 4182.563965, 4162.563965, 4173.333008, 4250.769043, 4153.846191, 3582.000000, 8240.000000, 7907.000000, 0.000000, 0.000000, 0.000000, -19977.000000, 341.538452, 4.000000, 4.000000, 4.000000, 4.000000, 4.000000, 4.000000, 4.000000, 4.000000, 0.000000, 4.000000, 4.000000, 4.000000, 4.000000, 4.000000, 4.000000, 4.000000
111.000000, 0.000000, 4228.205078, 4267.692383, 4219.487305, 4224.102539, 4198.974121, 4221.025391, 4199.487305, 4197.948730, 4201.538574, 4186.666504, 4158.461426, 4169.743652, 4252.820313, 4151.794922, 3505.000000, 8265.000000, 7915.000000, 0.000000, 0.000000, 0.000000, -19977.000000, 349.743591, 4.000000, 4.000000, 4.000000, 4.000000, 4.000000, 4.000000, 4.000000, 4.000000, 0.000000, 4.000000, 4.000000, 4.000000, 4.000000, 4.000000, 4.000000, 4.000000
112.000000, 0.000000, 4226.666504, 4254.871582, 4213.846191, 4216.410156, 4201.538574, 4214.871582, 4196.410156, 4216.410156, 4201.025391, 4192.307617, 4156.922852, 4170.256348, 4251.281738, 4151.281738, 3526.000000, 8265.000000, 7915.000000, 0.000000, 0.000000, 0.000000, -19977.000000, 357.435883, 4.000000, 4.000000, 4.000000, 4.000000, 4.000000, 4.000000, 4.000000, 4.000000, 0.000000, 4.000000, 4.000000, 4.000000, 4.000000, 4.000000, 4.000000, 4.000000
113.000000, 0.000000, 4229.743652, 4261.025391, 4214.358887, 4216.922852, 4201.538574, 4219.487305, 4204.102539, 4201.538574, 4201.538574, 4198.974121, 4164.102539, 4171.281738, 4249.743652, 4152.307617, 3470.000000, 8276.000000, 7942.000000, 0.000000, 0.000000, 0.000000, -19977.000000, 365.128204, 4.000000, 4.000000, 4.000000, 4.000000, 4.000000, 4.000000, 4.000000, 4.000000, 0.000000, 4.000000, 4.000000, 4.000000, 4.000000, 4.000000, 4.000000, 4.000000
114.000000, 0.000000, 4230.769043, 4273.846191, 4215.897461, 4216.922852, 4194.871582, 4214.871582, 4199.487305, 4181.025391, 4201.025391, 4200.000000, 4161.025391, 4170.769043, 4251.281738, 4150.256348, 3582.000000, 8276.000000, 7942.000000, 0.000000, 0.000000, 0.000000, -19977.000000, 373.333313, 4.000000, 4.000000, 4.000000, 4.000000, 4.000000, 4.000000, 4.000000, 4.000000, 0.000000, 4.000000, 4.000000, 4.000000, 4.000000, 4.000000, 4.000000, 4.000000
115.000000, 0.000000, 4222.563965, 4270.769043, 4208.205078, 4212.820313, 4186.666504, 4208.717773, 4187.179199, 4185.127930, 4201.025391, 4189.743652, 4152.307617, 4167.692383, 4246.153809, 4138.974121, 3505.000000, 8283.000000, 7992.000000, 0.000000, 0.000000, 0.000000, -19977.000000, 381.025635, 4.000000, 4.000000, 4.000000, 4.000000, 4.000000, 4.000000, 4.000000, 4.000000, 0.000000, 4.000000, 4.000000, 4.000000, 4.000000, 4.000000, 4.000000, 4.000000
116.000000, 0.000000, 4220.512695, 4266.666504, 4206.666504, 4215.897461, 4185.127930, 4210.769043, 4186.666504, 4174.871582, 4201.538574, 4181.025391, 4151.281738, 4167.692383, 4238.461426, 4138.461426, 3526.000000, 8283.000000, 7992.000000, 0.000000, 0.000000, 0.000000, -19977.000000, 388.717926, 4.000000, 4.000000, 4.000000, 4.000000, 4.000000, 4.000000, 4.000000, 4.000000, 0.000000, 4.000000, 4.000000, 4.000000, 4.000000, 4.000000, 4.000000, 4.000000
117.000000, 0.000000, 4231.281738, 4274.358887, 4213.846191, 4221.538574, 4190.256348, 4210.256348, 4193.846191, 4166.153809, 4201.025391, 4189.230469, 4157.948730, 4173.333008, 4240.512695, 4151.794922, 3470.000000, 8290.000000, 8008.000000, 0.000000, 0.000000, 0.000000, -19977.000000, 396.923065, 4.000000, 4.000000, 4.000000, 4.000000, 4.000000, 4.000000, 4.000000, 4.000000, 0.000000, 4.000000, 4.000000, 4.000000, 4.000000, 4.000000, 4.000000, 4.000000
118.000000, 0.000000, 4236.410156, 4277.948730, 4217.436035, 4219.487305, 4193.846191, 4209.230469, 4197.948730, 4180.000000, 4201.025391, 4198.974121, 4166.153809, 4177.948730, 4246.153809, 4155.897461, 3582.000000, 8290.000000, 8008.000000, 0.000000, 0.000000, 0.000000, -19977.000000, 404.615387, 4.000000, 4.000000, 4.000000, 4.000000, 4.000000, 4.000000, 4.000000, 4.000000, 0.000000, 4.000000, 4.000000, 4.000000, 4.000000, 4.000000, 4.000000, 4.000000
119.000000, 0.000000, 4233.333008, 4273.333008, 4214.358887, 4217.948730, 4192.820313, 4215.384277, 4195.384277, 4177.948730, 4201.538574, 4197.436035, 4172.307617, 4176.410156, 4249.230469, 4155.897461, 3505.000000, 8289.000000, 8034.000000, 0.000000, 0.000000, 0.000000, -19977.000000, 412.820496, 4.000000, 4.000000, 4.000000, 4.000000, 4.000000, 4.000000, 4.000000, 4.000000, 0.000000, 4.000000, 4.000000, 4.000000, 4.000000, 4.000000, 4.000000, 4.000000
120.000000, 0.000000, 4232.820313, 4270.769043, 4210.256348, 4217.436035, 4185.127930, 4218.461426, 4190.769043, 4162.051270, 4201.025391, 4197.948730, 4171.281738, 4173.846191, 4252.307617, 4162.051270, 3526.000000, 8289.000000, 8034.000000, 0.000000, 0.000000, 0.000000, -19977.000000, 420.512817, 4.000000, 4.000000, 4.000000, 4.000000, 4.000000, 4.000000, 4.000000, 4.000000, 0.000000, 4.000000, 4.000000, 4.000000, 4.000000, 4.000000, 4.000000, 4.000000
121.000000, 0.000000, 4228.717773, 4266.153809, 4211.281738, 4213.846191, 4179.487305, 4213.333008, 4191.794922, 4174.358887, 4201.025391, 4207.179199, 4170.769043, 4175.384277, 4255.384277, 4162.563965, 3470.000000, 8289.000000, 8049.000000, 0.000000, 0.000000, 0.000000, -19977.000000, 428.205109, 4.000000, 4.000000, 4.000000, 4.000000, 4.000000, 4.000000, 4.000000, 4.000000, 0.000000, 4.000000, 4.000000, 4.000000, 4.000000, 4.000000, 4.000000, 4.000000
122.000000, 0.000000, 4230.769043, 4268.205078, 4217.948730, 4215.897461, 4192.307617, 4216.410156, 4198.974121, 4201.538574, 4202.563965, 4219.487305, 4185.127930, 4184.615234, 4269.743652, 4170.769043, 3582.000000, 8289.000000, 8049.000000, 0.000000, 0.000000, 0.000000, -19977.000000, 435.897430, 4.000000, 4.000000, 4.000000, 4.000000, 4.000000, 4.000000, 4.000000, 4.000000, 0.000000, 4.000000, 4.000000, 4.000000, 4.000000, 4.000000, 4.000000, 4.000000
123.000000, 0.000000, 4242.051270, 4283.589844, 4221.538574, 4225.641113, 4207.179199, 4228.205078, 4203.589844, 4210.256348, 4201.538574, 4226.153809, 4197.436035, 4190.256348, 4283.076660, 4186.153809, 3505.000000, 8290.000000, 8065.000000, 0.000000, 0.000000, 0.000000, -19977.000000, 444.102539, 4.000000, 4.000000, 4.000000, 4.000000, 4.000000, 4.000000, 4.000000, 4.000000, 0.000000, 4.000000, 4.000000, 4.000000, 4.000000, 4.000000, 4.000000, 4.000000
124.000000, 0.000000, 4238.974121, 4285.127930, 4213.333008, 4221.538574, 4202.051270, 4231.794922, 4201.538574, 4190.769043, 4201.538574, 4213.333008, 4186.153809, 4177.436035, 4267.179199, 4175.384277, 3526.000000, 8290.000000, 8065.000000, 0.000000, 0.000000, 0.000000, -19977.000000, 451.794861, 4.000000, 4.000000, 4.000000, 4.000000, 4.000000, 4.000000, 4.000000, 4.000000, 0.000000, 4.000000, 4.000000, 4.000000, 4.000000, 4.000000, 4.000000, 4.000000
125.000000, 0.000000, 4226.153809, 4272.307617, 4203.076660, 4205.127930, 4189.230469, 4222.563965, 4196.922852, 4178.461426, 4204.102539, 4198.461426, 4166.153809, 4162.563965, 4241.538574, 4153.846191, 3470.000000, 8275.000000, 8067.000000, 0.000000, 0.000000, 0.000000, -19977.000000, 459.487183, 4.000000, 4.000000, 4.000000, 4.000000, 4.000000, 4.000000, 4.000000, 4.000000, 0.000000, 4.000000, 4.000000, 4.000000, 4.000000, 4.000000, 4.000000, 4.000000
126.000000, 0.000000, 4226.153809, 4274.358887, 4209.743652, 4202.051270, 4184.102539, 4216.410156, 4200.000000, 4197.948730, 4203.076660, 4202.051270, 4164.102539, 4167.179199, 4240.000000, 4161.538574, 3582.000000, 8275.000000, 8067.000000, 0.000000, 0.000000, 0.000000, -19977.000000, 467.692291, 4.000000, 4.000000, 4.000000, 4.000000, 4.000000, 4.000000, 4.000000, 4.000000, 0.000000, 4.000000, 4.000000, 4.000000, 4.000000, 4.000000, 4.000000, 4.000000
127.000000, 0.000000, 4237.436035, 4285.641113, 4222.051270, 4212.820313, 4183.076660, 4216.922852, 4200.512695, 4201.538574, 4201.025391, 4206.666504, 4173.846191, 4178.974121, 4253.846191, 4181.025391, 56.000000, 8269.000000, 8073.000000, 0.000000, 0.000000, 0.000000, -19977.000000, 475.384613, 4.000000, 4.000000, 4.000000, 4.000000, 4.000000, 4.000000, 4.000000, 4.000000, 0.000000, 4.000000, 4.000000, 4.000000, 4.000000, 4.000000, 4.000000, 4.000000
0.000000, 0.000000, 4247.179199, 4289.230469, 4223.589844, 4221.538574, 4184.102539, 4210.256348, 4188.717773, 4172.820313, 4201.538574, 4207.179199, 4181.025391, 4183.076660, 4262.563965, 4185.127930, 3183.000000, 8269.000000, 8073.000000, 0.000000, 0.000000, 0.000000, -19977.000000, 483.076904, 4.000000, 4.000000, 4.000000, 4.000000, 4.000000, 4.000000, 4.000000, 4.000000, 0.000000, 4.000000, 4.000000, 4.000000, 4.000000, 4.000000, 4.000000, 4.000000
1.000000, 0.000000, 4252.820313, 4295.384277, 4223.076660, 4229.230469, 4187.179199, 4205.641113, 4182.563965, 4162.051270, 4202.051270, 4213.333008, 4185.641113, 4184.102539, 4265.127930, 4190.769043, 3541.000000, 8254.000000, 8093.000000, 0.000000, 0.000000, 0.000000, -19977.000000, 490.769226, 4.000000, 4.000000, 4.000000, 4.000000, 4.000000, 4.000000, 4.000000, 4.000000, 0.000000, 4.000000, 4.000000, 4.000000, 4.000000, 4.000000, 4.000000, 4.000000
2.000000, 0.000000, 4255.384277, 4301.025391, 4227.179199, 4230.769043, 4192.307617, 4211.281738, 4192.820313, 4175.897461, 4201.538574, 4213.846191, 4189.230469, 4188.717773, 4267.692383, 4200.512695, 3563.000000, 8254.000000, 8093.000000, 0.000000, 0.000000, 0.000000, -19977.000000, 498.974335, 4.000000, 4.000000, 4.000000, 4.000000, 4.000000, 4.000000, 4.000000, 4.000000, 0.000000, 4.000000, 4.000000, 4.000000, 4.000000, 4.000000, 4.000000, 4.000000
3.000000, 0.000000, 4248.717773, 4293.846191, 4220.512695, 4220.512695, 4185.641113, 4211.794922, 4199.487305, 4170.256348, 4202.051270, 4205.127930, 4188.717773, 4189.743652, 4268.205078, 4194.871582, 2550.000000, 8250.000000, 8095.000000, 0.000000, 0.000000, 0.000000, -19977.000000, 506.666656, 4.000000, 4.000000, 4.000000, 4.000000, 4.000000, 4.000000, 4.000000, 4.000000, 0.000000, 4.000000, 4.000000, 4.000000, 4.000000, 4.000000, 4.000000, 4.000000
4.000000, 0.000000, 4234.358887, 4276.922852, 4202.563965, 4212.820313, 4169.230469, 4201.025391, 4195.897461, 4154.358887, 4201.538574, 4195.897461, 4180.512695, 4180.512695, 4256.410156, 4174.871582, 3549.000000, 8250.000000, 8095.000000, 0.000000, 0.000000, 0.000000, -19977.000000, 514.358948, 4.000000, 4.000000, 4.000000, 4.000000, 4.000000, 4.000000, 4.000000, 4.000000, 0.000000, 4.000000, 4.000000, 4.000000, 4.000000, 4.000000, 4.000000, 4.000000
5.000000, 0.000000, 4227.692383, 4267.692383, 4198.461426, 4215.897461, 4173.333008, 4198.974121, 4201.538574, 4161.538574, 4201.025391, 4186.666504, 4169.230469, 4170.769043, 4247.179199, 4166.153809, 3578.000000, 8246.000000, 8096.000000, 0.000000, 0.000000, 0.000000, -19977.000000, 522.564087, 4.000000, 4.000000, 4.000000, 4.000000, 4.000000, 4.000000, 4.000000, 4.000000, 0.000000, 4.000000, 4.000000, 4.000000, 4.000000, 4.000000, 4.000000, 4.000000
6.000000, 0.000000, 4233.846191, 4275.897461, 4208.205078, 4216.410156, 4188.205078, 4205.641113, 4200.512695, 4172.307617, 4202.051270, 4187.692383, 4171.281738, 4170.256348, 4256.410156, 4176.922852, 3444.000000, 8246.000000, 8096.000000, 0.000000, 0.000000, 0.000000, -19977.000000, 530.256409, 4.000000, 4.000000, 4.000000, 4.000000, 4.000000, 4.000000, 4.000000, 4.000000, 0.000000, 4.000000, 4.000000, 4.000000, 4.000000, 4.000000, 4.000000, 4.000000
7.000000, 0.000000, 4237.948730, 4285.641113, 4212.307617, 4218.461426, 4186.666504, 4201.538574, 4184.615234, 4176.410156, 4202.563965, 4205.641113, 4185.127930, 4172.307617, 4268.717773, 4186.666504, 3510.000000, 8243.000000, 8089.000000, 0.000000, 0.000000, 0.000000, -19977.000000, 538.461548, 4.000000, 4.000000, 4.000000, 4.000000, 4.000000, 4.000000, 4.000000, 4.000000, 0.000000, 4.000000, 4.000000, 4.000000, 4.000000, 4.000000, 4.000000, 4.000000
8.000000, 0.000000, 4237.436035, 4287.179199, 4215.384277, 4225.641113, 4183.589844, 4198.974121, 4185.127930, 4187.692383, 4202.051270, 4216.922852, 4190.256348, 4178.974121, 4277.948730, 4188.717773, 0.000000, 8243.000000, 8089.000000, 0.000000, 0.000000, 0.000000, -19977.000000, 546.153809, 4.000000, 4.000000, 4.000000, 4.000000, 4.000000, 4.000000, 4.000000, 4.000000, 0.000000, 4.000000, 4.000000, 4.000000, 4.000000, 4.000000, 4.000000, 4.000000
9.000000, 0.000000, 4237.948730, 4278.461426, 4216.922852, 4222.051270, 4187.179199, 4209.230469, 4200.512695, 4199.487305, 4201.025391, 4211.794922, 4186.153809, 4185.127930, 4283.589844, 4189.230469, 2963.000000, 8243.000000, 8081.000000, 0.000000, 0.000000, 0.000000, -19977.000000, 553.846130, 4.000000, 4.000000, 4.000000, 4.000000, 4.000000, 4.000000, 4.000000, 4.000000, 0.000000, 4.000000, 4.000000, 4.000000, 4.000000, 4.000000, 4.000000, 4.000000
10.000000, 0.000000, 4231.281738, 4271.281738, 4205.641113, 4213.846191, 4185.641113, 4217.948730, 4202.563965, 4188.205078, 4201.025391, 4210.256348, 4185.641113, 4177.948730, 4272.820313, 4183.589844, 3583.000000, 8243.000000, 8081.000000, 0.000000, 0.000000, 0.000000, -19977.000000, 562.051270, 4.000000, 4.000000, 4.000000, 4.000000, 4.000000, 4.000000, 4.000000, 4.000000, 0.000000, 4.000000, 4.000000, 4.000000, 4.000000, 4.000000, 4.000000, 4.000000
11.000000, 0.000000, 4217.948730, 4272.820313, 4193.846191, 4210.769043, 4186.666504, 4216.410156, 4204.102539, 4167.692383, 4202.051270, 4207.692383, 4187.179199, 4168.717773, 4254.358887, 4175.384277, 3550.000000, 8239.000000, 8075.000000, 0.000000, 0.000000, 0.000000, -19977.000000, 569.743591, 4.000000, 4.000000, 4.000000, 4.000000, 4.000000, 4.000000, 4.000000, 4.000000, 0.000000, 4.000000, 4.000000, 4.000000, 4.000000, 4.000000, 4.000000, 4.000000
12.000000, 0.000000, 4214.358887, 4271.281738, 4196.410156, 4210.256348, 4178.974121, 4215.897461, 4213.846191, 4164.102539, 4202.051270, 4190.769043, 4178.974121, 4170.256348, 4244.102539, 4174.358887, 3526.000000, 8239.000000, 8075.000000, 0.000000, 0.000000, 0.000000, -19977.000000, 577.435913, 4.000000, 4.000000, 4.000000, 4.000000, 4.000000, 4.000000, 4.000000, 4.000000, 0.000000, 4.000000, 4.000000, 4.000000, 4.000000, 4.000000, 4.000000, 4.000000
13.000000, 0.000000, 4222.563965, 4269.230469, 4205.127930, 4214.358887, 4164.102539, 4215.897461, 4214.358887, 4169.230469, 4202.051270, 4178.461426, 4167.692383, 4170.256348, 4235.897461, 4176.922852, 3473.000000, 8233.000000, 8075.000000, 0.000000, 0.000000, 0.000000, -19977.000000, 585.128174, 4.000000, 4.000000, 4.000000, 4.000000, 4.000000, 4.000000, 4.000000, 4.000000, 0.000000, 4.000000, 4.000000, 4.000000, 4.000000, 4.000000, 4.000000, 4.000000
14.000000, 0.000000, 4234.871582, 4277.436035, 4212.307617, 4225.127930, 4173.846191, 4213.846191, 4207.692383, 4168.717773, 4202.563965, 4186.153809, 4173.333008, 4170.256348, 4231.281738, 4182.563965, 3583.000000, 8233.000000, 8075.000000, 0.000000, 0.000000, 0.000000, -19977.000000, 593.333313, 4.000000, 4.000000, 4.000000, 4.000000, 4.000000, 4.000000, 4.000000, 4.000000, 0.000000, 4.000000, 4.000000, 4.000000, 4.000000, 4.000000, 4.000000, 4.000000
15.000000, 0.000000, 4235.384277, 4282.563965, 4214.358887, 4225.641113, 4189.230469, 4213.333008, 4200.512695, 4157.948730, 4202.051270, 4191.281738, 4180.000000, 4172.307617, 4220.000000, 4183.589844, 3550.000000, 8230.000000, 8088.000000, 0.000000, 0.000000, 0.000000, -19977.000000, 601.025635, 4.000000, 4.000000, 4.000000, 4.000000, 4.000000, 4.000000, 4.000000, 4.000000, 0.000000, 4.000000, 4.000000, 4.000000, 4.000000, 4.000000, 4.000000, 4.000000
16.000000, 0.000000, 4216.410156, 4267.692383, 4198.974121, 4207.692383, 4186.153809, 4217.948730, 4201.025391, 4158.974121, 4201.025391, 4184.102539, 4168.717773, 4162.051270, 4194.358887, 4169.230469, 0.000000, 8230.000000, 8088.000000, 0.000000, 0.000000, 0.000000, -19977.000000, 609.230774, 4.000000, 4.000000, 4.000000, 4.000000, 4.000000, 4.000000, 4.000000, 4.000000, 0.000000, 4.000000, 4.000000, 4.000000, 4.000000, 4.000000, 4.000000, 4.000000
17.000000, 0.000000, 4203.076660, 4255.897461, 4182.051270, 4196.922852, 4181.538574, 4232.820313, 4222.051270, 4189.230469, 4201.025391, 4191.794922, 4162.563965, 4156.410156, 4187.179199, 4162.051270, 0.000000, 8225.000000, 8091.000000, 0.000000, 0.000000, 0.000000, -19977.000000, 616.923035, 4.000000, 4.000000, 4.000000, 4.000000, 4.000000, 4.000000, 4.000000, 4.000000, 0.000000, 4.000000, 4.000000, 4.000000, 4.000000, 4.000000, 4.000000, 4.000000
18.000000, 0.000000, 4209.230469, 4267.179199, 4187.692383, 4207.179199, 4186.153809, 4243.589844, 4234.871582, 4209.743652, 4201.025391, 4206.153809, 4176.922852, 4167.179199, 4206.153809, 4170.769043, 0.000000, 8225.000000, 8091.000000, 0.000000, 0.000000, 0.000000, -19977.000000, 624.615356, 4.000000, 4.000000, 4.000000, 4.000000, 4.000000, 4.000000, 4.000000, 4.000000, 0.000000, 4.000000, 4.000000, 4.000000, 4.000000, 4.000000, 4.000000, 4.000000
19.000000, 0.000000, 4213.333008, 4277.948730, 4195.897461, 4219.487305, 4193.333008, 4236.922852, 4224.615234, 4197.948730, 4201.538574, 4206.153809, 4187.179199, 4172.820313, 4217.948730, 4172.307617, 0.000000, 8223.000000, 8092.000000, 0.000000, 0.000000, 0.000000, -19977.000000, 632.820496, 4.000000, 4.000000, 4.000000, 4.000000, 4.000000, 4.000000, 4.000000, 4.000000, 0.000000, 4.000000, 4.000000, 4.000000, 4.000000, 4.000000, 4.000000, 4.000000
20.000000, 0.000000, 4211.281738, 4275.897461, 4196.410156, 4216.922852, 4200.512695, 4232.820313, 4227.179199, 4196.922852, 4202.051270, 4200.000000, 4182.563965, 4168.205078, 4211.794922, 4167.179199, 0.000000, 8223.000000, 8092.000000, 0.000000, 0.000000, 0.000000, -19977.000000, 640.512817, 4.000000, 4.000000, 4.000000, 4.000000, 4.000000, 4.000000, 4.000000, 4.000000, 0.000000, 4.000000, 4.000000, 4.000000, 4.000000, 4.000000, 4.000000, 4.000000
21.000000, 0.000000, 4215.384277, 4273.846191, 4202.563965, 4217.948730, 4201.025391, 4243.076660, 4238.461426, 4224.615234, 4203.076660, 4201.538574, 4185.641113, 4175.897461, 4213.333008, 4168.205078, 0.000000, 8218.000000, 8099.000000, 0.000000, 0.000000, 0.000000, -19977.000000, 648.205139, 4.000000, 4.000000, 4.000000, 4.000000, 4.000000, 4.000000, 4.000000, 4.000000, 0.000000, 4.000000, 4.000000, 4.000000, 4.000000, 4.000000, 4.000000, 4.000000
22.000000, 0.000000, 4221.538574, 4277.436035, 4208.717773, 4227.692383, 4198.974121, 4241.538574, 4225.127930, 4221.025391, 4204.102539, 4207.692383, 4197.436035, 4187.692383, 4231.281738, 4174.871582, 0.000000, 8218.000000, 8099.000000, 0.000000, 0.000000, 0.000000, -19977.000000, 655.897400, 4.000000, 4.000000, 4.000000, 4.000000, 4.000000, 4.000000, 4.000000, 4.000000, 0.000000, 4.000000, 4.000000, 4.000000, 4.000000, 4.000000, 4.000000, 4.000000
23.000000, 0.000000, 4222.051270, 4276.410156, 4206.666504, 4225.127930, 4198.974121, 4229.230469, 4211.794922, 4190.256348, 4203.076660, 4201.538574, 4189.743652, 4183.076660, 4222.051270, 4170.256348, 0.000000, 8218.000000, 8105.000000, 0.000000, 0.000000, 0.000000, -19977.000000, 664.102539, 4.000000, 4.000000, 4.000000, 4.000000, 4.000000, 4.000000, 4.000000, 4.000000, 0.000000, 4.000000, 4.000000, 4.000000, 4.000000, 4.000000, 4.000000, 4.000000
24.000000, 0.000000, 4211.281738, 4263.076660, 4200.000000, 4210.769043, 4194.358887, 4225.127930, 4218.974121, 4178.461426, 4202.563965, 4183.076660, 4168.205078, 4172.307617, 4186.153809, 4153.846191, 0.000000, 8218.000000, 8105.000000, 0.000000, 0.000000, 0.000000, -19977.000000, 672.307678, 4.000000, 4.000000, 4.000000, 4.000000, 4.000000, 4.000000, 4.000000, 4.000000, 0.000000, 4.000000, 4.000000, 4.000000, 4.000000, 4.000000, 4.000000, 4.000000
25.000000, 0.000000, 4201.538574, 4257.948730, 4196.410156, 4209.743652, 4184.615234, 4221.538574, 4212.820313, 4168.205078, 4202.563965, 4175.897461, 4163.076660, 4169.743652, 4185.127930, 4150.769043, 0.000000, 8214.000000, 8102.000000, 0.000000, 0.000000, 0.000000, -19977.000000, 680.000000, 4.000000, 4.000000, 4.000000, 4.000000, 4.000000, 4.000000, 4.000000, 4.000000, 0.000000, 4.000000, 4.000000, 4.000000, 4.000000, 4.000000, 4.000000, 4.000000
26.000000, 0.000000, 4209.230469, 4264.615234, 4203.076660, 4217.948730, 4180.000000, 4212.307617, 4198.461426, 4158.974121, 4201.538574, 4188.717773, 4176.410156, 4178.461426, 4215.897461, 4167.179199, 0.000000, 8214.000000, 8102.000000, 0.000000, 0.000000, 0.000000, -19977.000000, 687.692261, 4.000000, 4.000000, 4.000000, 4.000000, 4.000000, 4.000000, 4.000000, 4.000000, 0.000000, 4.000000, 4.000000, 4.000000, 4.000000, 4.000000, 4.000000, 4.000000
27.000000, 0.000000, 4219.487305, 4261.538574, 4208.717773, 4219.487305, 4190.769043, 4215.384277, 4207.692383, 4165.641113, 4200.000000, 4200.000000, 4192.307617, 4185.641113, 4226.666504, 4178.461426, 0.000000, 8209.000000, 8097.000000, 0.000000, 0.000000, 0.000000, -19977.000000, 695.897400, 4.000000, 4.000000, 4.000000, 4.000000, 4.000000, 4.000000, 4.000000, 4.000000, 0.000000, 4.000000, 4.000000, 4.000000, 4.000000, 4.000000, 4.000000, 4.000000
28.000000, 0.000000, 4224.102539, 4260.000000, 4209.743652, 4222.563965, 4204.102539, 4225.641113, 4223.076660, 4173.333008, 4200.512695, 4207.179199, 4202.563965, 4187.179199, 4231.794922, 4181.538574, 0.000000, 8209.000000, 8097.000000, 0.000000, 0.000000, 0.000000, -19977.000000, 703.589722, 4.000000, 4.000000, 4.000000, 4.000000, 4.000000, 4.000000, 4.000000, 4.000000, 0.000000, 4.000000, 4.000000, 4.000000, 4.000000, 4.000000, 4.000000, 4.000000
29.000000, 0.000000, 4226.153809, 4263.589844, 4212.820313, 4227.692383, 4205.127930, 4223.076660, 4217.436035, 4171.794922, 4201.538574, 4213.846191, 4204.615234, 4186.153809, 4248.205078, 4186.666504, 0.000000, 8210.000000, 8098.000000, 0.000000, 0.000000, 0.000000, -19977.000000, 711.794861, 4.000000, 4.000000, 4.000000, 4.000000, 4.000000, 4.000000, 4.000000, 4.000000, 0.000000, 4.000000, 4.000000, 4.000000, 4.000000, 4.000000, 4.000000, 4.000000
30.000000, 0.000000, 4220.000000, 4251.794922, 4212.307617, 4217.948730, 4196.410156, 4218.461426, 4213.333008, 4181.538574, 4202.051270, 4210.769043, 4200.000000, 4175.897461, 4250.256348, 4179.487305, 0.000000, 8210.000000, 8098.000000, 0.000000, 0.000000, 0.000000, -19977.000000, 719.487183, 4.000000, 4.000000, 4.000000, 4.000000, 4.000000, 4.000000, 4.000000, 4.000000, 0.000000, 4.000000, 4.000000, 4.000000, 4.000000, 4.000000, 4.000000, 4.000000
31.000000, 0.000000, 4212.820313, 4237.436035, 4206.666504, 4204.615234, 4190.256348, 4220.512695, 4222.051270, 4196.922852, 4202.051270, 4204.102539, 4198.974121, 4166.666504, 4246.666504, 4168.205078, 0.000000, 8199.000000, 8106.000000, 0.000000, 0.000000, 0.000000, -19977.000000, 727.179443, 4.000000, 4.000000, 4.000000, 4.000000, 4.000000, 4.000000, 4.000000, 4.000000, 0.000000, 4.000000, 4.000000, 4.000000, 4.000000, 4.000000, 4.000000, 4.000000
32.000000, 0.000000, 4210.769043, 4231.794922, 4197.948730, 4201.025391, 4185.641113, 4218.974121, 4220.000000, 4199.487305, 4201.538574, 4202.563965, 4205.127930, 4171.794922, 4252.307617, 4172.820313, 0.000000, 8199.000000, 8106.000000, 0.000000, 0.000000, 0.000000, -19977.000000, 734.871765, 4.000000, 4.000000, 4.000000, 4.000000, 4.000000, 4.000000, 4.000000, 4.000000, 0.000000, 4.000000, 4.000000, 4.000000, 4.000000, 4.000000, 4.000000, 4.000000
33.000000, 0.000000, 4209.230469, 4223.589844, 4194.871582, 4200.512695, 4182.563965, 4211.281738, 4211.794922, 4198.974121, 4202.051270, 4205.127930, 4215.384277, 4185.641113, 4261.025391, 4183.589844, 0.000000, 8198.000000, 8109.000000, 0.000000, 0.000000, 0.000000, -19977.000000, 743.076904, 4.000000, 4.000000, 4.000000, 4.000000, 4.000000, 4.000000, 4.000000, 4.000000, 0.000000, 4.000000, 4.000000, 4.000000, 4.000000, 4.000000, 4.000000, 4.000000
34.000000, 0.000000, 4217.948730, 4221.025391, 4202.563965, 4206.666504, 4190.769043, 4211.281738, 4215.897461, 4208.205078, 4203.076660, 4220.000000, 4235.384277, 4201.538574, 4280.000000, 4201.538574, 0.000000, 8198.000000, 8109.000000, 0.000000, 0.000000, 0.000000, -19977.000000, 750.769226, 4.000000, 4.000000, 4.000000, 4.000000, 4.000000, 4.000000, 4.000000, 4.000000, 0.000000, 4.000000, 4.000000, 4.000000, 4.000000, 4.000000, 4.000000, 4.000000
35.000000, 0.000000, 4236.410156, 4230.256348, 4218.974121, 4221.025391, 4203.589844, 4218.461426, 4221.025391, 4214.871582, 4202.563965, 4244.615234, 4263.589844, 4222.051270, 4306.666504, 4228.717773, 0.000000, 8195.000000, 8123.000000, 0.000000, 0.000000, 0.000000, -19977.000000, 758.974365, 4.000000, 4.000000, 4.000000, 4.000000, 4.000000, 4.000000, 4.000000, 4.000000, 0.000000, 4.000000, 4.000000, 4.000000, 4.000000, 4.000000, 4.000000, 4.000000
36.000000, 0.000000, 4238.974121, 4228.717773, 4224.102539, 4220.000000, 4200.000000, 4218.461426, 4215.897461, 4202.563965, 4201.538574, 4248.717773, 4269.743652, 4226.666504, 4307.179199, 4237.436035, 0.000000, 8195.000000, 8123.000000, 0.000000, 0.000000, 0.000000, -19977.000000, 766.666626, 4.000000, 4.000000, 4.000000, 4.000000, 4.000000, 4.000000, 4.000000, 4.000000, 0.000000, 4.000000, 4.000000, 4.000000, 4.000000, 4.000000, 4.000000, 4.000000
37.000000, 0.000000, 4228.717773, 4211.281738, 4211.281738, 4207.692383, 4187.179199, 4214.358887, 4215.897461, 4199.487305, 4203.076660, 4234.358887, 4251.281738, 4208.717773, 4284.615234, 4219.487305, 0.000000, 8193.000000, 8129.000000, 0.000000, 0.000000, 0.000000, -19977.000000, 774.358948, 4.000000, 4.000000, 4.000000, 4.000000, 4.000000, 4.000000, 4.000000, 4.000000, 0.000000, 4.000000, 4.000000, 4.000000, 4.000000, 4.000000, 4.000000, 4.000000
38.000000, 0.000000, 4221.538574, 4205.127930, 4202.563965, 4208.205078, 4184.102539, 4214.871582, 4220.000000, 4203.076660, 4203.589844, 4233.333008, 4246.153809, 4195.897461, 4278.461426, 4209.743652, 0.000000, 8193.000000, 8129.000000, 0.000000, 0.000000, 0.000000, -19977.000000, 782.051270, 4.000000, 4.000000, 4.000000, 4.000000, 4.000000, 4.000000, 4.000000, 4.000000, 0.000000, 4.000000, 4.000000, 4.000000, 4.000000, 4.000000, 4.000000, 4.000000
39.000000, 0.000000, 4216.410156, 4207.179199, 4202.563965, 4212.820313, 4183.076660, 4214.871582, 4213.846191, 4180.000000, 4201.538574, 4238.461426, 4252.307617, 4200.512695, 4287.692383, 4215.897461, 0.000000, 8192.000000, 8135.000000, 0.000000, 0.000000, 0.000000, -19977.000000, 790.256409, 4.000000, 4.000000, 4.000000, 4.000000, 4.000000, 4.000000, 4.000000, 4.000000, 0.000000, 4.000000, 4.000000, 4.000000, 4.000000, 4.000000, 4.000000, 4.000000
40.000000, 0.000000, 4214.871582, 4198.974121, 4201.538574, 4210.769043, 4181.538574, 4209.230469, 4210.769043, 4167.692383, 4202.051270, 4231.281738, 4252.820313, 4213.333008, 4291.794922, 4218.461426, 0.000000, 8192.000000, 8135.000000, 0.000000, 0.000000, 0.000000, -19977.000000, 797.948669, 4.000000, 4.000000, 4.000000, 4.000000, 4.000000, 4.000000, 4.000000, 4.000000, 0.000000, 4.000000, 4.000000, 4.000000, 4.000000, 4.000000, 4.000000, 4.000000
41.000000, 0.000000, 4217.436035, 4192.820313, 4205.641113, 4211.281738, 4186.666504, 4207.179199, 4213.333008, 4184.102539, 4203.076660, 4227.692383, 4255.897461, 4223.076660, 4292.307617, 4217.948730, 0.000000, 8198.000000, 8149.000000, 0.000000, 0.000000, 0.000000, -19977.000000, 806.153809, 4.000000, 4.000000, 4.000000, 4.000000, 4.000000, 4.000000, 4.000000, 4.000000, 0.000000, 4.000000, 4.000000, 4.000000, 4.000000, 4.000000, 4.000000, 4.000000
42.000000, 0.000000, 4218.974121, 4191.281738, 4208.717773, 4211.794922, 4188.717773, 4204.102539, 4205.641113, 4186.153809, 4203.076660, 4231.794922, 4258.974121, 4222.051270, 4292.820313, 4217.948730, 0.000000, 8198.000000, 8149.000000, 0.000000, 0.000000, 0.000000, -19977.000000, 813.846130, 4.000000, 4.000000, 4.000000, 4.000000, 4.000000, 4.000000, 4.000000, 4.000000, 0.000000, 4.000000, 4.000000, 4.000000, 4.000000, 4.000000, 4.000000, 4.000000
43.000000, 0.000000, 4217.436035, 4188.205078, 4204.102539, 4215.384277, 4184.615234, 4201.025391, 4204.102539, 4190.769043, 4203.589844, 4233.333008, 4257.948730, 4219.487305, 4290.769043, 4218.974121, 0.000000, 8195.000000, 8154.000000, 0.000000, 0.000000, 0.000000, -19977.000000, 821.538452, 4.000000, 4.000000, 4.000000, 4.000000, 4.000000, 4.000000, 4.000000, 4.000000, 0.000000, 4.000000, 4.000000, 4.000000, 4.000000, 4.000000, 4.000000, 4.000000
44.000000, 0.000000, 4212.307617, 4185.127930, 4202.051270, 4216.922852, 4184.615234, 4208.205078, 4219.487305, 4221.025391, 4203.589844, 4241.025391, 4256.922852, 4217.436035, 4290.256348, 4217.436035, 0.000000, 8195.000000, 8154.000000, 0.000000, 0.000000, 0.000000, -19977.000000, 829.743591, 4.000000, 4.000000, 4.000000, 4.000000, 4.000000, 4.000000, 4.000000, 4.000000, 0.000000, 4.000000, 4.000000, 4.000000, 4.000000, 4.000000, 4.000000, 4.000000
45.000000, 0.000000, 4205.641113, 4180.000000, 4195.897461, 4208.205078, 4185.641113, 4217.436035, 4223.076660, 4235.384277, 4202.051270, 4251.281738, 4252.820313, 4203.589844, 4281.538574, 4207.179199, 0.000000, 8198.000000, 8159.000000, 0.000000, 0.000000, 0.000000, -19977.000000, 837.435852, 4.000000, 4.000000, 4.000000, 4.000000, 4.000000, 4.000000, 4.000000, 4.000000, 0.000000, 4.000000, 4.000000, 4.000000, 4.000000, 4.000000, 4.000000, 4.000000
46.000000, 0.000000, 4195.384277, 4172.307617, 4176.922852, 4197.948730, 4182.563965, 4214.871582, 4212.820313, 4231.281738, 4201.025391, 4248.205078, 4244.615234, 4183.076660, 4265.641113, 4188.717773, 0.000000, 8198.000000, 8159.000000, 0.000000, 0.000000, 0.000000, -19977.000000, 845.128174, 4.000000, 4.000000, 4.000000, 4.000000, 4.000000, 4.000000, 4.000000, 4.000000, 0.000000, 4.000000, 4.000000, 4.000000, 4.000000, 4.000000, 4.000000, 4.000000
47.000000, 0.000000, 4183.589844, 4164.615234, 4165.641113, 4194.871582, 4179.487305, 4209.230469, 4213.333008, 4230.256348, 4201.538574, 4242.051270, 4241.538574, 4176.922852, 4264.102539, 4182.051270, 0.000000, 8198.000000, 8164.000000, 0.000000, 0.000000, 0.000000, -19977.000000, 853.333313, 4.000000, 4.000000, 4.000000, 4.000000, 4.000000, 4.000000, 4.000000, 4.000000, 0.000000, 4.000000, 4.000000, 4.000000, 4.000000, 4.000000, 4.000000, 4.000000
48.000000, 0.000000, 4188.205078, 4167.179199, 4177.948730, 4199.487305, 4183.076660, 4210.769043, 4214.871582, 4221.538574, 4201.025391, 4247.692383, 4251.281738, 4195.384277, 4277.436035, 4198.974121, 0.000000, 8198.000000, 8164.000000, 0.000000, 0.000000, 0.000000, -19977.000000, 861.538452, 4.000000, 4.000000, 4.000000, 4.000000, 4.000000, 4.000000, 4.000000, 4.000000, 0.000000, 4.000000, 4.000000, 4.000000, 4.000000, 4.000000, 4.000000, 4.000000
49.000000, 0.000000, 4212.820313, 4175.384277, 4198.974121, 4212.820313, 4184.102539, 4215.384277, 4212.820313, 4215.384277, 4201.025391, 4253.333008, 4266.666504, 4225.127930, 4287.692383, 4221.538574, 0.000000, 8207.000000, 8171.000000, 0.000000, 0.000000, 0.000000, -19977.000000, 869.230774, 4.000000, 4.000000, 4.000000, 4.000000, 4.000000, 4.000000, 4.000000, 4.000000, 0.000000, 4.000000, 4.000000, 4.000000, 4.000000, 4.000000, 4.000000, 4.000000
50.000000, 0.000000, 4219.487305, 4167.692383, 4202.563965, 4218.974121, 4174.871582, 4216.922852, 4216.410156, 4210.256348, 4202.563965, 4242.563965, 4263.076660, 4229.743652, 4277.948730, 4223.076660, 0.000000, 8207.000000, 8171.000000, 0.000000, 0.000000, 0.000000, -19977.000000, 876.923035, 4.000000, 4.000000, 4.000000, 4.000000, 4.000000, 4.000000, 4.000000, 4.000000, 0.000000, 4.000000, 4.000000, 4.000000, 4.000000, 4.000000, 4.000000, 4.000000
51.000000, 0.000000, 4205.641113, 4159.487305, 4193.846191, 4212.820313, 4173.333008, 4210.256348, 4213.846191, 4187.179199, 4204.102539, 4228.205078, 4247.692383, 4213.846191, 4263.589844, 4211.794922, 0.000000, 8202.000000, 8179.000000, 0.000000, 0.000000, 0.000000, -19977.000000, 884.615356, 4.000000, 4.000000, 4.000000, 4.000000, 4.000000, 4.000000, 4.000000, 4.000000, 0.000000, 4.000000, 4.000000, 4.000000, 4.000000, 4.000000, 4.000000, 4.000000
52.000000, 0.000000, 4207.692383, 4166.153809, 4191.794922, 4212.820313, 4185.127930, 4204.102539, 4208.205078, 4174.358887, 4202.563965, 4228.717773, 4246.666504, 4212.820313, 4267.179199, 4215.384277, 0.000000, 8202.000000, 8179.000000, 0.000000, 0.000000, 0.000000, -19977.000000, 892.820496, 4.000000, 4.000000, 4.000000, 4.000000, 4.000000, 4.000000, 4.000000, 4.000000, 0.000000, 4.000000, 4.000000, 4.000000, 4.000000, 4.000000, 4.000000, 4.000000
53.000000, 0.000000, 4214.358887, 4165.641113, 4195.384277, 4218.461426, 4187.179199, 4203.589844, 4209.743652, 4185.641113, 4201.538574, 4233.333008, 4249.230469, 4215.897461, 4270.769043, 4217.948730, 0.000000, 8199.000000, 8182.000000, 0.000000, 0.000000, 0.000000, -19977.000000, 900.512817, 4.000000, 4.000000, 4.000000, 4.000000, 4.000000, 4.000000, 4.000000, 4.000000, 0.000000, 4.000000, 4.000000, 4.000000, 4.000000, 4.000000, 4.000000, 4.000000
54.000000, 0.000000, 4206.153809, 4157.436035, 4196.922852, 4216.922852, 4183.076660, 4201.538574, 4206.666504, 4188.205078, 4201.538574, 4238.974121, 4251.281738, 4202.563965, 4261.538574, 4207.179199, 0.000000, 8199.000000, 8182.000000, 0.000000, 0.000000, 0.000000, -19977.000000, 908.205078, 4.000000, 4.000000, 4.000000, 4.000000, 4.000000, 4.000000, 4.000000, 4.000000, 0.000000, 4.000000, 4.000000, 4.000000, 4.000000, 4.000000, 4.000000, 4.000000
55.000000, 0.000000, 4201.538574, 4158.974121, 4192.820313, 4213.846191, 4182.563965, 4200.000000, 4200.000000, 4181.025391, 4202.051270, 4246.153809, 4257.948730, 4198.974121, 4259.487305, 4204.615234, 0.000000, 8194.000000, 8202.000000, 0.000000, 0.000000, 0.000000, -19977.000000, 916.410217, 4.000000, 4.000000, 4.000000, 4.000000, 4.000000, 4.000000, 4.000000, 4.000000, 0.000000, 4.000000, 4.000000, 4.000000, 4.000000, 4.000000, 4.000000, 4.000000
56.000000, 0.000000, 4204.615234, 4163.076660, 4193.333008, 4217.436035, 4176.922852, 4197.948730, 4201.025391, 4185.127930, 4201.538574, 4244.102539, 4253.846191, 4211.281738, 4265.127930, 4211.794922, 0.000000, 8194.000000, 8202.000000, 0.000000, 0.000000, 0.000000, -19977.000000, 924.102539, 4.000000, 4.000000, 4.000000, 4.000000, 4.000000, 4.000000, 4.000000, 4.000000, 0.000000, 4.000000, 4.000000, 4.000000, 4.000000, 4.000000, 4.000000, 4.000000
57.000000, 0.000000, 4202.563965, 4161.025391, 4195.384277, 4215.897461, 4170.769043, 4191.281738, 4201.025391, 4195.384277, 4201.538574, 4241.025391, 4251.794922, 4218.974121, 4260.512695, 4214.358887, 0.000000, 8186.000000, 8224.000000, 0.000000, 0.000000, 0.000000, -19977.000000, 931.794861, 4.000000, 4.000000, 4.000000, 4.000000, 4.000000, 4.000000, 4.000000, 4.000000, 0.000000, 4.000000, 4.000000, 4.000000, 4.000000, 4.000000, 4.000000, 4.000000
58.000000, 0.000000, 4198.974121, 4158.461426, 4187.692383, 4205.641113, 4170.769043, 4187.179199, 4195.897461, 4198.461426, 4201.538574, 4239.487305, 4255.897461, 4216.410156, 4253.333008, 4211.794922, 0.000000, 8186.000000, 8224.000000, 0.000000, 0.000000, 0.000000, -19977.000000, 940.000000, 4.000000, 4.000000, 4.000000, 4.000000, 4.000000, 4.000000, 4.000000, 4.000000, 0.000000, 4.000000, 4.000000, 4.000000, 4.000000, 4.000000, 4.000000, 4.000000
59.000000, 0.000000, 4194.871582, 4154.871582, 4181.025391, 4204.102539, 4169.743652, 4191.794922, 4200.512695, 4198.974121, 4201.538574, 4229.230469, 4241.025391, 4214.871582, 4245.127930, 4203.589844, 0.000000, 8181.000000, 8256.000000, 0.000000, 0.000000, 0.000000, -19977.000000, 947.692261, 4.000000, 4.000000, 4.000000, 4.000000, 4.000000, 4.000000, 4.000000, 4.000000, 0.000000, 4.000000, 4.000000, 4.000000, 4.000000, 4.000000, 4.000000, 4.000000
60.000000, 0.000000, 4190.769043, 4147.692383, 4184.102539, 4214.358887, 4168.717773, 4198.974121, 4213.333008, 4213.333008, 4201.538574, 4225.641113, 4230.256348, 4214.871582, 4235.897461, 4196.922852, 0.000000, 8181.000000, 8256.000000, 0.000000, 0.000000, 0.000000, -19977.000000, 955.384583, 4.000000, 4.000000, 4.000000, 4.000000, 4.000000, 4.000000, 4.000000, 4.000000, 0.000000, 4.000000, 4.000000, 4.000000, 4.000000, 4.000000, 4.000000, 4.000000
61.000000, 0.000000, 4195.897461, 4154.871582, 4189.743652, 4216.922852, 4171.281738, 4203.589844, 4218.461426, 4222.563965, 4201.538574, 4235.897461, 4248.205078, 4208.717773, 4248.717773, 4200.512695, 0.000000, 8180.000000, 8266.000000, 0.000000, 0.000000, 0.000000, -19977.000000, 963.589722, 4.000000, 4.000000, 4.000000, 4.000000, 4.000000, 4.000000, 4.000000, 4.000000, 0.000000, 4.000000, 4.000000, 4.000000, 4.000000, 4.000000, 4.000000, 4.000000
62.000000, 0.000000, 4202.051270, 4167.692383, 4189.230469, 4214.871582, 4174.871582, 4197.948730, 4218.461426, 4210.256348, 4201.538574, 4234.358887, 4257.948730, 4208.205078, 4265.641113, 4203.076660, 0.000000, 8180.000000, 8266.000000, 0.000000, 0.000000, 0.000000, -19977.000000, 971.282043, 4.000000, 4.000000, 4.000000, 4.000000, 4.000000, 4.000000, 4.000000, 4.000000, 0.000000, 4.000000, 4.000000, 4.000000, 4.000000, 4.000000, 4.000000, 4.000000
63.000000, 0.000000, 4201.538574, 4162.051270, 4188.717773, 4212.820313, 4170.256348, 4188.717773, 4218.461426, 4205.641113, 4201.538574, 4230.769043, 4258.461426, 4213.846191, 4263.589844, 4203.076660, 0.000000, 8175.000000, 8267.000000, 0.000000, 0.000000, 0.000000, -19977.000000, 979.487183, 4.000000, 4.000000, 4.000000, 4.000000, 4.000000, 4.000000, 4.000000, 4.000000, 0.000000, 4.000000, 4.000000, 4.000000, 4.000000, 4.000000, 4.000000, 4.000000
64.000000, 0.000000, 4198.974121, 4153.846191, 4191.281738, 4206.153809, 4163.589844, 4192.820313, 4215.384277, 4215.384277, 4201.538574, 4241.025391, 4268.717773, 4217.436035, 4268.717773, 4214.871582, 3181.000000, 8175.000000, 8267.000000, 0.000000, 0.000000, 0.000000, -19977.000000, 987.179443, 4.000000, 4.000000, 4.000000, 4.000000, 4.000000, 4.000000, 4.000000, 4.000000, 0.000000, 4.000000, 4.000000, 4.000000, 4.000000, 4.000000, 4.000000, 4.000000
65.000000, 0.000000, 4201.025391, 4158.461426, 4190.256348, 4207.179199, 4173.846191, 4203.076660, 4215.384277, 4216.922852, 4201.538574, 4248.205078, 4269.743652, 4226.666504, 4290.769043, 4226.153809, 3540.000000, 8179.000000, 8258.000000, 0.000000, 0.000000, 0.000000, -19977.000000, 995.384583, 4.000000, 4.000000, 4.000000, 4.000000, 4.000000, 4.000000, 4.000000, 4.000000, 0.000000, 4.000000, 4.000000, 4.000000, 4.000000, 4.000000, 4.000000, 4.000000
66.000000, 0.000000, 4204.102539, 4162.051270, 4189.230469, 4216.922852, 4185.127930, 4202.563965, 4220.512695, 4214.871582, 4201.538574, 4248.717773, 4267.692383, 4234.358887, 4300.000000, 4224.615234, 3563.000000, 8179.000000, 8258.000000, 0.000000, 0.000000, 0.000000, -19976.000000, 3.076923, 4.000000, 4.000000, 4.000000, 4.000000, 4.000000, 4.000000, 4.000000, 4.000000, 0.000000, 4.000000, 4.000000, 4.000000, 4.000000, 4.000000, 4.000000, 4.000000
67.000000, 0.000000, 4201.025391, 4157.436035, 4184.615234, 4215.384277, 4176.922852, 4197.436035, 4217.948730, 4218.461426, 4202.051270, 4243.589844, 4269.230469, 4224.102539, 4298.974121, 4218.461426, 2556.000000, 8178.000000, 8251.000000, 0.000000, 0.000000, 0.000000, -19976.000000, 11.282051, 4.000000, 4.000000, 4.000000, 4.000000, 4.000000, 4.000000, 4.000000, 4.000000, 0.000000, 4.000000, 4.000000, 4.000000, 4.000000, 4.000000, 4.000000, 4.000000
68.000000, 0.000000, 4197.436035, 4158.974121, 4181.538574, 4209.230469, 4171.281738, 4198.461426, 4210.769043, 4215.384277, 4201.538574, 4233.846191, 4264.102539, 4211.794922, 4307.179199, 4215.897461, 3546.000000, 8178.000000, 8251.000000, 0.000000, 0.000000, 0.000000, -19976.000000, 18.974358, 4.000000, 4.000000, 4.000000, 4.000000, 4.000000, 4.000000, 4.000000, 4.000000, 0.000000, 4.000000, 4.000000, 4.000000, 4.000000, 4.000000, 4.000000, 4.000000
69.000000, 0.000000, 4198.461426, 4161.025391, 4184.102539, 4209.743652, 4175.384277, 4201.538574, 4222.563965, 4217.436035, 4201.025391, 4230.769043, 4261.025391, 4216.922852, 4311.281738, 4216.410156, 3578.000000, 8175.000000, 8236.000000, 0.000000, 0.000000, 0.000000, -19976.000000, 27.179487, 4.000000, 4.000000, 4.000000, 4.000000, 4.000000, 4.000000, 4.000000, 4.000000, 0.000000, 4.000000, 4.000000, 4.000000, 4.000000, 4.000000, 4.000000, 4.000000
70.000000, 0.000000, 4199.487305, 4150.256348, 4184.615234, 4208.205078, 4170.769043, 4197.436035, 4232.820313, 4227.179199, 4203.076660, 4241.538574, 4261.538574, 4218.974121, 4315.384277, 4215.384277, 3444.000000, 8175.000000, 8236.000000, 0.000000, 0.000000, 0.000000, -19976.000000, 34.871796, 4.000000, 4.000000, 4.000000, 4.000000, 4.000000, 4.000000, 4.000000, 4.000000, 0.000000, 4.000000, 4.000000, 4.000000, 4.000000, 4.000000, 4.000000, 4.000000
71.000000, 0.000000, 4198.974121, 4146.666504, 4184.615234, 4208.205078, 4173.846191, 4193.846191, 4223.076660, 4226.666504, 4203.589844, 4251.281738, 4263.589844, 4216.922852, 4327.692383, 4215.384277, 3499.000000, 8176.000000, 8223.000000, 0.000000, 0.000000, 0.000000, -19976.000000, 42.564102, 4.000000, 4.000000, 4.000000, 4.000000, 4.000000, 4.000000, 4.000000, 4.000000, 0.000000, 4.000000, 4.000000, 4.000000, 4.000000, 4.000000, 4.000000, 4.000000
72.000000, 0.000000, 4200.512695, 4159.487305, 4191.281738, 4214.871582, 4187.179199, 4197.948730, 4219.487305, 4227.179199, 4202.051270, 4252.307617, 4275.384277, 4225.641113, 4338.974121, 4223.589844, 0.000000, 8176.000000, 8223.000000, 0.000000, 0.000000, 0.000000, -19976.000000, 50.769230, 4.000000, 4.000000, 4.000000, 4.000000, 4.000000, 4.000000, 4.000000, 4.000000, 0.000000, 4.000000, 4.000000, 4.000000, 4.000000, 4.000000, 4.000000, 4.000000
73.000000, 0.000000, 4203.589844, 4165.127930, 4200.512695, 4217.436035, 4185.127930, 4204.102539, 4231.281738, 4245.127930, 4203.076660, 4260.000000, 4286.666504, 4233.846191, 4345.127930, 4232.820313, 2951.000000, 8179.000000, 8207.000000, 0.000000, 0.000000, 0.000000, -19976.000000, 58.461536, 4.000000, 4.000000, 4.000000, 4.000000, 4.000000, 4.000000, 4.000000, 4.000000, 0.000000, 4.000000, 4.000000, 4.000000, 4.000000, 4.000000, 4.000000, 4.000000
74.000000, 0.000000, 4206.153809, 4159.487305, 4206.153809, 4217.436035, 4183.076660, 4207.692383, 4238.461426, 4255.384277, 4205.127930, 4267.179199, 4281.025391, 4235.384277, 4343.589844, 4233.333008, 3572.000000, 8179.000000, 8207.000000, 0.000000, 0.000000, 0.000000, -19976.000000, 66.666664, 4.000000, 4.000000, 4.000000, 4.000000, 4.000000, 4.000000, 4.000000, 4.000000, 0.000000, 4.000000, 4.000000, 4.000000, 4.000000, 4.000000, 4.000000, 4.000000
75.000000, 0.000000, 4204.102539, 4159.487305, 4209.230469, 4220.512695, 4189.230469, 4207.179199, 4232.820313, 4238.974121, 4204.102539, 4258.461426, 4278.461426, 4241.538574, 4337.436035, 4233.333008, 3550.000000, 8170.000000, 8200.000000, 0.000000, 0.000000, 0.000000, -19976.000000, 74.358971, 4.000000, 4.000000, 4.000000, 4.000000, 4.000000, 4.000000, 4.000000, 4.000000, 0.000000, 4.000000, 4.000000, 4.000000, 4.000000, 4.000000, 4.000000, 4.000000
76.000000, 0.000000, 4202.051270, 4160.000000, 4207.179199, 4220.512695, 4178.974121, 4202.051270, 4229.743652, 4231.281738, 4202.051270, 4245.641113, 4281.025391, 4246.153809, 4332.307617, 4242.563965, 3517.000000, 8170.000000, 8200.000000, 0.000000, 0.000000, 0.000000, -19976.000000, 82.051277, 4.000000, 4.000000, 4.000000, 4.000000, 4.000000, 4.000000, 4.000000, 4.000000, 0.000000, 4.000000, 4.000000, 4.000000, 4.000000, 4.000000, 4.000000, 4.000000
77.000000, 0.000000, 4208.717773, 4151.794922, 4203.076660, 4216.410156, 4168.205078, 4199.487305, 4233.846191, 4227.692383, 4202.563965, 4243.076660, 4275.384277, 4238.461426, 4322.563965, 4245.127930, 3469.000000, 8172.000000, 8198.000000, 0.000000, 0.000000, 0.000000, -19976.000000, 90.256409, 4.000000, 4.000000, 4.000000, 4.000000, 4.000000, 4.000000, 4.000000, 4.000000, 0.000000, 4.000000, 4.000000, 4.000000, 4.000000, 4.000000, 4.000000, 4.000000
78.000000, 0.000000, 4211.281738, 4147.692383, 4200.000000, 4215.384277, 4180.000000, 4203.076660, 4233.846191, 4214.358887, 4203.589844, 4246.666504, 4274.871582, 4232.307617, 4316.410156, 4243.076660, 3572.000000, 8172.000000, 8198.000000, 0.000000, 0.000000, 0.000000, -19976.000000, 97.948715, 4.000000, 4.000000, 4.000000, 4.000000, 4.000000, 4.000000, 4.000000, 4.000000, 0.000000, 4.000000, 4.000000, 4.000000, 4.000000, 4.000000, 4.000000, 4.000000
79.000000, 0.000000, 4201.538574, 4151.794922, 4195.384277, 4213.846191, 4191.281738, 4204.102539, 4232.307617, 4219.487305, 4202.563965, 4248.205078, 4277.948730, 4235.897461, 4319.487305, 4245.127930, 3550.000000, 8181.000000, 8191.000000, 0.000000, 0.000000, 0.000000, -19976.000000, 105.641022, 4.000000, 4.000000, 4.000000, 4.000000, 4.000000, 4.000000, 4.000000, 4.000000, 0.000000, 4.000000, 4.000000, 4.000000, 4.000000, 4.000000, 4.000000, 4.000000
80.000000, 0.000000, 4197.436035, 4152.820313, 4193.333008, 4209.743652, 4181.025391, 4201.538574, 4232.820313, 4231.281738, 4202.051270, 4245.641113, 4267.692383, 4233.333008, 4313.846191, 4237.436035, 3517.000000, 8181.000000, 8191.000000, 0.000000, 0.000000, 0.000000, -19976.000000, 113.846153, 4.000000, 4.000000, 4.000000, 4.000000, 4.000000, 4.000000, 4.000000, 4.000000, 0.000000, 4.000000, 4.000000, 4.000000, 4.000000, 4.000000, 4.000000, 4.000000
81.000000, 0.000000, 4203.076660, 4151.794922, 4199.487305, 4211.281738, 4169.230469, 4202.051270, 4233.333008, 4221.025391, 4202.563965, 4243.076660, 4260.512695, 4226.153809, 4301.538574, 4228.717773, 3469.000000, 8180.000000, 8191.000000, 0.000000, 0.000000, 0.000000, -19976.000000, 121.538460, 4.000000, 4.000000, 4.000000, 4.000000, 4.000000, 4.000000, 4.000000, 4.000000, 0.000000, 4.000000, 4.000000, 4.000000, 4.000000, 4.000000, 4.000000, 4.000000
82.000000, 0.000000, 4202.563965, 4155.384277, 4206.153809, 4215.897461, 4175.384277, 4203.589844, 4233.846191, 4218.461426, 4202.563965, 4244.102539, 4269.743652, 4227.179199, 4301.538574, 4235.384277, 3572.000000, 8180.000000, 8191.000000, 0.000000, 0.000000, 0.000000, -19976.000000, 129.743591, 4.000000, 4.000000, 4.000000, 4.000000, 4.000000, 4.000000, 4.000000, 4.000000, 0.000000, 4.000000, 4.000000, 4.000000, 4.000000, 4.000000, 4.000000, 4.000000
83.000000, 0.000000, 4201.538574, 4160.000000, 4202.563965, 4214.871582, 4187.179199, 4204.102539, 4234.358887, 4236.410156, 4201.538574, 4247.179199, 4282.051270, 4233.333008, 4303.589844, 4245.127930, 3550.000000, 8189.000000, 8178.000000, 0.000000, 0.000000, 0.000000, -19976.000000, 137.435898, 4.000000, 4.000000, 4.000000, 4.000000, 4.000000, 4.000000, 4.000000, 4.000000, 0.000000, 4.000000, 4.000000, 4.000000, 4.000000, 4.000000, 4.000000, 4.000000
84.000000, 0.000000, 4203.076660, 4167.179199, 4195.897461, 4208.205078, 4180.512695, 4202.051270, 4232.820313, 4236.922852, 4200.512695, 4248.717773, 4280.512695, 4235.384277, 4300.000000, 4241.025391, 3517.000000, 8189.000000, 8178.000000, 0.000000, 0.000000, 0.000000, -19976.000000, 145.128204, 4.000000, 4.000000, 4.000000, 4.000000, 4.000000, 4.000000, 4.000000, 4.000000, 0.000000, 4.000000, 4.000000, 4.000000, 4.000000, 4.000000, 4.000000, 4.000000
85.000000, 0.000000, 4195.384277, 4168.717773, 4190.256348, 4203.076660, 4167.179199, 4202.563965, 4231.281738, 4226.153809, 4202.051270, 4248.717773, 4268.205078, 4232.307617, 4291.794922, 4232.307617, 3469.000000, 8191.000000, 8177.000000, 0.000000, 0.000000, 0.000000, -19976.000000, 153.333328, 4.000000, 4.000000, 4.000000, 4.000000, 4.000000, 4.000000, 4.000000, 4.000000, 0.000000, 4.000000, 4.000000, 4.000000, 4.000000, 4.000000, 4.000000, 4.000000
86.000000, 0.000000, 4190.769043, 4167.692383, 4185.641113, 4205.641113, 4177.436035, 4207.692383, 4232.820313, 4223.589844, 4203.589844, 4246.153809, 4261.538574, 4226.153809, 4283.076660, 4231.281738, 3572.000000, 8191.000000, 8177.000000, 0.000000, 0.000000, 0.000000, -19976.000000, 161.025635, 4.000000, 4.000000, 4.000000, 4.000000, 4.000000, 4.000000, 4.000000, 4.000000, 0.000000, 4.000000, 4.000000, 4.000000, 4.000000, 4.000000, 4.000000, 4.000000
87.000000, 0.000000, 4197.948730, 4176.410156, 4195.384277, 4212.307617, 4192.307617, 4206.666504, 4233.333008, 4221.025391, 4203.589844, 4242.051270, 4262.563965, 4221.538574, 4278.974121, 4234.871582, 3550.000000, 8190.000000, 8176.000000, 0.000000, 0.000000, 0.000000, -19976.000000, 169.230759, 4.000000, 4.000000, 4.000000, 4.000000, 4.000000, 4.000000, 4.000000, 4.000000, 0.000000, 4.000000, 4.000000, 4.000000, 4.000000, 4.000000, 4.000000, 4.000000
88.000000, 0.000000, 4202.051270, 4178.461426, 4202.563965, 4214.871582, 4187.179199, 4198.461426, 4233.333008, 4216.922852, 4203.076660, 4242.563965, 4262.051270, 4224.102539, 4276.410156, 4232.307617, 3517.000000, 8190.000000, 8176.000000, 0.000000, 0.000000, 0.000000, -19976.000000, 176.923065, 4.000000, 4.000000, 4.000000, 4.000000, 4.000000, 4.000000, 4.000000, 4.000000, 0.000000, 4.000000, 4.000000, 4.000000, 4.000000, 4.000000, 4.000000, 4.000000
89.000000, 0.000000, 4201.025391, 4172.820313, 4189.230469, 4214.358887, 4179.487305, 4197.436035, 4231.794922, 4217.948730, 4202.563965, 4247.179199, 4268.717773, 4232.820313, 4275.897461, 4233.333008, 3469.000000, 8192.000000, 8172.000000, 0.000000, 0.000000, 0.000000, -19976.000000, 185.128204, 4.000000, 4.000000, 4.000000, 4.000000, 4.000000, 4.000000, 4.000000, 4.000000, 0.000000, 4.000000, 4.000000, 4.000000, 4.000000, 4.000000, 4.000000, 4.000000
90.000000, 0.000000, 4204.102539, 4179.487305, 4167.179199, 4213.846191, 4181.025391, 4201.538574, 4232.307617, 4221.538574, 4203.589844, 4250.256348, 4275.384277, 4234.358887, 4276.922852, 4242.051270, 3572.000000, 8192.000000, 8172.000000, 0.000000, 0.000000, 0.000000, -19976.000000, 192.820511, 4.000000, 4.000000, 4.000000, 4.000000, 4.000000, 4.000000, 4.000000, 4.000000, 0.000000, 4.000000, 4.000000, 4.000000, 4.000000, 4.000000, 4.000000, 4.000000
91.000000, 0.000000, 4207.179199, 4190.769043, 4152.307617, 4215.384277, 4180.512695, 4199.487305, 4230.769043, 4214.358887, 4203.076660, 4248.717773, 4268.717773, 4230.256348, 4271.794922, 4247.179199, 3550.000000, 8191.000000, 8173.000000, 0.000000, 0.000000, 0.000000, -19976.000000, 200.512817, 4.000000, 4.000000, 4.000000, 4.000000, 4.000000, 4.000000, 4.000000, 4.000000, 0.000000, 4.000000, 4.000000, 4.000000, 4.000000, 4.000000, 4.000000, 4.000000
92.000000, 0.000000, 4210.769043, 4195.897461, 4148.205078, 4216.922852, 4178.974121, 4196.922852, 4223.589844, 4201.538574, 4200.512695, 4247.179199, 4265.641113, 4230.769043, 4263.076660, 4246.153809, 3517.000000, 8191.000000, 8173.000000, 0.000000, 0.000000, 0.000000, -19976.000000, 208.717941, 4.000000, 4.000000, 4.000000, 4.000000, 4.000000, 4.000000, 4.000000, 4.000000, 0.000000, 4.000000, 4.000000, 4.000000, 4.000000, 4.000000, 4.000000, 4.000000
93.000000, 0.000000, 4218.461426, 4199.487305, 4145.127930, 4220.000000, 4185.127930, 4200.000000, 4218.974121, 4210.256348, 4200.000000, 4249.743652, 4269.230469, 4227.179199, 4262.563965, 4246.666504, 3469.000000, 8185.000000, 8185.000000, 0.000000, 0.000000, 0.000000, -19976.000000, 216.410248, 4.000000, 4.000000, 4.000000, 4.000000, 4.000000, 4.000000, 4.000000, 4.000000, 0.000000, 4.000000, 4.000000, 4.000000, 4.000000, 4.000000, 4.000000, 4.000000
94.000000, 0.000000, 4218.974121, 4206.666504, 4142.051270, 4224.102539, 4183.589844, 4201.025391, 4218.974121, 4221.538574, 4203.076660, 4253.333008, 4267.692383, 4217.948730, 4263.076660, 4245.127930, 3572.000000, 8185.000000, 8185.000000, 0.000000, 0.000000, 0.000000, -19976.000000, 224.102554, 4.000000, 4.000000, 4.000000, 4.000000, 4.000000, 4.000000, 4.000000, 4.000000, 0.000000, 4.000000, 4.000000, 4.000000, 4.000000, 4.000000, 4.000000, 4.000000
95.000000, 0.000000, 4208.717773, 4209.230469, 4138.461426, 4224.102539, 4177.436035, 4196.922852, 4221.025391, 4208.205078, 4203.076660, 4246.666504, 4263.589844, 4215.384277, 4252.820313, 4237.948730, 3550.000000, 8180.000000, 8186.000000, 0.000000, 0.000000, 0.000000, -19976.000000, 232.307693, 4.000000, 4.000000, 4.000000, 4.000000, 4.000000, 4.000000, 4.000000, 4.000000, 0.000000, 4.000000, 4.000000, 4.000000, 4.000000, 4.000000, 4.000000, 4.000000
96.000000, 0.000000, 4201.025391, 4202.563965, 4129.743652, 4215.384277, 4181.025391, 4198.461426, 4227.179199, 4201.025391, 4201.538574, 4232.307617, 4253.846191, 4218.461426, 4233.846191, 4232.820313, 3517.000000, 8180.000000, 8186.000000, 0.000000, 0.000000, 0.000000, -19976.000000, 240.000000, 4.000000, 4.000000, 4.000000, 4.000000, 4.000000, 4.000000, 4.000000, 4.000000, 0.000000, 4.000000, 4.000000, 4.000000, 4.000000, 4.000000, 4.000000, 4.000000
97.000000, 0.000000, 4197.436035, 4198.461426, 4120.512695, 4205.127930, 4190.769043, 4210.769043, 4231.281738, 4213.333008, 4202.051270, 4224.102539, 4241.538574, 4212.820313, 4217.436035, 4228.717773, 3469.000000, 8184.000000, 8184.000000, 0.000000, 0.000000, 0.000000, -19976.000000, 247.692307, 4.000000, 4.000000, 4.000000, 4.000000, 4.000000, 4.000000, 4.000000, 4.000000, 0.000000, 4.000000, 4.000000, 4.000000, 4.000000, 4.000000, 4.000000, 4.000000
98.000000, 0.000000, 4189.230469, 4192.820313, 4116.410156, 4202.563965, 4188.205078, 4217.436035, 4231.794922, 4221.538574, 4202.051270, 4230.256348, 4241.025391, 4207.179199, 4213.333008, 4220.512695, 3572.000000, 8184.000000, 8184.000000, 0.000000, 0.000000, 0.000000, -19976.000000, 255.897430, 4.000000, 4.000000, 4.000000, 4.000000, 4.000000, 4.000000, 4.000000, 4.000000, 0.000000, 4.000000, 4.000000, 4.000000, 4.000000, 4.000000, 4.000000, 4.000000
99.000000, 0.000000, 4183.589844, 4190.256348, 4115.897461, 4200.000000, 4174.871582, 4208.205078, 4233.846191, 4217.436035, 4201.025391, 4242.051270, 4246.666504, 4207.179199, 4214.358887, 4216.410156, 3550.000000, 8182.000000, 8184.000000, 0.000000, 0.000000, 0.000000, -19976.000000, 263.589752, 4.000000, 4.000000, 4.000000, 4.000000, 4.000000, 4.000000, 4.000000, 4.000000, 0.000000, 4.000000, 4.000000, 4.000000, 4.000000, 4.000000, 4.000000, 4.000000
100.000000, 0.000000, 4190.256348, 4200.512695, 4114.871582, 4200.000000, 4168.205078, 4199.487305, 4230.256348, 4207.179199, 4202.051270, 4247.692383, 4251.794922, 4206.153809, 4221.025391, 4221.538574, 3517.000000, 8182.000000, 8184.000000, 0.000000, 0.000000, 0.000000, -19976.000000, 271.282043, 4.000000, 4.000000, 4.000000, 4.000000, 4.000000, 4.000000, 4.000000, 4.000000, 0.000000, 4.000000, 4.000000, 4.000000, 4.000000, 4.000000, 4.000000, 4.000000
101.000000, 0.000000, 4200.000000, 4214.871582, 4116.922852, 4210.256348, 4175.897461, 4200.000000, 4223.589844, 4197.948730, 4202.563965, 4247.179199, 4258.974121, 4207.692383, 4232.307617, 4228.205078, 3469.000000, 8179.000000, 8181.000000, 0.000000, 0.000000, 0.000000, -19976.000000, 279.487183, 4.000000, 4.000000, 4.000000, 4.000000, 4.000000, 4.000000, 4.000000, 4.000000, 0.000000, 4.000000, 4.000000, 4.000000, 4.000000, 4.000000, 4.000000, 4.000000
102.000000, 0.000000, 4200.512695, 4221.538574, 4124.102539, 4217.948730, 4184.102539, 4200.000000, 4222.051270, 4197.948730, 4202.051270, 4245.641113, 4263.076660, 4212.307617, 4235.384277, 4229.743652, 3572.000000, 8179.000000, 8181.000000, 0.000000, 0.000000, 0.000000, -19976.000000, 287.179474, 4.000000, 4.000000, 4.000000, 4.000000, 4.000000, 4.000000, 4.000000, 4.000000, 0.000000, 4.000000, 4.000000, 4.000000, 4.000000, 4.000000, 4.000000, 4.000000
103.000000, 0.000000, 4200.512695, 4224.615234, 4127.692383, 4215.384277, 4173.846191, 4197.948730, 4220.512695, 4204.615234, 4202.563965, 4247.179199, 4264.102539, 4221.538574, 4233.846191, 4231.281738, 3550.000000, 8177.000000, 8179.000000, 0.000000, 0.000000, 0.000000, -19976.000000, 294.871796, 4.000000, 4.000000, 4.000000, 4.000000, 4.000000, 4.000000, 4.000000, 4.000000, 0.000000, 4.000000, 4.000000, 4.000000, 4.000000, 4.000000, 4.000000, 4.000000
104.000000, 0.000000, 4197.948730, 4227.179199, 4126.666504, 4211.794922, 4162.563965, 4198.974121, 4222.051270, 4203.076660, 4202.563965, 4241.538574, 4256.410156, 4224.615234, 4228.717773, 4232.307617, 3517.000000, 8177.000000, 8179.000000, 0.000000, 0.000000, 0.000000, -19976.000000, 303.076904, 4.000000, 4.000000, 4.000000, 4.000000, 4.000000, 4.000000, 4.000000, 4.000000, 0.000000, 4.000000, 4.000000, 4.000000, 4.000000, 4.000000, 4.000000, 4.000000
105.000000, 0.000000, 4200.000000, 4227.179199, 4129.230469, 4214.358887, 4174.358887, 4201.538574, 4225.641113, 4200.512695, 4202.051270, 4228.717773, 4247.179199, 4224.102539, 4219.487305, 4236.922852, 3469.000000, 8180.000000, 8179.000000, 0.000000, 0.000000, 0.000000, -19976.000000, 310.769226, 4.000000, 4.000000, 4.000000, 4.000000, 4.000000, 4.000000, 4.000000, 4.000000, 0.000000, 4.000000, 4.000000, 4.000000, 4.000000, 4.000000, 4.000000, 4.000000
106.000000, 0.000000, 4212.307617, 4229.743652, 4136.922852, 4216.922852, 4184.102539, 4201.538574, 4223.076660, 4207.179199, 4201.538574, 4230.256348, 4253.333008, 4228.717773, 4223.076660, 4249.230469, 3572.000000, 8180.000000, 8179.000000, 0.000000, 0.000000, 0.000000, -19976.000000, 318.974365, 4.000000, 4.000000, 4.000000, 4.000000, 4.000000, 4.000000, 4.000000, 4.000000, 0.000000, 4.000000, 4.000000, 4.000000, 4.000000, 4.000000, 4.000000, 4.000000
107.000000, 0.000000, 4221.025391, 4236.410156, 4143.076660, 4218.974121, 4176.922852, 4197.948730, 4226.666504, 4216.410156, 4202.051270, 4245.127930, 4268.205078, 4236.410156, 4235.384277, 4260.512695, 3550.000000, 8180.000000, 8172.000000, 0.000000, 0.000000, 0.000000, -19976.000000, 326.666656, 4.000000, 4.000000, 4.000000, 4.000000, 4.000000, 4.000000, 4.000000, 4.000000, 0.000000, 4.000000, 4.000000, 4.000000, 4.000000, 4.000000, 4.000000, 4.000000
108.000000, 0.000000, 4215.897461, 4238.461426, 4139.487305, 4219.487305, 4168.205078, 4198.461426, 4236.410156, 4225.127930, 4203.076660, 4251.794922, 4276.922852, 4238.974121, 4236.410156, 4261.538574, 3517.000000, 8180.000000, 8172.000000, 0.000000, 0.000000, 0.000000, -19976.000000, 334.358978, 4.000000, 4.000000, 4.000000, 4.000000, 4.000000, 4.000000, 4.000000, 4.000000, 0.000000, 4.000000, 4.000000, 4.000000, 4.000000, 4.000000, 4.000000, 4.000000
109.000000, 0.000000, 4206.666504, 4238.461426, 4133.333008, 4217.436035, 4169.743652, 4203.589844, 4236.410156, 4230.256348, 4202.563965, 4248.205078, 4277.436035, 4235.897461, 4236.410156, 4254.358887, 3469.000000, 8181.000000, 8168.000000, 0.000000, 0.000000, 0.000000, -19976.000000, 342.564087, 4.000000, 4.000000, 4.000000, 4.000000, 4.000000, 4.000000, 4.000000, 4.000000, 0.000000, 4.000000, 4.000000, 4.000000, 4.000000, 4.000000, 4.000000, 4.000000
110.000000, 0.000000, 4202.051270, 4240.000000, 4132.820313, 4216.410156, 4172.307617, 4204.615234, 4234.358887, 4218.974121, 4202.051270, 4247.179199, 4270.256348, 4233.846191, 4234.871582, 4245.641113, 3572.000000, 8181.000000, 8168.000000, 0.000000, 0.000000, 0.000000, -19976.000000, 350.256409, 4.000000, 4.000000, 4.000000, 4.000000, 4.000000, 4.000000, 4.000000, 4.000000, 0.000000, 4.000000, 4.000000, 4.000000, 4.000000, 4.000000, 4.000000, 4.000000
111.000000, 0.000000, 4200.512695, 4238.461426, 4127.692383, 4215.384277, 4161.538574, 4201.538574, 4234.358887, 4198.461426, 4202.051270, 4248.717773, 4261.025391, 4230.769043, 4224.102539, 4242.051270, 3550.000000, 8184.000000, 8158.000000, 0.000000, 0.000000, 0.000000, -19976.000000, 357.948700, 4.000000, 4.000000, 4.000000, 4.000000, 4.000000, 4.000000, 4.000000, 4.000000, 0.000000, 4.000000, 4.000000, 4.000000, 4.000000, 4.000000, 4.000000, 4.000000
112.000000, 0.000000, 4200.512695, 4242.563965, 4124.102539, 4212.307617, 4160.512695, 4202.563965, 4229.230469, 4196.410156, 4203.076660, 4245.641113, 4263.589844, 4233.333008, 4217.948730, 4246.666504, 3517.000000, 8184.000000, 8158.000000, 0.000000, 0.000000, 0.000000, -19976.000000, 366.153839, 4.000000, 4.000000, 4.000000, 4.000000, 4.000000, 4.000000, 4.000000, 4.000000, 0.000000, 4.000000, 4.000000, 4.000000, 4.000000, 4.000000, 4.000000, 4.000000
113.000000, 0.000000, 4200.512695, 4247.692383, 4126.153809, 4209.230469, 4175.897461, 4204.615234, 4226.666504, 4205.127930, 4203.076660, 4236.922852, 4266.153809, 4233.333008, 4213.333008, 4246.666504, 3469.000000, 8175.000000, 8173.000000, 0.000000, 0.000000, 0.000000, -19976.000000, 373.846130, 4.000000, 4.000000, 4.000000, 4.000000, 4.000000, 4.000000, 4.000000, 4.000000, 0.000000, 4.000000, 4.000000, 4.000000, 4.000000, 4.000000, 4.000000, 4.000000
114.000000, 0.000000, 4197.948730, 4248.717773, 4125.127930, 4210.769043, 4178.974121, 4202.051270, 4226.666504, 4197.948730, 4202.563965, 4229.230469, 4256.410156, 4220.000000, 4195.897461, 4236.410156, 3572.000000, 8175.000000, 8173.000000, 0.000000, 0.000000, 0.000000, -19976.000000, 381.538452, 4.000000, 4.000000, 4.000000, 4.000000, 4.000000, 4.000000, 4.000000, 4.000000, 0.000000, 4.000000, 4.000000, 4.000000, 4.000000, 4.000000, 4.000000, 4.000000
115.000000, 0.000000, 4201.025391, 4252.307617, 4126.153809, 4216.410156, 4172.307617, 4201.538574, 4225.127930, 4194.358887, 4203.589844, 4229.743652, 4247.692383, 4207.179199, 4177.436035, 4231.794922, 3550.000000, 8179.000000, 8179.000000, 0.000000, 0.000000, 0.000000, -19976.000000, 389.743591, 4.000000, 4.000000, 4.000000, 4.000000, 4.000000, 4.000000, 4.000000, 4.000000, 0.000000, 4.000000, 4.000000, 4.000000, 4.000000, 4.000000, 4.000000, 4.000000
