title:winkRight2, recorded:21.05.18 17.17.52, timestamp started:2018-05-12T20:28:52.032863+02:00            , sampling:128, subject:Noé, labels:COUNTER INTERPOLATED AF3 F7 F3 FC5 T7 P7 O1 O2 P8 T8 FC6 F4 F8 AF4 RAW_CQ GYROX GYROY MARKER MARKER_HARDWARE SYNC TIME_STAMP_s TIME_STAMP_ms CQ_AF3 CQ_F7 CQ_F3 CQ_FC5 CQ_T7 CQ_P7 CQ_O1 CQ_O2 CQ_P8 CQ_T8 CQ_FC6 CQ_F4 CQ_F8 CQ_AF4 CQ_CMS CQ_DRL, chan:40, samples:2320, units:emotiv
49.000000, 0.000000, 4223.076660, 4357.948730, 4194.358887, 4201.538574, 4231.281738, 4195.384277, 4190.256348, 4189.743652, 4202.563965, 4202.563965, 4187.179199, 4181.538574, 4281.025391, 4181.025391, 0.000000, 8228.000000, 8183.000000, 0.000000, 0.000000, 0.000000, -20291.000000, 144.615387, 4.000000, 4.000000, 4.000000, 4.000000, 4.000000, 4.000000, 4.000000, 4.000000, 0.000000, 4.000000, 4.000000, 4.000000, 4.000000, 4.000000, 4.000000, 4.000000
50.000000, 0.000000, 4216.410156, 4361.538574, 4193.846191, 4198.974121, 4232.307617, 4195.384277, 4191.281738, 4181.025391, 4203.076660, 4201.025391, 4184.102539, 4175.384277, 4281.025391, 4175.384277, 0.000000, 8228.000000, 8183.000000, 0.000000, 0.000000, 0.000000, -20291.000000, 152.820511, 4.000000, 4.000000, 4.000000, 4.000000, 4.000000, 4.000000, 4.000000, 4.000000, 0.000000, 4.000000, 4.000000, 4.000000, 4.000000, 4.000000, 4.000000, 4.000000
51.000000, 0.000000, 4222.051270, 4361.025391, 4188.717773, 4198.461426, 4233.333008, 4196.410156, 4190.256348, 4183.076660, 4202.051270, 4201.025391, 4186.666504, 4174.358887, 4286.666504, 4175.384277, 0.000000, 8230.000000, 8189.000000, 0.000000, 0.000000, 0.000000, -20291.000000, 160.512817, 4.000000, 4.000000, 4.000000, 4.000000, 4.000000, 4.000000, 4.000000, 4.000000, 0.000000, 4.000000, 4.000000, 4.000000, 4.000000, 4.000000, 4.000000, 4.000000
52.000000, 0.000000, 4227.692383, 4357.948730, 4192.307617, 4197.948730, 4233.846191, 4194.871582, 4186.666504, 4187.692383, 4202.051270, 4201.538574, 4189.230469, 4185.127930, 4282.563965, 4181.538574, 0.000000, 8230.000000, 8189.000000, 0.000000, 0.000000, 0.000000, -20291.000000, 168.205124, 4.000000, 4.000000, 4.000000, 4.000000, 4.000000, 4.000000, 4.000000, 4.000000, 0.000000, 4.000000, 4.000000, 4.000000, 4.000000, 4.000000, 4.000000, 4.000000
53.000000, 0.000000, 4224.615234, 4356.922852, 4200.000000, 4195.384277, 4240.512695, 4197.948730, 4197.436035, 4187.692383, 4203.076660, 4201.025391, 4189.230469, 4188.717773, 4277.436035, 4183.076660, 0.000000, 8230.000000, 8195.000000, 0.000000, 0.000000, 0.000000, -20291.000000, 175.897430, 4.000000, 4.000000, 4.000000, 4.000000, 4.000000, 4.000000, 4.000000, 4.000000, 0.000000, 4.000000, 4.000000, 4.000000, 4.000000, 4.000000, 4.000000, 4.000000
54.000000, 0.000000, 4229.743652, 4360.512695, 4204.102539, 4197.948730, 4249.230469, 4203.589844, 4202.563965, 4185.641113, 4202.563965, 4204.615234, 4195.897461, 4188.205078, 4295.897461, 4193.333008, 0.000000, 8230.000000, 8195.000000, 0.000000, 0.000000, 0.000000, -20291.000000, 183.589737, 4.000000, 4.000000, 4.000000, 4.000000, 4.000000, 4.000000, 4.000000, 4.000000, 0.000000, 4.000000, 4.000000, 4.000000, 4.000000, 4.000000, 4.000000, 4.000000
55.000000, 0.000000, 4237.948730, 4357.435547, 4207.179199, 4201.025391, 4246.666504, 4196.922852, 4190.256348, 4188.205078, 4201.538574, 4205.127930, 4202.563965, 4188.717773, 4308.717773, 4200.512695, 0.000000, 8227.000000, 8187.000000, 0.000000, 0.000000, 0.000000, -20291.000000, 191.794861, 4.000000, 4.000000, 4.000000, 4.000000, 4.000000, 4.000000, 4.000000, 4.000000, 0.000000, 4.000000, 4.000000, 4.000000, 4.000000, 4.000000, 4.000000, 4.000000
56.000000, 0.000000, 4235.897461, 4355.384277, 4208.205078, 4198.974121, 4243.589844, 4187.692383, 4185.127930, 4184.615234, 4201.538574, 4201.025391, 4199.487305, 4187.179199, 4300.000000, 4193.846191, 0.000000, 8227.000000, 8187.000000, 0.000000, 0.000000, 0.000000, -20291.000000, 199.487167, 4.000000, 4.000000, 4.000000, 4.000000, 4.000000, 4.000000, 4.000000, 4.000000, 0.000000, 4.000000, 4.000000, 4.000000, 4.000000, 4.000000, 4.000000, 4.000000
57.000000, 0.000000, 4230.256348, 4359.487305, 4202.563965, 4199.487305, 4244.615234, 4186.153809, 4189.230469, 4173.333008, 4201.538574, 4200.512695, 4192.820313, 4187.179199, 4301.025391, 4193.846191, 0.000000, 8224.000000, 8174.000000, 0.000000, 0.000000, 0.000000, -20291.000000, 207.179489, 4.000000, 4.000000, 4.000000, 4.000000, 4.000000, 4.000000, 4.000000, 4.000000, 0.000000, 4.000000, 4.000000, 4.000000, 4.000000, 4.000000, 4.000000, 4.000000
58.000000, 0.000000, 4230.256348, 4359.487305, 4199.487305, 4200.512695, 4244.615234, 4189.743652, 4188.717773, 4174.358887, 4202.563965, 4201.538574, 4192.307617, 4183.589844, 4313.333008, 4196.922852, 0.000000, 8224.000000, 8174.000000, 0.000000, 0.000000, 0.000000, -20291.000000, 214.871796, 4.000000, 4.000000, 4.000000, 4.000000, 4.000000, 4.000000, 4.000000, 4.000000, 0.000000, 4.000000, 4.000000, 4.000000, 4.000000, 4.000000, 4.000000, 4.000000
59.000000, 0.000000, 4229.743652, 4358.974121, 4204.102539, 4200.000000, 4247.179199, 4200.000000, 4189.230469, 4183.589844, 4203.076660, 4202.051270, 4198.461426, 4175.897461, 4312.307617, 4190.769043, 0.000000, 8227.000000, 8171.000000, 0.000000, 0.000000, 0.000000, -20291.000000, 222.564102, 4.000000, 4.000000, 4.000000, 4.000000, 4.000000, 4.000000, 4.000000, 4.000000, 0.000000, 4.000000, 4.000000, 4.000000, 4.000000, 4.000000, 4.000000, 4.000000
60.000000, 0.000000, 4221.025391, 4360.000000, 4197.948730, 4201.538574, 4249.230469, 4201.538574, 4186.666504, 4175.897461, 4201.538574, 4202.051270, 4197.436035, 4171.794922, 4302.563965, 4186.666504, 0.000000, 8227.000000, 8171.000000, 0.000000, 0.000000, 0.000000, -20291.000000, 230.256409, 4.000000, 4.000000, 4.000000, 4.000000, 4.000000, 4.000000, 4.000000, 4.000000, 0.000000, 4.000000, 4.000000, 4.000000, 4.000000, 4.000000, 4.000000, 4.000000
61.000000, 0.000000, 4216.410156, 4362.563965, 4188.205078, 4202.051270, 4248.205078, 4195.897461, 4183.589844, 4166.153809, 4202.051270, 4200.512695, 4190.769043, 4170.256348, 4291.794922, 4184.615234, 0.000000, 8221.000000, 8164.000000, 0.000000, 0.000000, 0.000000, -20291.000000, 238.461533, 4.000000, 4.000000, 4.000000, 4.000000, 4.000000, 4.000000, 4.000000, 4.000000, 0.000000, 4.000000, 4.000000, 4.000000, 4.000000, 4.000000, 4.000000, 4.000000
62.000000, 0.000000, 4224.102539, 4367.692383, 4192.820313, 4201.025391, 4248.717773, 4206.153809, 4192.820313, 4176.922852, 4203.076660, 4201.538574, 4197.436035, 4173.333008, 4283.076660, 4184.102539, 0.000000, 8221.000000, 8164.000000, 0.000000, 0.000000, 0.000000, -20291.000000, 246.153839, 4.000000, 4.000000, 4.000000, 4.000000, 4.000000, 4.000000, 4.000000, 4.000000, 0.000000, 4.000000, 4.000000, 4.000000, 4.000000, 4.000000, 4.000000, 4.000000
63.000000, 0.000000, 4225.641113, 4368.717773, 4196.922852, 4200.512695, 4247.179199, 4214.358887, 4204.102539, 4189.743652, 4202.563965, 4203.076660, 4202.051270, 4174.871582, 4273.333008, 4187.179199, 0.000000, 8215.000000, 8171.000000, 0.000000, 0.000000, 0.000000, -20291.000000, 253.846146, 4.000000, 4.000000, 4.000000, 4.000000, 4.000000, 4.000000, 4.000000, 4.000000, 0.000000, 4.000000, 4.000000, 4.000000, 4.000000, 4.000000, 4.000000, 4.000000
64.000000, 0.000000, 4215.384277, 4365.641113, 4188.717773, 4200.000000, 4245.641113, 4203.589844, 4199.487305, 4181.538574, 4202.051270, 4197.948730, 4189.230469, 4170.256348, 4255.897461, 4182.051270, 3188.000000, 8215.000000, 8171.000000, 0.000000, 0.000000, 0.000000, -20291.000000, 261.538452, 4.000000, 4.000000, 4.000000, 4.000000, 4.000000, 4.000000, 4.000000, 4.000000, 0.000000, 4.000000, 4.000000, 4.000000, 4.000000, 4.000000, 4.000000, 4.000000
65.000000, 0.000000, 4211.281738, 4368.205078, 4182.563965, 4196.922852, 4248.717773, 4196.922852, 4188.205078, 4169.230469, 4202.563965, 4194.358887, 4183.589844, 4167.692383, 4244.615234, 4172.307617, 3539.000000, 8218.000000, 8180.000000, 0.000000, 0.000000, 0.000000, -20291.000000, 269.230774, 4.000000, 4.000000, 4.000000, 4.000000, 4.000000, 4.000000, 4.000000, 4.000000, 0.000000, 4.000000, 4.000000, 4.000000, 4.000000, 4.000000, 4.000000, 4.000000
66.000000, 0.000000, 4212.820313, 4373.846191, 4186.666504, 4194.871582, 4247.179199, 4202.051270, 4188.717773, 4173.846191, 4203.076660, 4197.948730, 4188.717773, 4169.230469, 4243.589844, 4170.769043, 3561.000000, 8218.000000, 8180.000000, 0.000000, 0.000000, 0.000000, -20291.000000, 276.923065, 4.000000, 4.000000, 4.000000, 4.000000, 4.000000, 4.000000, 4.000000, 4.000000, 0.000000, 4.000000, 4.000000, 4.000000, 4.000000, 4.000000, 4.000000, 4.000000
67.000000, 0.000000, 4213.333008, 4375.384277, 4193.846191, 4201.538574, 4244.102539, 4202.051270, 4199.487305, 4186.666504, 4203.076660, 4196.922852, 4189.230469, 4169.743652, 4246.153809, 4177.436035, 2462.000000, 8219.000000, 8186.000000, 0.000000, 0.000000, 0.000000, -20291.000000, 285.128204, 4.000000, 4.000000, 4.000000, 4.000000, 4.000000, 4.000000, 4.000000, 4.000000, 0.000000, 4.000000, 4.000000, 4.000000, 4.000000, 4.000000, 4.000000, 4.000000
68.000000, 0.000000, 4215.384277, 4373.846191, 4194.871582, 4205.127930, 4248.205078, 4200.000000, 4202.051270, 4192.820313, 4204.102539, 4193.846191, 4185.641113, 4170.769043, 4247.179199, 4181.025391, 3566.000000, 8219.000000, 8186.000000, 0.000000, 0.000000, 0.000000, -20291.000000, 292.820496, 4.000000, 4.000000, 4.000000, 4.000000, 4.000000, 4.000000, 4.000000, 4.000000, 0.000000, 4.000000, 4.000000, 4.000000, 4.000000, 4.000000, 4.000000, 4.000000
69.000000, 0.000000, 4216.922852, 4372.307617, 4195.384277, 4201.538574, 4250.769043, 4208.205078, 4201.025391, 4194.871582, 4204.102539, 4195.897461, 4185.127930, 4172.307617, 4246.666504, 4179.487305, 3580.000000, 8227.000000, 8189.000000, 0.000000, 0.000000, 0.000000, -20291.000000, 300.512817, 4.000000, 4.000000, 4.000000, 4.000000, 4.000000, 4.000000, 4.000000, 4.000000, 0.000000, 4.000000, 4.000000, 4.000000, 4.000000, 4.000000, 4.000000, 4.000000
70.000000, 0.000000, 4217.948730, 4369.743652, 4197.436035, 4205.127930, 4249.743652, 4217.948730, 4208.717773, 4195.897461, 4202.563965, 4202.051270, 4188.717773, 4173.333008, 4255.384277, 4181.025391, 3440.000000, 8227.000000, 8189.000000, 0.000000, 0.000000, 0.000000, -20291.000000, 308.205109, 4.000000, 4.000000, 4.000000, 4.000000, 4.000000, 4.000000, 4.000000, 4.000000, 0.000000, 4.000000, 4.000000, 4.000000, 4.000000, 4.000000, 4.000000, 4.000000
71.000000, 0.000000, 4219.487305, 4366.153809, 4195.384277, 4209.230469, 4248.717773, 4213.846191, 4212.820313, 4191.281738, 4201.538574, 4204.102539, 4191.794922, 4174.871582, 4264.615234, 4184.102539, 3508.000000, 8229.000000, 8183.000000, 0.000000, 0.000000, 0.000000, -20291.000000, 315.897430, 4.000000, 4.000000, 4.000000, 4.000000, 4.000000, 4.000000, 4.000000, 4.000000, 0.000000, 4.000000, 4.000000, 4.000000, 4.000000, 4.000000, 4.000000, 4.000000
72.000000, 0.000000, 4217.948730, 4362.051270, 4193.846191, 4203.589844, 4247.692383, 4201.538574, 4202.051270, 4187.179199, 4202.051270, 4196.410156, 4187.692383, 4173.846191, 4258.974121, 4182.051270, 0.000000, 8229.000000, 8183.000000, 0.000000, 0.000000, 0.000000, -20291.000000, 324.102570, 4.000000, 4.000000, 4.000000, 4.000000, 4.000000, 4.000000, 4.000000, 4.000000, 0.000000, 4.000000, 4.000000, 4.000000, 4.000000, 4.000000, 4.000000, 4.000000
73.000000, 0.000000, 4217.436035, 4363.076660, 4200.512695, 4200.512695, 4240.000000, 4195.897461, 4194.871582, 4183.076660, 4202.051270, 4186.153809, 4183.076660, 4171.281738, 4246.666504, 4182.051270, 3022.000000, 8229.000000, 8184.000000, 0.000000, 0.000000, 0.000000, -20291.000000, 331.794861, 4.000000, 4.000000, 4.000000, 4.000000, 4.000000, 4.000000, 4.000000, 4.000000, 0.000000, 4.000000, 4.000000, 4.000000, 4.000000, 4.000000, 4.000000, 4.000000
74.000000, 0.000000, 4216.922852, 4364.102539, 4206.666504, 4202.563965, 4222.051270, 4198.974121, 4207.179199, 4183.076660, 4202.051270, 4182.051270, 4181.025391, 4172.820313, 4244.102539, 4183.589844, 3581.000000, 8229.000000, 8184.000000, 0.000000, 0.000000, 0.000000, -20291.000000, 339.487183, 4.000000, 4.000000, 4.000000, 4.000000, 4.000000, 4.000000, 4.000000, 4.000000, 0.000000, 4.000000, 4.000000, 4.000000, 4.000000, 4.000000, 4.000000, 4.000000
75.000000, 0.000000, 4209.230469, 4355.897461, 4197.948730, 4199.487305, 4218.974121, 4202.051270, 4218.974121, 4192.307617, 4202.563965, 4184.102539, 4174.871582, 4173.846191, 4244.102539, 4176.410156, 3567.000000, 8238.000000, 8188.000000, 0.000000, 0.000000, 0.000000, -20291.000000, 347.179474, 4.000000, 4.000000, 4.000000, 4.000000, 4.000000, 4.000000, 4.000000, 4.000000, 0.000000, 4.000000, 4.000000, 4.000000, 4.000000, 4.000000, 4.000000, 4.000000
76.000000, 0.000000, 4198.974121, 4352.307617, 4190.769043, 4195.384277, 4233.846191, 4205.127930, 4217.436035, 4191.281738, 4202.051270, 4183.589844, 4168.717773, 4173.333008, 4242.051270, 4171.281738, 3518.000000, 8238.000000, 8188.000000, 0.000000, 0.000000, 0.000000, -20291.000000, 354.871796, 4.000000, 4.000000, 4.000000, 4.000000, 4.000000, 4.000000, 4.000000, 4.000000, 0.000000, 4.000000, 4.000000, 4.000000, 4.000000, 4.000000, 4.000000, 4.000000
77.000000, 0.000000, 4198.974121, 4354.871582, 4196.410156, 4196.922852, 4238.461426, 4206.666504, 4214.358887, 4182.051270, 4201.025391, 4183.589844, 4173.333008, 4172.820313, 4243.076660, 4173.333008, 3459.000000, 8240.000000, 8179.000000, 0.000000, 0.000000, 0.000000, -20291.000000, 362.564087, 4.000000, 4.000000, 4.000000, 4.000000, 4.000000, 4.000000, 4.000000, 4.000000, 0.000000, 4.000000, 4.000000, 4.000000, 4.000000, 4.000000, 4.000000, 4.000000
78.000000, 0.000000, 4208.205078, 4354.358887, 4197.436035, 4200.000000, 4232.820313, 4205.127930, 4212.307617, 4182.563965, 4200.512695, 4186.153809, 4180.512695, 4171.794922, 4245.641113, 4173.846191, 3581.000000, 8240.000000, 8179.000000, 0.000000, 0.000000, 0.000000, -20291.000000, 370.769226, 4.000000, 4.000000, 4.000000, 4.000000, 4.000000, 4.000000, 4.000000, 4.000000, 0.000000, 4.000000, 4.000000, 4.000000, 4.000000, 4.000000, 4.000000, 4.000000
79.000000, 0.000000, 4213.846191, 4355.897461, 4190.769043, 4199.487305, 4234.871582, 4201.025391, 4205.127930, 4185.641113, 4201.538574, 4187.179199, 4183.076660, 4172.307617, 4245.641113, 4177.436035, 3567.000000, 8235.000000, 8179.000000, 0.000000, 0.000000, 0.000000, -20291.000000, 378.461517, 4.000000, 4.000000, 4.000000, 4.000000, 4.000000, 4.000000, 4.000000, 4.000000, 0.000000, 4.000000, 4.000000, 4.000000, 4.000000, 4.000000, 4.000000, 4.000000
80.000000, 0.000000, 4213.846191, 4356.410156, 4191.794922, 4198.974121, 4238.461426, 4197.436035, 4198.461426, 4185.127930, 4202.563965, 4187.179199, 4186.153809, 4177.948730, 4251.281738, 4184.615234, 3518.000000, 8235.000000, 8179.000000, 0.000000, 0.000000, 0.000000, -20291.000000, 386.153839, 4.000000, 4.000000, 4.000000, 4.000000, 4.000000, 4.000000, 4.000000, 4.000000, 0.000000, 4.000000, 4.000000, 4.000000, 4.000000, 4.000000, 4.000000, 4.000000
81.000000, 0.000000, 4214.871582, 4353.333008, 4200.000000, 4203.076660, 4235.897461, 4195.897461, 4201.025391, 4191.794922, 4203.076660, 4189.230469, 4187.179199, 4182.563965, 4254.871582, 4187.692383, 3459.000000, 8233.000000, 8177.000000, 0.000000, 0.000000, 0.000000, -20291.000000, 393.846130, 4.000000, 4.000000, 4.000000, 4.000000, 4.000000, 4.000000, 4.000000, 4.000000, 0.000000, 4.000000, 4.000000, 4.000000, 4.000000, 4.000000, 4.000000, 4.000000
82.000000, 0.000000, 4217.436035, 4355.384277, 4207.179199, 4203.589844, 4234.358887, 4191.794922, 4201.025391, 4197.948730, 4203.076660, 4191.281738, 4186.153809, 4183.076660, 4251.794922, 4186.666504, 3581.000000, 8233.000000, 8177.000000, 0.000000, 0.000000, 0.000000, -20291.000000, 402.051270, 4.000000, 4.000000, 4.000000, 4.000000, 4.000000, 4.000000, 4.000000, 4.000000, 0.000000, 4.000000, 4.000000, 4.000000, 4.000000, 4.000000, 4.000000, 4.000000
83.000000, 0.000000, 4223.589844, 4356.922852, 4209.743652, 4203.589844, 4233.846191, 4186.666504, 4196.410156, 4192.820313, 4203.076660, 4191.281738, 4190.769043, 4186.153809, 4254.871582, 4188.717773, 3567.000000, 8236.000000, 8178.000000, 0.000000, 0.000000, 0.000000, -20291.000000, 409.743591, 4.000000, 4.000000, 4.000000, 4.000000, 4.000000, 4.000000, 4.000000, 4.000000, 0.000000, 4.000000, 4.000000, 4.000000, 4.000000, 4.000000, 4.000000, 4.000000
84.000000, 0.000000, 4229.743652, 4355.897461, 4210.769043, 4211.281738, 4232.820313, 4187.179199, 4198.461426, 4187.179199, 4202.563965, 4193.846191, 4199.487305, 4189.743652, 4264.615234, 4193.846191, 3518.000000, 8236.000000, 8178.000000, 0.000000, 0.000000, 0.000000, -20291.000000, 417.435883, 4.000000, 4.000000, 4.000000, 4.000000, 4.000000, 4.000000, 4.000000, 4.000000, 0.000000, 4.000000, 4.000000, 4.000000, 4.000000, 4.000000, 4.000000, 4.000000
85.000000, 0.000000, 4228.205078, 4352.307617, 4206.666504, 4215.384277, 4231.794922, 4189.230469, 4197.948730, 4189.743652, 4203.589844, 4198.461426, 4202.051270, 4190.769043, 4265.127930, 4198.461426, 3459.000000, 8233.000000, 8168.000000, 0.000000, 0.000000, 0.000000, -20291.000000, 425.128204, 4.000000, 4.000000, 4.000000, 4.000000, 4.000000, 4.000000, 4.000000, 4.000000, 0.000000, 4.000000, 4.000000, 4.000000, 4.000000, 4.000000, 4.000000, 4.000000
86.000000, 0.000000, 4225.641113, 4348.205078, 4207.179199, 4210.769043, 4231.281738, 4188.717773, 4188.717773, 4195.897461, 4203.589844, 4200.512695, 4200.512695, 4191.281738, 4263.589844, 4200.000000, 3581.000000, 8233.000000, 8168.000000, 0.000000, 0.000000, 0.000000, -20291.000000, 432.820496, 4.000000, 4.000000, 4.000000, 4.000000, 4.000000, 4.000000, 4.000000, 4.000000, 0.000000, 4.000000, 4.000000, 4.000000, 4.000000, 4.000000, 4.000000, 4.000000
87.000000, 0.000000, 4231.281738, 4349.230469, 4213.846191, 4212.820313, 4232.307617, 4190.769043, 4188.205078, 4196.410156, 4202.051270, 4198.461426, 4203.076660, 4192.307617, 4269.743652, 4201.025391, 3567.000000, 8239.000000, 8161.000000, 0.000000, 0.000000, 0.000000, -20291.000000, 440.512817, 4.000000, 4.000000, 4.000000, 4.000000, 4.000000, 4.000000, 4.000000, 4.000000, 0.000000, 4.000000, 4.000000, 4.000000, 4.000000, 4.000000, 4.000000, 4.000000
88.000000, 0.000000, 4232.820313, 4350.256348, 4215.897461, 4214.871582, 4231.794922, 4196.922852, 4195.384277, 4191.794922, 4202.051270, 4200.000000, 4203.589844, 4188.205078, 4271.794922, 4201.538574, 3518.000000, 8239.000000, 8161.000000, 0.000000, 0.000000, 0.000000, -20291.000000, 448.717926, 4.000000, 4.000000, 4.000000, 4.000000, 4.000000, 4.000000, 4.000000, 4.000000, 0.000000, 4.000000, 4.000000, 4.000000, 4.000000, 4.000000, 4.000000, 4.000000
89.000000, 0.000000, 4222.051270, 4346.666504, 4208.717773, 4205.127930, 4230.769043, 4196.922852, 4193.846191, 4188.205078, 4202.563965, 4199.487305, 4198.461426, 4184.102539, 4266.153809, 4193.846191, 3459.000000, 8228.000000, 8162.000000, 0.000000, 0.000000, 0.000000, -20291.000000, 456.410248, 4.000000, 4.000000, 4.000000, 4.000000, 4.000000, 4.000000, 4.000000, 4.000000, 0.000000, 4.000000, 4.000000, 4.000000, 4.000000, 4.000000, 4.000000, 4.000000
90.000000, 0.000000, 4214.358887, 4340.512695, 4198.461426, 4197.948730, 4228.717773, 4191.794922, 4186.666504, 4187.692383, 4201.538574, 4195.384277, 4198.461426, 4184.102539, 4265.641113, 4190.256348, 3581.000000, 8228.000000, 8162.000000, 0.000000, 0.000000, 0.000000, -20291.000000, 464.102539, 4.000000, 4.000000, 4.000000, 4.000000, 4.000000, 4.000000, 4.000000, 4.000000, 0.000000, 4.000000, 4.000000, 4.000000, 4.000000, 4.000000, 4.000000, 4.000000
91.000000, 0.000000, 4217.436035, 4341.025391, 4197.948730, 4208.205078, 4232.307617, 4190.769043, 4185.127930, 4186.153809, 4202.563965, 4197.436035, 4209.230469, 4187.692383, 4274.871582, 4198.974121, 3567.000000, 8232.000000, 8157.000000, 0.000000, 0.000000, 0.000000, -20291.000000, 471.794861, 4.000000, 4.000000, 4.000000, 4.000000, 4.000000, 4.000000, 4.000000, 4.000000, 0.000000, 4.000000, 4.000000, 4.000000, 4.000000, 4.000000, 4.000000, 4.000000
92.000000, 0.000000, 4221.538574, 4346.153809, 4204.615234, 4213.846191, 4230.769043, 4189.230469, 4186.153809, 4189.230469, 4204.615234, 4201.538574, 4213.846191, 4191.794922, 4280.512695, 4203.589844, 3518.000000, 8232.000000, 8157.000000, 0.000000, 0.000000, 0.000000, -20291.000000, 479.487183, 4.000000, 4.000000, 4.000000, 4.000000, 4.000000, 4.000000, 4.000000, 4.000000, 0.000000, 4.000000, 4.000000, 4.000000, 4.000000, 4.000000, 4.000000, 4.000000
93.000000, 0.000000, 4218.461426, 4344.102539, 4205.127930, 4205.127930, 4217.436035, 4187.179199, 4190.769043, 4191.281738, 4203.076660, 4199.487305, 4208.717773, 4194.358887, 4274.871582, 4199.487305, 3459.000000, 8234.000000, 8158.000000, 0.000000, 0.000000, 0.000000, -20291.000000, 487.179474, 4.000000, 4.000000, 4.000000, 4.000000, 4.000000, 4.000000, 4.000000, 4.000000, 0.000000, 4.000000, 4.000000, 4.000000, 4.000000, 4.000000, 4.000000, 4.000000
94.000000, 0.000000, 4221.025391, 4345.127930, 4206.666504, 4207.179199, 4217.436035, 4194.871582, 4195.384277, 4189.230469, 4201.538574, 4198.974121, 4211.281738, 4198.974121, 4275.897461, 4203.589844, 3581.000000, 8234.000000, 8158.000000, 0.000000, 0.000000, 0.000000, -20291.000000, 495.384613, 4.000000, 4.000000, 4.000000, 4.000000, 4.000000, 4.000000, 4.000000, 4.000000, 0.000000, 4.000000, 4.000000, 4.000000, 4.000000, 4.000000, 4.000000, 4.000000
95.000000, 0.000000, 4229.230469, 4352.820313, 4211.794922, 4215.384277, 4233.333008, 4201.025391, 4197.948730, 4194.871582, 4202.051270, 4204.615234, 4219.487305, 4205.127930, 4279.487305, 4211.794922, 3567.000000, 8234.000000, 8152.000000, 0.000000, 0.000000, 0.000000, -20291.000000, 503.076904, 4.000000, 4.000000, 4.000000, 4.000000, 4.000000, 4.000000, 4.000000, 4.000000, 0.000000, 4.000000, 4.000000, 4.000000, 4.000000, 4.000000, 4.000000, 4.000000
96.000000, 0.000000, 4225.641113, 4352.820313, 4210.256348, 4208.717773, 4230.769043, 4192.307617, 4202.563965, 4199.487305, 4202.563965, 4204.102539, 4213.846191, 4200.512695, 4270.256348, 4205.641113, 3518.000000, 8234.000000, 8152.000000, 0.000000, 0.000000, 0.000000, -20291.000000, 510.769226, 4.000000, 4.000000, 4.000000, 4.000000, 4.000000, 4.000000, 4.000000, 4.000000, 0.000000, 4.000000, 4.000000, 4.000000, 4.000000, 4.000000, 4.000000, 4.000000
97.000000, 0.000000, 4213.333008, 4348.205078, 4201.025391, 4197.436035, 4214.871582, 4182.563965, 4198.461426, 4195.384277, 4203.076660, 4196.410156, 4204.102539, 4190.769043, 4259.487305, 4194.871582, 3459.000000, 8236.000000, 8154.000000, 0.000000, 0.000000, 0.000000, -20291.000000, 518.461548, 4.000000, 4.000000, 4.000000, 4.000000, 4.000000, 4.000000, 4.000000, 4.000000, 0.000000, 4.000000, 4.000000, 4.000000, 4.000000, 4.000000, 4.000000, 4.000000
98.000000, 0.000000, 4213.846191, 4350.256348, 4197.948730, 4198.461426, 4212.820313, 4184.615234, 4186.153809, 4197.436035, 4203.589844, 4198.461426, 4210.769043, 4194.358887, 4262.563965, 4197.948730, 3581.000000, 8236.000000, 8154.000000, 0.000000, 0.000000, 0.000000, -20291.000000, 526.153809, 4.000000, 4.000000, 4.000000, 4.000000, 4.000000, 4.000000, 4.000000, 4.000000, 0.000000, 4.000000, 4.000000, 4.000000, 4.000000, 4.000000, 4.000000, 4.000000
99.000000, 0.000000, 4216.922852, 4351.794922, 4198.461426, 4196.922852, 4217.948730, 4188.205078, 4183.589844, 4204.102539, 4203.076660, 4206.666504, 4218.461426, 4197.948730, 4264.615234, 4202.563965, 3567.000000, 8238.000000, 8154.000000, 0.000000, 0.000000, 0.000000, -20291.000000, 533.846130, 4.000000, 4.000000, 4.000000, 4.000000, 4.000000, 4.000000, 4.000000, 4.000000, 0.000000, 4.000000, 4.000000, 4.000000, 4.000000, 4.000000, 4.000000, 4.000000
100.000000, 0.000000, 4211.281738, 4350.256348, 4195.384277, 4192.820313, 4218.974121, 4188.205078, 4191.281738, 4204.615234, 4201.025391, 4207.692383, 4215.384277, 4193.846191, 4260.000000, 4197.436035, 3518.000000, 8238.000000, 8154.000000, 0.000000, 0.000000, 0.000000, -20291.000000, 542.051270, 4.000000, 4.000000, 4.000000, 4.000000, 4.000000, 4.000000, 4.000000, 4.000000, 0.000000, 4.000000, 4.000000, 4.000000, 4.000000, 4.000000, 4.000000, 4.000000
101.000000, 0.000000, 4211.794922, 4352.307617, 4194.871582, 4196.922852, 4221.025391, 4193.333008, 4191.281738, 4203.076660, 4200.512695, 4209.743652, 4214.871582, 4192.307617, 4262.051270, 4197.436035, 3459.000000, 8246.000000, 8155.000000, 0.000000, 0.000000, 0.000000, -20291.000000, 549.743591, 4.000000, 4.000000, 4.000000, 4.000000, 4.000000, 4.000000, 4.000000, 4.000000, 0.000000, 4.000000, 4.000000, 4.000000, 4.000000, 4.000000, 4.000000, 4.000000
102.000000, 0.000000, 4211.794922, 4351.794922, 4199.487305, 4200.512695, 4219.487305, 4194.358887, 4185.127930, 4197.948730, 4201.538574, 4212.307617, 4215.384277, 4189.230469, 4259.487305, 4196.922852, 3581.000000, 8246.000000, 8155.000000, 0.000000, 0.000000, 0.000000, -20291.000000, 557.435913, 4.000000, 4.000000, 4.000000, 4.000000, 4.000000, 4.000000, 4.000000, 4.000000, 0.000000, 4.000000, 4.000000, 4.000000, 4.000000, 4.000000, 4.000000, 4.000000
103.000000, 0.000000, 4202.051270, 4344.615234, 4195.897461, 4199.487305, 4214.871582, 4190.256348, 4188.717773, 4191.281738, 4203.589844, 4205.127930, 4206.153809, 4185.127930, 4246.666504, 4187.692383, 3567.000000, 8251.000000, 8153.000000, 0.000000, 0.000000, 0.000000, -20291.000000, 565.128174, 4.000000, 4.000000, 4.000000, 4.000000, 4.000000, 4.000000, 4.000000, 4.000000, 0.000000, 4.000000, 4.000000, 4.000000, 4.000000, 4.000000, 4.000000, 4.000000
104.000000, 0.000000, 4204.615234, 4345.641113, 4191.794922, 4202.051270, 4217.948730, 4195.384277, 4198.974121, 4194.358887, 4204.615234, 4204.615234, 4204.615234, 4193.333008, 4248.205078, 4188.717773, 3518.000000, 8251.000000, 8153.000000, 0.000000, 0.000000, 0.000000, -20291.000000, 572.820496, 4.000000, 4.000000, 4.000000, 4.000000, 4.000000, 4.000000, 4.000000, 4.000000, 0.000000, 4.000000, 4.000000, 4.000000, 4.000000, 4.000000, 4.000000, 4.000000
105.000000, 0.000000, 4217.436035, 4347.179199, 4197.436035, 4206.666504, 4229.743652, 4205.127930, 4203.589844, 4206.666504, 4205.127930, 4216.922852, 4217.948730, 4205.641113, 4262.563965, 4204.102539, 3459.000000, 8258.000000, 8157.000000, 0.000000, 0.000000, 0.000000, -20291.000000, 580.512817, 4.000000, 4.000000, 4.000000, 4.000000, 4.000000, 4.000000, 4.000000, 4.000000, 0.000000, 4.000000, 4.000000, 4.000000, 4.000000, 4.000000, 4.000000, 4.000000
106.000000, 0.000000, 4221.025391, 4343.076660, 4203.589844, 4204.615234, 4232.307617, 4204.615234, 4200.512695, 4212.820313, 4203.589844, 4221.025391, 4225.641113, 4206.153809, 4265.641113, 4210.256348, 3581.000000, 8258.000000, 8157.000000, 0.000000, 0.000000, 0.000000, -20291.000000, 588.717957, 4.000000, 4.000000, 4.000000, 4.000000, 4.000000, 4.000000, 4.000000, 4.000000, 0.000000, 4.000000, 4.000000, 4.000000, 4.000000, 4.000000, 4.000000, 4.000000
107.000000, 0.000000, 4219.487305, 4340.512695, 4205.641113, 4202.563965, 4221.538574, 4200.512695, 4200.512695, 4207.179199, 4203.076660, 4216.922852, 4220.512695, 4204.102539, 4261.538574, 4204.615234, 3567.000000, 8259.000000, 8162.000000, 0.000000, 0.000000, 0.000000, -20291.000000, 596.410217, 4.000000, 4.000000, 4.000000, 4.000000, 4.000000, 4.000000, 4.000000, 4.000000, 0.000000, 4.000000, 4.000000, 4.000000, 4.000000, 4.000000, 4.000000, 4.000000
108.000000, 0.000000, 4216.410156, 4334.871582, 4202.051270, 4205.641113, 4213.333008, 4201.538574, 4204.102539, 4201.025391, 4203.076660, 4217.948730, 4217.436035, 4200.512695, 4261.025391, 4202.051270, 3518.000000, 8259.000000, 8162.000000, 0.000000, 0.000000, 0.000000, -20291.000000, 604.102539, 4.000000, 4.000000, 4.000000, 4.000000, 4.000000, 4.000000, 4.000000, 4.000000, 0.000000, 4.000000, 4.000000, 4.000000, 4.000000, 4.000000, 4.000000, 4.000000
109.000000, 0.000000, 4206.153809, 4322.563965, 4193.846191, 4198.461426, 4217.436035, 4203.589844, 4206.153809, 4201.025391, 4203.076660, 4217.436035, 4217.436035, 4191.281738, 4255.384277, 4201.025391, 3459.000000, 8265.000000, 8169.000000, 0.000000, 0.000000, 0.000000, -20291.000000, 611.794861, 4.000000, 4.000000, 4.000000, 4.000000, 4.000000, 4.000000, 4.000000, 4.000000, 0.000000, 4.000000, 4.000000, 4.000000, 4.000000, 4.000000, 4.000000, 4.000000
110.000000, 0.000000, 4196.922852, 4309.743652, 4188.205078, 4186.666504, 4220.512695, 4202.051270, 4200.512695, 4194.358887, 4203.076660, 4210.256348, 4210.256348, 4185.127930, 4246.666504, 4196.410156, 3581.000000, 8265.000000, 8169.000000, 0.000000, 0.000000, 0.000000, -20291.000000, 619.487183, 4.000000, 4.000000, 4.000000, 4.000000, 4.000000, 4.000000, 4.000000, 4.000000, 0.000000, 4.000000, 4.000000, 4.000000, 4.000000, 4.000000, 4.000000, 4.000000
111.000000, 0.000000, 4203.589844, 4307.692383, 4192.820313, 4192.820313, 4215.384277, 4198.974121, 4189.230469, 4185.127930, 4203.076660, 4210.256348, 4207.692383, 4189.230469, 4249.230469, 4196.410156, 3567.000000, 8270.000000, 8169.000000, 0.000000, 0.000000, 0.000000, -20291.000000, 627.692322, 4.000000, 4.000000, 4.000000, 4.000000, 4.000000, 4.000000, 4.000000, 4.000000, 0.000000, 4.000000, 4.000000, 4.000000, 4.000000, 4.000000, 4.000000, 4.000000
112.000000, 0.000000, 4221.538574, 4313.846191, 4209.230469, 4206.153809, 4215.384277, 4198.974121, 4187.692383, 4193.333008, 4202.563965, 4215.897461, 4217.948730, 4198.461426, 4260.512695, 4203.076660, 3518.000000, 8270.000000, 8169.000000, 0.000000, 0.000000, 0.000000, -20291.000000, 635.384583, 4.000000, 4.000000, 4.000000, 4.000000, 4.000000, 4.000000, 4.000000, 4.000000, 0.000000, 4.000000, 4.000000, 4.000000, 4.000000, 4.000000, 4.000000, 4.000000
113.000000, 0.000000, 4226.666504, 4309.743652, 4213.846191, 4205.641113, 4219.487305, 4199.487305, 4190.769043, 4204.615234, 4202.563965, 4214.871582, 4221.538574, 4198.461426, 4264.615234, 4206.666504, 3459.000000, 8269.000000, 8168.000000, 0.000000, 0.000000, 0.000000, -20291.000000, 643.076904, 4.000000, 4.000000, 4.000000, 4.000000, 4.000000, 4.000000, 4.000000, 4.000000, 0.000000, 4.000000, 4.000000, 4.000000, 4.000000, 4.000000, 4.000000, 4.000000
114.000000, 0.000000, 4218.974121, 4300.512695, 4205.127930, 4203.589844, 4219.487305, 4199.487305, 4187.692383, 4201.538574, 4203.589844, 4213.846191, 4214.358887, 4189.743652, 4258.461426, 4205.127930, 3581.000000, 8269.000000, 8168.000000, 0.000000, 0.000000, 0.000000, -20291.000000, 650.769226, 4.000000, 4.000000, 4.000000, 4.000000, 4.000000, 4.000000, 4.000000, 4.000000, 0.000000, 4.000000, 4.000000, 4.000000, 4.000000, 4.000000, 4.000000, 4.000000
115.000000, 0.000000, 4215.897461, 4296.922852, 4200.000000, 4206.666504, 4217.948730, 4201.025391, 4190.769043, 4200.512695, 4202.563965, 4214.871582, 4212.307617, 4188.205078, 4250.769043, 4199.487305, 3567.000000, 8262.000000, 8162.000000, 0.000000, 0.000000, 0.000000, -20291.000000, 658.461548, 4.000000, 4.000000, 4.000000, 4.000000, 4.000000, 4.000000, 4.000000, 4.000000, 0.000000, 4.000000, 4.000000, 4.000000, 4.000000, 4.000000, 4.000000, 4.000000
116.000000, 0.000000, 4208.205078, 4290.256348, 4194.871582, 4204.102539, 4217.948730, 4202.051270, 4200.000000, 4200.000000, 4201.538574, 4210.769043, 4208.717773, 4185.641113, 4248.205078, 4189.743652, 3518.000000, 8262.000000, 8162.000000, 0.000000, 0.000000, 0.000000, -20291.000000, 666.153809, 4.000000, 4.000000, 4.000000, 4.000000, 4.000000, 4.000000, 4.000000, 4.000000, 0.000000, 4.000000, 4.000000, 4.000000, 4.000000, 4.000000, 4.000000, 4.000000
117.000000, 0.000000, 4198.461426, 4282.051270, 4184.615234, 4197.436035, 4216.922852, 4201.538574, 4202.563965, 4187.692383, 4202.051270, 4201.025391, 4197.436035, 4175.897461, 4245.127930, 4181.025391, 3459.000000, 8258.000000, 8158.000000, 0.000000, 0.000000, 0.000000, -20291.000000, 674.358948, 4.000000, 4.000000, 4.000000, 4.000000, 4.000000, 4.000000, 4.000000, 4.000000, 0.000000, 4.000000, 4.000000, 4.000000, 4.000000, 4.000000, 4.000000, 4.000000
118.000000, 0.000000, 4205.127930, 4286.153809, 4185.127930, 4200.512695, 4217.436035, 4200.000000, 4199.487305, 4180.000000, 4202.563965, 4198.461426, 4197.948730, 4174.358887, 4247.179199, 4184.615234, 3581.000000, 8258.000000, 8158.000000, 0.000000, 0.000000, 0.000000, -20291.000000, 682.051270, 4.000000, 4.000000, 4.000000, 4.000000, 4.000000, 4.000000, 4.000000, 4.000000, 0.000000, 4.000000, 4.000000, 4.000000, 4.000000, 4.000000, 4.000000, 4.000000
119.000000, 0.000000, 4217.948730, 4290.769043, 4200.000000, 4212.820313, 4219.487305, 4193.333008, 4186.153809, 4186.153809, 4202.051270, 4206.666504, 4211.794922, 4182.563965, 4257.948730, 4196.410156, 3567.000000, 8252.000000, 8146.000000, 0.000000, 0.000000, 0.000000, -20291.000000, 689.743591, 4.000000, 4.000000, 4.000000, 4.000000, 4.000000, 4.000000, 4.000000, 4.000000, 0.000000, 4.000000, 4.000000, 4.000000, 4.000000, 4.000000, 4.000000, 4.000000
120.000000, 0.000000, 4220.000000, 4284.615234, 4206.153809, 4216.410156, 4218.974121, 4183.589844, 4166.666504, 4188.717773, 4202.051270, 4213.333008, 4218.461426, 4193.333008, 4265.127930, 4203.076660, 3518.000000, 8252.000000, 8146.000000, 0.000000, 0.000000, 0.000000, -20291.000000, 697.435852, 4.000000, 4.000000, 4.000000, 4.000000, 4.000000, 4.000000, 4.000000, 4.000000, 0.000000, 4.000000, 4.000000, 4.000000, 4.000000, 4.000000, 4.000000, 4.000000
121.000000, 0.000000, 4221.025391, 4276.922852, 4201.025391, 4205.127930, 4217.948730, 4185.641113, 4168.205078, 4184.102539, 4201.538574, 4207.179199, 4214.358887, 4200.000000, 4262.051270, 4201.025391, 3459.000000, 8247.000000, 8144.000000, 0.000000, 0.000000, 0.000000, -20291.000000, 705.128174, 4.000000, 4.000000, 4.000000, 4.000000, 4.000000, 4.000000, 4.000000, 4.000000, 0.000000, 4.000000, 4.000000, 4.000000, 4.000000, 4.000000, 4.000000, 4.000000
122.000000, 0.000000, 4215.897461, 4273.333008, 4195.897461, 4198.974121, 4217.948730, 4198.974121, 4185.641113, 4185.127930, 4201.538574, 4201.025391, 4214.358887, 4195.897461, 4261.025391, 4201.025391, 3581.000000, 8247.000000, 8144.000000, 0.000000, 0.000000, 0.000000, -20291.000000, 712.820496, 4.000000, 4.000000, 4.000000, 4.000000, 4.000000, 4.000000, 4.000000, 4.000000, 0.000000, 4.000000, 4.000000, 4.000000, 4.000000, 4.000000, 4.000000, 4.000000
123.000000, 0.000000, 4204.102539, 4267.179199, 4185.641113, 4198.461426, 4218.461426, 4203.589844, 4193.846191, 4186.153809, 4202.563965, 4203.076660, 4213.846191, 4185.641113, 4261.025391, 4201.538574, 3567.000000, 8241.000000, 8143.000000, 0.000000, 0.000000, 0.000000, -20291.000000, 721.025635, 4.000000, 4.000000, 4.000000, 4.000000, 4.000000, 4.000000, 4.000000, 4.000000, 0.000000, 4.000000, 4.000000, 4.000000, 4.000000, 4.000000, 4.000000, 4.000000
124.000000, 0.000000, 4196.922852, 4254.871582, 4170.256348, 4187.692383, 4217.436035, 4201.538574, 4197.436035, 4184.615234, 4203.589844, 4201.025391, 4207.179199, 4180.000000, 4251.281738, 4189.743652, 3518.000000, 8241.000000, 8143.000000, 0.000000, 0.000000, 0.000000, -20291.000000, 728.717957, 4.000000, 4.000000, 4.000000, 4.000000, 4.000000, 4.000000, 4.000000, 4.000000, 0.000000, 4.000000, 4.000000, 4.000000, 4.000000, 4.000000, 4.000000, 4.000000
125.000000, 0.000000, 4199.487305, 4249.743652, 4170.769043, 4181.025391, 4215.384277, 4202.563965, 4203.076660, 4192.307617, 4201.025391, 4201.025391, 4206.666504, 4182.563965, 4248.717773, 4187.179199, 3459.000000, 8241.000000, 8137.000000, 0.000000, 0.000000, 0.000000, -20291.000000, 736.410217, 4.000000, 4.000000, 4.000000, 4.000000, 4.000000, 4.000000, 4.000000, 4.000000, 0.000000, 4.000000, 4.000000, 4.000000, 4.000000, 4.000000, 4.000000, 4.000000
126.000000, 0.000000, 4211.281738, 4253.333008, 4190.256348, 4194.358887, 4214.358887, 4202.563965, 4197.948730, 4201.538574, 4198.461426, 4211.794922, 4218.461426, 4196.410156, 4268.205078, 4207.179199, 3581.000000, 8241.000000, 8137.000000, 0.000000, 0.000000, 0.000000, -20291.000000, 744.102539, 4.000000, 4.000000, 4.000000, 4.000000, 4.000000, 4.000000, 4.000000, 4.000000, 0.000000, 4.000000, 4.000000, 4.000000, 4.000000, 4.000000, 4.000000, 4.000000
127.000000, 0.000000, 4225.641113, 4255.384277, 4208.205078, 4205.127930, 4214.871582, 4197.436035, 4187.692383, 4200.000000, 4200.512695, 4217.436035, 4229.230469, 4211.281738, 4283.076660, 4222.563965, 56.000000, 8244.000000, 8134.000000, 0.000000, 0.000000, 0.000000, -20291.000000, 751.794861, 4.000000, 4.000000, 4.000000, 4.000000, 4.000000, 4.000000, 4.000000, 4.000000, 0.000000, 4.000000, 4.000000, 4.000000, 4.000000, 4.000000, 4.000000, 4.000000
0.000000, 0.000000, 4226.153809, 4248.205078, 4214.358887, 4202.563965, 4214.871582, 4197.436035, 4191.794922, 4197.436035, 4203.589844, 4216.410156, 4232.307617, 4210.769043, 4276.410156, 4221.025391, 3188.000000, 8244.000000, 8134.000000, 0.000000, 0.000000, 0.000000, -20291.000000, 759.487183, 4.000000, 4.000000, 4.000000, 4.000000, 4.000000, 4.000000, 4.000000, 4.000000, 0.000000, 4.000000, 4.000000, 4.000000, 4.000000, 4.000000, 4.000000, 4.000000
1.000000, 0.000000, 4216.922852, 4238.461426, 4211.281738, 4199.487305, 4213.846191, 4202.563965, 4203.589844, 4201.538574, 4203.076660, 4215.897461, 4228.205078, 4203.076660, 4265.641113, 4217.436035, 3539.000000, 8244.000000, 8138.000000, 0.000000, 0.000000, 0.000000, -20291.000000, 767.692261, 4.000000, 4.000000, 4.000000, 4.000000, 4.000000, 4.000000, 4.000000, 4.000000, 0.000000, 4.000000, 4.000000, 4.000000, 4.000000, 4.000000, 4.000000, 4.000000
2.000000, 0.000000, 4215.384277, 4235.384277, 4205.127930, 4200.512695, 4214.871582, 4205.641113, 4201.025391, 4204.615234, 4201.538574, 4219.487305, 4224.615234, 4202.563965, 4266.153809, 4216.922852, 3561.000000, 8244.000000, 8138.000000, 0.000000, 0.000000, 0.000000, -20291.000000, 775.384583, 4.000000, 4.000000, 4.000000, 4.000000, 4.000000, 4.000000, 4.000000, 4.000000, 0.000000, 4.000000, 4.000000, 4.000000, 4.000000, 4.000000, 4.000000, 4.000000
3.000000, 0.000000, 4217.436035, 4230.769043, 4199.487305, 4198.461426, 4215.384277, 4203.589844, 4187.692383, 4202.051270, 4201.538574, 4222.051270, 4227.692383, 4203.589844, 4268.717773, 4212.307617, 2463.000000, 8240.000000, 8140.000000, 0.000000, 0.000000, 0.000000, -20291.000000, 783.076904, 4.000000, 4.000000, 4.000000, 4.000000, 4.000000, 4.000000, 4.000000, 4.000000, 0.000000, 4.000000, 4.000000, 4.000000, 4.000000, 4.000000, 4.000000, 4.000000
4.000000, 0.000000, 4212.820313, 4224.102539, 4202.051270, 4194.871582, 4210.256348, 4200.512695, 4180.512695, 4200.000000, 4202.051270, 4221.025391, 4226.666504, 4203.076660, 4267.179199, 4214.358887, 3556.000000, 8240.000000, 8140.000000, 0.000000, 0.000000, 0.000000, -20291.000000, 790.769226, 4.000000, 4.000000, 4.000000, 4.000000, 4.000000, 4.000000, 4.000000, 4.000000, 0.000000, 4.000000, 4.000000, 4.000000, 4.000000, 4.000000, 4.000000, 4.000000
5.000000, 0.000000, 4206.666504, 4217.436035, 4206.153809, 4191.281738, 4202.051270, 4197.948730, 4185.127930, 4196.922852, 4201.538574, 4216.922852, 4221.025391, 4203.076660, 4267.179199, 4217.436035, 3580.000000, 8241.000000, 8145.000000, 0.000000, 0.000000, 0.000000, -20291.000000, 798.461548, 4.000000, 4.000000, 4.000000, 4.000000, 4.000000, 4.000000, 4.000000, 4.000000, 0.000000, 4.000000, 4.000000, 4.000000, 4.000000, 4.000000, 4.000000, 4.000000
6.000000, 0.000000, 4201.025391, 4206.153809, 4203.076660, 4186.666504, 4191.281738, 4190.256348, 4192.820313, 4187.179199, 4201.538574, 4208.205078, 4217.948730, 4200.000000, 4264.615234, 4207.692383, 3440.000000, 8241.000000, 8145.000000, 0.000000, 0.000000, 0.000000, -20291.000000, 806.153809, 4.000000, 4.000000, 4.000000, 4.000000, 4.000000, 4.000000, 4.000000, 4.000000, 0.000000, 4.000000, 4.000000, 4.000000, 4.000000, 4.000000, 4.000000, 4.000000
7.000000, 0.000000, 4203.076660, 4201.025391, 4202.563965, 4189.230469, 4183.589844, 4185.127930, 4198.461426, 4182.563965, 4201.538574, 4199.487305, 4215.384277, 4198.461426, 4257.436035, 4198.974121, 3509.000000, 8239.000000, 8144.000000, 0.000000, 0.000000, 0.000000, -20291.000000, 814.358948, 4.000000, 4.000000, 4.000000, 4.000000, 4.000000, 4.000000, 4.000000, 4.000000, 0.000000, 4.000000, 4.000000, 4.000000, 4.000000, 4.000000, 4.000000, 4.000000
8.000000, 0.000000, 4213.846191, 4204.102539, 4212.307617, 4199.487305, 4189.230469, 4194.871582, 4202.563965, 4193.846191, 4201.538574, 4208.205078, 4220.000000, 4206.666504, 4258.461426, 4208.717773, 0.000000, 8239.000000, 8144.000000, 0.000000, 0.000000, 0.000000, -20291.000000, 822.051270, 4.000000, 4.000000, 4.000000, 4.000000, 4.000000, 4.000000, 4.000000, 4.000000, 0.000000, 4.000000, 4.000000, 4.000000, 4.000000, 4.000000, 4.000000, 4.000000
9.000000, 0.000000, 4221.538574, 4207.692383, 4218.974121, 4205.127930, 4200.512695, 4205.127930, 4203.589844, 4215.897461, 4201.538574, 4227.692383, 4233.846191, 4217.436035, 4272.820313, 4221.025391, 3022.000000, 8238.000000, 8145.000000, 0.000000, 0.000000, 0.000000, -20291.000000, 829.743591, 4.000000, 4.000000, 4.000000, 4.000000, 4.000000, 4.000000, 4.000000, 4.000000, 0.000000, 4.000000, 4.000000, 4.000000, 4.000000, 4.000000, 4.000000, 4.000000
10.000000, 0.000000, 4216.410156, 4202.563965, 4210.769043, 4198.461426, 4203.076660, 4203.589844, 4205.641113, 4230.769043, 4201.538574, 4230.769043, 4236.922852, 4217.948730, 4279.487305, 4216.922852, 3581.000000, 8238.000000, 8145.000000, 0.000000, 0.000000, 0.000000, -20291.000000, 837.435852, 4.000000, 4.000000, 4.000000, 4.000000, 4.000000, 4.000000, 4.000000, 4.000000, 0.000000, 4.000000, 4.000000, 4.000000, 4.000000, 4.000000, 4.000000, 4.000000
11.000000, 0.000000, 4204.615234, 4194.871582, 4197.436035, 4187.692383, 4199.487305, 4204.102539, 4203.589844, 4224.615234, 4201.538574, 4219.487305, 4222.563965, 4201.538574, 4264.615234, 4204.102539, 3560.000000, 8233.000000, 8152.000000, 0.000000, 0.000000, 0.000000, -20291.000000, 845.128174, 4.000000, 4.000000, 4.000000, 4.000000, 4.000000, 4.000000, 4.000000, 4.000000, 0.000000, 4.000000, 4.000000, 4.000000, 4.000000, 4.000000, 4.000000, 4.000000
12.000000, 0.000000, 4200.000000, 4195.897461, 4196.410156, 4187.179199, 4200.000000, 4205.127930, 4194.358887, 4204.615234, 4201.538574, 4210.769043, 4210.769043, 4186.153809, 4250.769043, 4194.871582, 3519.000000, 8233.000000, 8152.000000, 0.000000, 0.000000, 0.000000, -20291.000000, 853.333313, 4.000000, 4.000000, 4.000000, 4.000000, 4.000000, 4.000000, 4.000000, 4.000000, 0.000000, 4.000000, 4.000000, 4.000000, 4.000000, 4.000000, 4.000000, 4.000000
13.000000, 0.000000, 4200.512695, 4196.410156, 4198.974121, 4195.384277, 4200.000000, 4200.512695, 4190.256348, 4195.384277, 4202.051270, 4203.589844, 4205.641113, 4183.076660, 4244.102539, 4188.717773, 3460.000000, 8231.000000, 8158.000000, 0.000000, 0.000000, 0.000000, -20291.000000, 861.025635, 4.000000, 4.000000, 4.000000, 4.000000, 4.000000, 4.000000, 4.000000, 4.000000, 0.000000, 4.000000, 4.000000, 4.000000, 4.000000, 4.000000, 4.000000, 4.000000
14.000000, 0.000000, 4198.461426, 4189.743652, 4194.358887, 4197.948730, 4198.974121, 4205.641113, 4195.384277, 4197.948730, 4201.538574, 4195.897461, 4194.871582, 4177.948730, 4230.769043, 4183.076660, 3581.000000, 8231.000000, 8158.000000, 0.000000, 0.000000, 0.000000, -20291.000000, 868.717957, 4.000000, 4.000000, 4.000000, 4.000000, 4.000000, 4.000000, 4.000000, 4.000000, 0.000000, 4.000000, 4.000000, 4.000000, 4.000000, 4.000000, 4.000000, 4.000000
15.000000, 0.000000, 4196.922852, 4183.076660, 4190.256348, 4194.871582, 4201.025391, 4215.897461, 4205.641113, 4199.487305, 4201.538574, 4195.384277, 4189.230469, 4172.307617, 4222.563965, 4180.000000, 3560.000000, 8227.000000, 8158.000000, 0.000000, 0.000000, 0.000000, -20291.000000, 876.410217, 4.000000, 4.000000, 4.000000, 4.000000, 4.000000, 4.000000, 4.000000, 4.000000, 0.000000, 4.000000, 4.000000, 4.000000, 4.000000, 4.000000, 4.000000, 4.000000
16.000000, 0.000000, 4197.948730, 4182.051270, 4192.820313, 4195.384277, 4204.615234, 4220.000000, 4216.410156, 4205.641113, 4203.076660, 4211.281738, 4198.461426, 4177.948730, 4230.769043, 4183.589844, 0.000000, 8227.000000, 8158.000000, 0.000000, 0.000000, 0.000000, -20291.000000, 884.102539, 4.000000, 4.000000, 4.000000, 4.000000, 4.000000, 4.000000, 4.000000, 4.000000, 0.000000, 4.000000, 4.000000, 4.000000, 4.000000, 4.000000, 4.000000, 4.000000
17.000000, 0.000000, 4198.461426, 4186.153809, 4191.794922, 4195.384277, 4204.615234, 4218.461426, 4217.948730, 4212.307617, 4203.076660, 4217.948730, 4208.717773, 4183.589844, 4240.000000, 4187.692383, 0.000000, 8225.000000, 8166.000000, 0.000000, 0.000000, 0.000000, -20291.000000, 891.794861, 4.000000, 4.000000, 4.000000, 4.000000, 4.000000, 4.000000, 4.000000, 4.000000, 0.000000, 4.000000, 4.000000, 4.000000, 4.000000, 4.000000, 4.000000, 4.000000
18.000000, 0.000000, 4197.948730, 4188.717773, 4184.102539, 4195.897461, 4200.000000, 4212.307617, 4203.076660, 4201.538574, 4201.025391, 4206.666504, 4205.127930, 4182.563965, 4240.512695, 4190.256348, 0.000000, 8225.000000, 8166.000000, 0.000000, 0.000000, 0.000000, -20291.000000, 900.000000, 4.000000, 4.000000, 4.000000, 4.000000, 4.000000, 4.000000, 4.000000, 4.000000, 0.000000, 4.000000, 4.000000, 4.000000, 4.000000, 4.000000, 4.000000, 4.000000
19.000000, 0.000000, 4200.512695, 4189.230469, 4184.102539, 4198.461426, 4200.512695, 4207.692383, 4196.410156, 4185.641113, 4201.025391, 4206.153809, 4202.051270, 4182.563965, 4243.589844, 4196.410156, 0.000000, 8223.000000, 8167.000000, 0.000000, 0.000000, 0.000000, -20291.000000, 907.692261, 4.000000, 4.000000, 4.000000, 4.000000, 4.000000, 4.000000, 4.000000, 4.000000, 0.000000, 4.000000, 4.000000, 4.000000, 4.000000, 4.000000, 4.000000, 4.000000
20.000000, 0.000000, 4203.076660, 4186.666504, 4194.358887, 4197.948730, 4204.102539, 4214.871582, 4209.743652, 4188.717773, 4202.563965, 4216.922852, 4209.743652, 4186.666504, 4249.230469, 4201.538574, 0.000000, 8223.000000, 8167.000000, 0.000000, 0.000000, 0.000000, -20291.000000, 915.384583, 4.000000, 4.000000, 4.000000, 4.000000, 4.000000, 4.000000, 4.000000, 4.000000, 0.000000, 4.000000, 4.000000, 4.000000, 4.000000, 4.000000, 4.000000, 4.000000
21.000000, 0.000000, 4202.563965, 4180.512695, 4197.436035, 4197.436035, 4203.076660, 4220.000000, 4218.461426, 4200.512695, 4202.051270, 4219.487305, 4215.384277, 4190.769043, 4248.717773, 4202.051270, 0.000000, 8220.000000, 8177.000000, 0.000000, 0.000000, 0.000000, -20291.000000, 923.076904, 4.000000, 4.000000, 4.000000, 4.000000, 4.000000, 4.000000, 4.000000, 4.000000, 0.000000, 4.000000, 4.000000, 4.000000, 4.000000, 4.000000, 4.000000, 4.000000
22.000000, 0.000000, 4206.666504, 4183.076660, 4198.461426, 4198.974121, 4206.153809, 4215.897461, 4213.333008, 4202.563965, 4201.538574, 4221.538574, 4215.384277, 4196.922852, 4249.743652, 4206.153809, 0.000000, 8220.000000, 8177.000000, 0.000000, 0.000000, 0.000000, -20291.000000, 930.769226, 4.000000, 4.000000, 4.000000, 4.000000, 4.000000, 4.000000, 4.000000, 4.000000, 0.000000, 4.000000, 4.000000, 4.000000, 4.000000, 4.000000, 4.000000, 4.000000
23.000000, 0.000000, 4217.436035, 4191.794922, 4205.127930, 4203.589844, 4215.897461, 4215.897461, 4205.127930, 4207.179199, 4203.076660, 4232.820313, 4227.179199, 4208.717773, 4260.000000, 4222.051270, 0.000000, 8216.000000, 8179.000000, 0.000000, 0.000000, 0.000000, -20291.000000, 938.461487, 4.000000, 4.000000, 4.000000, 4.000000, 4.000000, 4.000000, 4.000000, 4.000000, 0.000000, 4.000000, 4.000000, 4.000000, 4.000000, 4.000000, 4.000000, 4.000000
24.000000, 0.000000, 4223.076660, 4193.333008, 4211.281738, 4211.281738, 4215.897461, 4218.974121, 4199.487305, 4215.384277, 4203.589844, 4236.410156, 4238.461426, 4216.410156, 4265.641113, 4231.281738, 0.000000, 8216.000000, 8179.000000, 0.000000, 0.000000, 0.000000, -20291.000000, 946.666626, 4.000000, 4.000000, 4.000000, 4.000000, 4.000000, 4.000000, 4.000000, 4.000000, 0.000000, 4.000000, 4.000000, 4.000000, 4.000000, 4.000000, 4.000000, 4.000000
25.000000, 0.000000, 4217.948730, 4190.256348, 4211.794922, 4210.256348, 4204.102539, 4216.410156, 4204.102539, 4212.820313, 4202.563965, 4224.102539, 4226.666504, 4208.717773, 4255.384277, 4222.563965, 0.000000, 8212.000000, 8172.000000, 0.000000, 0.000000, 0.000000, -20291.000000, 954.358948, 4.000000, 4.000000, 4.000000, 4.000000, 4.000000, 4.000000, 4.000000, 4.000000, 0.000000, 4.000000, 4.000000, 4.000000, 4.000000, 4.000000, 4.000000, 4.000000
26.000000, 0.000000, 4214.871582, 4191.794922, 4211.794922, 4203.076660, 4197.948730, 4215.897461, 4211.281738, 4207.692383, 4203.076660, 4214.358887, 4217.948730, 4201.025391, 4244.102539, 4215.384277, 0.000000, 8212.000000, 8172.000000, 0.000000, 0.000000, 0.000000, -20291.000000, 962.051270, 4.000000, 4.000000, 4.000000, 4.000000, 4.000000, 4.000000, 4.000000, 4.000000, 0.000000, 4.000000, 4.000000, 4.000000, 4.000000, 4.000000, 4.000000, 4.000000
27.000000, 0.000000, 4220.000000, 4193.846191, 4214.358887, 4202.563965, 4198.461426, 4213.333008, 4206.666504, 4213.333008, 4204.102539, 4223.589844, 4228.205078, 4210.256348, 4247.692383, 4221.538574, 0.000000, 8201.000000, 8171.000000, 0.000000, 0.000000, 0.000000, -20291.000000, 969.743591, 4.000000, 4.000000, 4.000000, 4.000000, 4.000000, 4.000000, 4.000000, 4.000000, 0.000000, 4.000000, 4.000000, 4.000000, 4.000000, 4.000000, 4.000000, 4.000000
28.000000, 0.000000, 4221.538574, 4194.358887, 4215.897461, 4203.076660, 4198.974121, 4208.717773, 4203.589844, 4217.948730, 4203.076660, 4235.897461, 4237.948730, 4220.512695, 4258.974121, 4230.769043, 0.000000, 8201.000000, 8171.000000, 0.000000, 0.000000, 0.000000, -20291.000000, 977.435852, 4.000000, 4.000000, 4.000000, 4.000000, 4.000000, 4.000000, 4.000000, 4.000000, 0.000000, 4.000000, 4.000000, 4.000000, 4.000000, 4.000000, 4.000000, 4.000000
29.000000, 0.000000, 4220.000000, 4201.538574, 4215.897461, 4202.563965, 4201.538574, 4211.794922, 4214.871582, 4217.436035, 4202.563965, 4233.846191, 4241.538574, 4221.025391, 4264.102539, 4232.820313, 0.000000, 8200.000000, 8165.000000, 0.000000, 0.000000, 0.000000, -20291.000000, 985.128174, 4.000000, 4.000000, 4.000000, 4.000000, 4.000000, 4.000000, 4.000000, 4.000000, 0.000000, 4.000000, 4.000000, 4.000000, 4.000000, 4.000000, 4.000000, 4.000000
30.000000, 0.000000, 4219.487305, 4205.127930, 4210.769043, 4203.589844, 4202.563965, 4217.436035, 4220.000000, 4218.974121, 4203.076660, 4230.769043, 4236.922852, 4215.384277, 4250.769043, 4224.615234, 0.000000, 8200.000000, 8165.000000, 0.000000, 0.000000, 0.000000, -20291.000000, 993.333313, 4.000000, 4.000000, 4.000000, 4.000000, 4.000000, 4.000000, 4.000000, 4.000000, 0.000000, 4.000000, 4.000000, 4.000000, 4.000000, 4.000000, 4.000000, 4.000000
31.000000, 0.000000, 4211.281738, 4198.974121, 4200.512695, 4200.512695, 4201.025391, 4217.948730, 4214.358887, 4219.487305, 4203.076660, 4231.281738, 4221.538574, 4203.589844, 4225.641113, 4212.307617, 0.000000, 8192.000000, 8167.000000, 0.000000, 0.000000, 0.000000, -20290.000000, 1.025641, 4.000000, 4.000000, 4.000000, 4.000000, 4.000000, 4.000000, 4.000000, 4.000000, 0.000000, 4.000000, 4.000000, 4.000000, 4.000000, 4.000000, 4.000000, 4.000000
32.000000, 0.000000, 4205.641113, 4201.025391, 4198.974121, 4195.897461, 4197.948730, 4215.897461, 4215.384277, 4211.281738, 4203.076660, 4222.563965, 4218.461426, 4197.436035, 4209.743652, 4211.281738, 0.000000, 8192.000000, 8167.000000, 0.000000, 0.000000, 0.000000, -20290.000000, 8.717949, 4.000000, 4.000000, 4.000000, 4.000000, 4.000000, 4.000000, 4.000000, 4.000000, 0.000000, 4.000000, 4.000000, 4.000000, 4.000000, 4.000000, 4.000000, 4.000000
33.000000, 0.000000, 4213.333008, 4210.256348, 4206.666504, 4199.487305, 4197.948730, 4215.897461, 4219.487305, 4204.615234, 4202.051270, 4217.948730, 4231.281738, 4202.563965, 4205.127930, 4218.461426, 0.000000, 8186.000000, 8170.000000, 0.000000, 0.000000, 0.000000, -20290.000000, 16.410255, 4.000000, 4.000000, 4.000000, 4.000000, 4.000000, 4.000000, 4.000000, 4.000000, 0.000000, 4.000000, 4.000000, 4.000000, 4.000000, 4.000000, 4.000000, 4.000000
34.000000, 0.000000, 4213.333008, 4215.897461, 4207.692383, 4202.051270, 4203.589844, 4218.974121, 4212.307617, 4205.127930, 4201.025391, 4218.461426, 4226.153809, 4204.615234, 4192.307617, 4217.948730, 0.000000, 8186.000000, 8170.000000, 0.000000, 0.000000, 0.000000, -20290.000000, 24.102564, 4.000000, 4.000000, 4.000000, 4.000000, 4.000000, 4.000000, 4.000000, 4.000000, 0.000000, 4.000000, 4.000000, 4.000000, 4.000000, 4.000000, 4.000000, 4.000000
35.000000, 0.000000, 4205.127930, 4221.025391, 4202.051270, 4200.000000, 4204.102539, 4214.871582, 4202.563965, 4206.153809, 4201.538574, 4213.846191, 4211.794922, 4201.025391, 4174.358887, 4211.281738, 0.000000, 8180.000000, 8185.000000, 0.000000, 0.000000, 0.000000, -20290.000000, 31.794870, 4.000000, 4.000000, 4.000000, 4.000000, 4.000000, 4.000000, 4.000000, 4.000000, 0.000000, 4.000000, 4.000000, 4.000000, 4.000000, 4.000000, 4.000000, 4.000000
36.000000, 0.000000, 4211.281738, 4229.230469, 4201.025391, 4203.589844, 4198.461426, 4206.153809, 4201.538574, 4207.692383, 4201.025391, 4212.307617, 4217.436035, 4201.025391, 4174.358887, 4212.820313, 0.000000, 8180.000000, 8185.000000, 0.000000, 0.000000, 0.000000, -20290.000000, 40.000000, 4.000000, 4.000000, 4.000000, 4.000000, 4.000000, 4.000000, 4.000000, 4.000000, 0.000000, 4.000000, 4.000000, 4.000000, 4.000000, 4.000000, 4.000000, 4.000000
37.000000, 0.000000, 4216.922852, 4235.384277, 4207.179199, 4210.256348, 4197.948730, 4208.717773, 4210.256348, 4211.794922, 4200.512695, 4217.436035, 4227.692383, 4203.589844, 4180.000000, 4217.436035, 0.000000, 8173.000000, 8192.000000, 0.000000, 0.000000, 0.000000, -20290.000000, 47.692307, 4.000000, 4.000000, 4.000000, 4.000000, 4.000000, 4.000000, 4.000000, 4.000000, 0.000000, 4.000000, 4.000000, 4.000000, 4.000000, 4.000000, 4.000000, 4.000000
38.000000, 0.000000, 4211.794922, 4235.897461, 4210.769043, 4213.333008, 4199.487305, 4214.358887, 4214.358887, 4214.358887, 4202.563965, 4216.922852, 4219.487305, 4202.051270, 4170.256348, 4213.333008, 0.000000, 8173.000000, 8192.000000, 0.000000, 0.000000, 0.000000, -20290.000000, 55.384613, 4.000000, 4.000000, 4.000000, 4.000000, 4.000000, 4.000000, 4.000000, 4.000000, 0.000000, 4.000000, 4.000000, 4.000000, 4.000000, 4.000000, 4.000000, 4.000000
39.000000, 0.000000, 4208.717773, 4235.384277, 4206.666504, 4212.307617, 4196.922852, 4212.307617, 4216.410156, 4214.358887, 4203.076660, 4213.846191, 4211.794922, 4198.974121, 4164.615234, 4209.743652, 0.000000, 8169.000000, 8195.000000, 0.000000, 0.000000, 0.000000, -20290.000000, 63.076923, 4.000000, 4.000000, 4.000000, 4.000000, 4.000000, 4.000000, 4.000000, 4.000000, 0.000000, 4.000000, 4.000000, 4.000000, 4.000000, 4.000000, 4.000000, 4.000000
40.000000, 0.000000, 4207.692383, 4235.384277, 4207.179199, 4210.256348, 4193.846191, 4207.179199, 4214.358887, 4217.436035, 4201.538574, 4216.410156, 4220.000000, 4204.102539, 4172.307617, 4214.358887, 0.000000, 8169.000000, 8195.000000, 0.000000, 0.000000, 0.000000, -20290.000000, 70.769226, 4.000000, 4.000000, 4.000000, 4.000000, 4.000000, 4.000000, 4.000000, 4.000000, 0.000000, 4.000000, 4.000000, 4.000000, 4.000000, 4.000000, 4.000000, 4.000000
41.000000, 0.000000, 4208.205078, 4229.743652, 4210.769043, 4209.230469, 4193.333008, 4202.563965, 4203.076660, 4218.461426, 4202.051270, 4219.487305, 4229.230469, 4213.333008, 4176.410156, 4218.461426, 0.000000, 8158.000000, 8198.000000, 0.000000, 0.000000, 0.000000, -20290.000000, 78.461540, 4.000000, 4.000000, 4.000000, 4.000000, 4.000000, 4.000000, 4.000000, 4.000000, 0.000000, 4.000000, 4.000000, 4.000000, 4.000000, 4.000000, 4.000000, 4.000000
42.000000, 0.000000, 4215.384277, 4233.333008, 4212.307617, 4215.897461, 4198.461426, 4206.153809, 4202.563965, 4217.948730, 4203.076660, 4220.000000, 4231.794922, 4216.410156, 4178.974121, 4218.461426, 0.000000, 8158.000000, 8198.000000, 0.000000, 0.000000, 0.000000, -20290.000000, 86.666664, 4.000000, 4.000000, 4.000000, 4.000000, 4.000000, 4.000000, 4.000000, 4.000000, 0.000000, 4.000000, 4.000000, 4.000000, 4.000000, 4.000000, 4.000000, 4.000000
43.000000, 0.000000, 4220.000000, 4246.153809, 4214.871582, 4221.538574, 4204.615234, 4217.948730, 4213.333008, 4216.922852, 4202.563965, 4215.897461, 4232.820313, 4213.846191, 4182.051270, 4221.025391, 0.000000, 8151.000000, 8193.000000, 0.000000, 0.000000, 0.000000, -20290.000000, 94.358971, 4.000000, 4.000000, 4.000000, 4.000000, 4.000000, 4.000000, 4.000000, 4.000000, 0.000000, 4.000000, 4.000000, 4.000000, 4.000000, 4.000000, 4.000000, 4.000000
44.000000, 0.000000, 4214.358887, 4238.461426, 4212.820313, 4209.230469, 4204.102539, 4221.538574, 4217.948730, 4219.487305, 4202.563965, 4215.897461, 4233.333008, 4210.769043, 4175.897461, 4220.512695, 0.000000, 8151.000000, 8193.000000, 0.000000, 0.000000, 0.000000, -20290.000000, 102.051277, 4.000000, 4.000000, 4.000000, 4.000000, 4.000000, 4.000000, 4.000000, 4.000000, 0.000000, 4.000000, 4.000000, 4.000000, 4.000000, 4.000000, 4.000000, 4.000000
45.000000, 0.000000, 4212.820313, 4231.281738, 4211.281738, 4197.948730, 4201.025391, 4218.461426, 4218.461426, 4226.153809, 4203.076660, 4223.589844, 4233.846191, 4211.281738, 4174.358887, 4216.922852, 0.000000, 8146.000000, 8182.000000, 0.000000, 0.000000, 0.000000, -20290.000000, 109.743584, 4.000000, 4.000000, 4.000000, 4.000000, 4.000000, 4.000000, 4.000000, 4.000000, 0.000000, 4.000000, 4.000000, 4.000000, 4.000000, 4.000000, 4.000000, 4.000000
46.000000, 0.000000, 4219.487305, 4247.179199, 4213.846191, 4211.281738, 4202.563965, 4220.512695, 4218.974121, 4222.563965, 4202.563965, 4224.615234, 4233.333008, 4215.384277, 4184.615234, 4223.076660, 0.000000, 8146.000000, 8182.000000, 0.000000, 0.000000, 0.000000, -20290.000000, 117.435898, 4.000000, 4.000000, 4.000000, 4.000000, 4.000000, 4.000000, 4.000000, 4.000000, 0.000000, 4.000000, 4.000000, 4.000000, 4.000000, 4.000000, 4.000000, 4.000000
47.000000, 0.000000, 4224.102539, 4261.025391, 4214.358887, 4221.538574, 4203.589844, 4221.538574, 4216.922852, 4214.358887, 4202.563965, 4220.512695, 4236.410156, 4214.871582, 4191.281738, 4231.281738, 0.000000, 8146.000000, 8172.000000, 0.000000, 0.000000, 0.000000, -20290.000000, 125.641022, 4.000000, 4.000000, 4.000000, 4.000000, 4.000000, 4.000000, 4.000000, 4.000000, 0.000000, 4.000000, 4.000000, 4.000000, 4.000000, 4.000000, 4.000000, 4.000000
48.000000, 0.000000, 4217.948730, 4262.563965, 4203.076660, 4209.230469, 4196.922852, 4218.461426, 4218.974121, 4210.769043, 4202.563965, 4221.025391, 4231.281738, 4204.102539, 4181.538574, 4222.563965, 0.000000, 8146.000000, 8172.000000, 0.000000, 0.000000, 0.000000, -20290.000000, 133.333328, 4.000000, 4.000000, 4.000000, 4.000000, 4.000000, 4.000000, 4.000000, 4.000000, 0.000000, 4.000000, 4.000000, 4.000000, 4.000000, 4.000000, 4.000000, 4.000000
49.000000, 0.000000, 4209.743652, 4270.256348, 4194.358887, 4203.589844, 4193.333008, 4216.922852, 4222.051270, 4209.230469, 4201.025391, 4218.974121, 4218.461426, 4193.846191, 4167.179199, 4206.666504, 0.000000, 8147.000000, 8166.000000, 0.000000, 0.000000, 0.000000, -20290.000000, 141.025635, 4.000000, 4.000000, 4.000000, 4.000000, 4.000000, 4.000000, 4.000000, 4.000000, 0.000000, 4.000000, 4.000000, 4.000000, 4.000000, 4.000000, 4.000000, 4.000000
50.000000, 0.000000, 4206.153809, 4282.563965, 4197.948730, 4214.358887, 4198.461426, 4215.384277, 4213.333008, 4210.769043, 4201.538574, 4215.384277, 4214.871582, 4193.846191, 4161.025391, 4203.076660, 0.000000, 8147.000000, 8166.000000, 0.000000, 0.000000, 0.000000, -20290.000000, 148.717941, 4.000000, 4.000000, 4.000000, 4.000000, 4.000000, 4.000000, 4.000000, 4.000000, 0.000000, 4.000000, 4.000000, 4.000000, 4.000000, 4.000000, 4.000000, 4.000000
51.000000, 0.000000, 4202.051270, 4288.205078, 4198.974121, 4218.461426, 4203.076660, 4213.846191, 4204.102539, 4216.410156, 4202.051270, 4217.948730, 4216.922852, 4191.281738, 4157.436035, 4202.563965, 0.000000, 8150.000000, 8165.000000, 0.000000, 0.000000, 0.000000, -20290.000000, 156.410248, 4.000000, 4.000000, 4.000000, 4.000000, 4.000000, 4.000000, 4.000000, 4.000000, 0.000000, 4.000000, 4.000000, 4.000000, 4.000000, 4.000000, 4.000000, 4.000000
52.000000, 0.000000, 4206.153809, 4296.922852, 4197.948730, 4218.974121, 4201.538574, 4210.769043, 4203.589844, 4215.897461, 4201.025391, 4216.410156, 4213.333008, 4185.641113, 4151.281738, 4200.000000, 0.000000, 8150.000000, 8165.000000, 0.000000, 0.000000, 0.000000, -20290.000000, 164.102554, 4.000000, 4.000000, 4.000000, 4.000000, 4.000000, 4.000000, 4.000000, 4.000000, 0.000000, 4.000000, 4.000000, 4.000000, 4.000000, 4.000000, 4.000000, 4.000000
53.000000, 0.000000, 4216.922852, 4305.641113, 4206.666504, 4228.717773, 4199.487305, 4210.769043, 4209.743652, 4214.871582, 4201.538574, 4215.384277, 4212.307617, 4192.820313, 4150.769043, 4202.563965, 0.000000, 8149.000000, 8161.000000, 0.000000, 0.000000, 0.000000, -20290.000000, 172.307693, 4.000000, 4.000000, 4.000000, 4.000000, 4.000000, 4.000000, 4.000000, 4.000000, 0.000000, 4.000000, 4.000000, 4.000000, 4.000000, 4.000000, 4.000000, 4.000000
54.000000, 0.000000, 4221.538574, 4309.743652, 4213.333008, 4232.820313, 4206.153809, 4216.922852, 4217.948730, 4222.563965, 4203.076660, 4221.538574, 4219.487305, 4201.025391, 4156.410156, 4205.127930, 0.000000, 8149.000000, 8161.000000, 0.000000, 0.000000, 0.000000, -20290.000000, 180.000000, 4.000000, 4.000000, 4.000000, 4.000000, 4.000000, 4.000000, 4.000000, 4.000000, 0.000000, 4.000000, 4.000000, 4.000000, 4.000000, 4.000000, 4.000000, 4.000000
55.000000, 0.000000, 4214.871582, 4313.333008, 4209.230469, 4223.076660, 4204.102539, 4218.974121, 4219.487305, 4217.436035, 4202.051270, 4217.436035, 4215.897461, 4194.871582, 4156.410156, 4199.487305, 0.000000, 8154.000000, 8157.000000, 0.000000, 0.000000, 0.000000, -20290.000000, 187.692307, 4.000000, 4.000000, 4.000000, 4.000000, 4.000000, 4.000000, 4.000000, 4.000000, 0.000000, 4.000000, 4.000000, 4.000000, 4.000000, 4.000000, 4.000000, 4.000000
56.000000, 0.000000, 4202.563965, 4309.230469, 4204.615234, 4216.410156, 4186.153809, 4214.358887, 4218.461426, 4201.538574, 4200.512695, 4204.102539, 4202.563965, 4184.615234, 4148.205078, 4189.743652, 0.000000, 8154.000000, 8157.000000, 0.000000, 0.000000, 0.000000, -20290.000000, 195.384613, 4.000000, 4.000000, 4.000000, 4.000000, 4.000000, 4.000000, 4.000000, 4.000000, 0.000000, 4.000000, 4.000000, 4.000000, 4.000000, 4.000000, 4.000000, 4.000000
57.000000, 0.000000, 4202.051270, 4308.717773, 4208.205078, 4218.974121, 4188.205078, 4214.358887, 4217.436035, 4195.897461, 4201.538574, 4197.436035, 4197.436035, 4186.153809, 4140.512695, 4185.641113, 0.000000, 8159.000000, 8154.000000, 0.000000, 0.000000, 0.000000, -20290.000000, 203.076920, 4.000000, 4.000000, 4.000000, 4.000000, 4.000000, 4.000000, 4.000000, 4.000000, 0.000000, 4.000000, 4.000000, 4.000000, 4.000000, 4.000000, 4.000000, 4.000000
58.000000, 0.000000, 4207.692383, 4319.487305, 4207.692383, 4221.025391, 4210.256348, 4216.922852, 4209.230469, 4202.051270, 4203.589844, 4200.000000, 4200.000000, 4191.281738, 4144.102539, 4186.666504, 0.000000, 8159.000000, 8154.000000, 0.000000, 0.000000, 0.000000, -20290.000000, 210.769226, 4.000000, 4.000000, 4.000000, 4.000000, 4.000000, 4.000000, 4.000000, 4.000000, 0.000000, 4.000000, 4.000000, 4.000000, 4.000000, 4.000000, 4.000000, 4.000000
59.000000, 0.000000, 4204.615234, 4322.563965, 4200.000000, 4217.436035, 4211.281738, 4215.897461, 4201.538574, 4204.615234, 4203.589844, 4204.102539, 4202.051270, 4189.230469, 4153.333008, 4186.153809, 0.000000, 8164.000000, 8162.000000, 0.000000, 0.000000, 0.000000, -20290.000000, 218.974350, 4.000000, 4.000000, 4.000000, 4.000000, 4.000000, 4.000000, 4.000000, 4.000000, 0.000000, 4.000000, 4.000000, 4.000000, 4.000000, 4.000000, 4.000000, 4.000000
60.000000, 0.000000, 4196.922852, 4317.436035, 4200.512695, 4211.794922, 4192.820313, 4213.846191, 4209.743652, 4194.358887, 4202.051270, 4203.589844, 4198.461426, 4183.076660, 4153.333008, 4181.538574, 0.000000, 8164.000000, 8162.000000, 0.000000, 0.000000, 0.000000, -20290.000000, 226.666656, 4.000000, 4.000000, 4.000000, 4.000000, 4.000000, 4.000000, 4.000000, 4.000000, 0.000000, 4.000000, 4.000000, 4.000000, 4.000000, 4.000000, 4.000000, 4.000000
61.000000, 0.000000, 4199.487305, 4320.512695, 4207.692383, 4210.769043, 4191.281738, 4214.358887, 4221.538574, 4192.820313, 4201.538574, 4200.000000, 4196.410156, 4183.076660, 4149.743652, 4178.974121, 0.000000, 8174.000000, 8165.000000, 0.000000, 0.000000, 0.000000, -20290.000000, 234.358963, 4.000000, 4.000000, 4.000000, 4.000000, 4.000000, 4.000000, 4.000000, 4.000000, 0.000000, 4.000000, 4.000000, 4.000000, 4.000000, 4.000000, 4.000000, 4.000000
62.000000, 0.000000, 4201.538574, 4328.717773, 4209.743652, 4215.384277, 4200.512695, 4215.384277, 4218.974121, 4206.153809, 4202.563965, 4202.051270, 4199.487305, 4192.307617, 4153.333008, 4188.205078, 0.000000, 8174.000000, 8165.000000, 0.000000, 0.000000, 0.000000, -20290.000000, 242.051270, 4.000000, 4.000000, 4.000000, 4.000000, 4.000000, 4.000000, 4.000000, 4.000000, 0.000000, 4.000000, 4.000000, 4.000000, 4.000000, 4.000000, 4.000000, 4.000000
63.000000, 0.000000, 4200.512695, 4334.871582, 4211.794922, 4218.461426, 4201.538574, 4216.922852, 4218.974121, 4218.974121, 4203.076660, 4211.794922, 4208.717773, 4202.563965, 4163.076660, 4202.051270, 0.000000, 8173.000000, 8169.000000, 0.000000, 0.000000, 0.000000, -20290.000000, 249.743576, 4.000000, 4.000000, 4.000000, 4.000000, 4.000000, 4.000000, 4.000000, 4.000000, 0.000000, 4.000000, 4.000000, 4.000000, 4.000000, 4.000000, 4.000000, 4.000000
64.000000, 0.000000, 4209.230469, 4339.487305, 4211.281738, 4215.897461, 4201.538574, 4215.384277, 4225.641113, 4228.205078, 4202.563965, 4221.538574, 4217.436035, 4205.127930, 4172.820313, 4207.179199, 3188.000000, 8173.000000, 8169.000000, 0.000000, 0.000000, 0.000000, -20290.000000, 257.435883, 4.000000, 4.000000, 4.000000, 4.000000, 4.000000, 4.000000, 4.000000, 4.000000, 0.000000, 4.000000, 4.000000, 4.000000, 4.000000, 4.000000, 4.000000, 4.000000
65.000000, 0.000000, 4215.384277, 4343.589844, 4207.692383, 4215.384277, 4208.717773, 4218.974121, 4224.102539, 4232.820313, 4202.051270, 4224.102539, 4218.974121, 4205.641113, 4173.846191, 4205.641113, 3539.000000, 8179.000000, 8171.000000, 0.000000, 0.000000, 0.000000, -20290.000000, 265.641022, 4.000000, 4.000000, 4.000000, 4.000000, 4.000000, 4.000000, 4.000000, 4.000000, 0.000000, 4.000000, 4.000000, 4.000000, 4.000000, 4.000000, 4.000000, 4.000000
66.000000, 0.000000, 4206.666504, 4344.102539, 4207.692383, 4216.922852, 4212.820313, 4227.179199, 4221.025391, 4224.615234, 4202.563965, 4219.487305, 4213.333008, 4201.025391, 4162.563965, 4203.589844, 3561.000000, 8179.000000, 8171.000000, 0.000000, 0.000000, 0.000000, -20290.000000, 273.333313, 4.000000, 4.000000, 4.000000, 4.000000, 4.000000, 4.000000, 4.000000, 4.000000, 0.000000, 4.000000, 4.000000, 4.000000, 4.000000, 4.000000, 4.000000, 4.000000
67.000000, 0.000000, 4201.025391, 4343.076660, 4208.205078, 4211.281738, 4201.025391, 4223.589844, 4220.512695, 4215.384277, 4203.589844, 4215.897461, 4210.256348, 4190.769043, 4155.897461, 4201.025391, 2457.000000, 8179.000000, 8174.000000, 0.000000, 0.000000, 0.000000, -20290.000000, 281.025635, 4.000000, 4.000000, 4.000000, 4.000000, 4.000000, 4.000000, 4.000000, 4.000000, 0.000000, 4.000000, 4.000000, 4.000000, 4.000000, 4.000000, 4.000000, 4.000000
68.000000, 0.000000, 4203.589844, 4343.589844, 4203.589844, 4205.641113, 4198.461426, 4214.358887, 4211.281738, 4215.384277, 4202.563965, 4217.436035, 4210.256348, 4188.717773, 4157.436035, 4201.025391, 3552.000000, 8179.000000, 8174.000000, 0.000000, 0.000000, 0.000000, -20290.000000, 288.717957, 4.000000, 4.000000, 4.000000, 4.000000, 4.000000, 4.000000, 4.000000, 4.000000, 0.000000, 4.000000, 4.000000, 4.000000, 4.000000, 4.000000, 4.000000, 4.000000
69.000000, 0.000000, 4203.076660, 4344.102539, 4198.974121, 4207.692383, 4204.615234, 4215.897461, 4205.641113, 4215.897461, 4198.974121, 4221.025391, 4206.153809, 4197.948730, 4158.461426, 4202.563965, 3580.000000, 8192.000000, 8177.000000, 0.000000, 0.000000, 0.000000, -20290.000000, 296.410248, 4.000000, 4.000000, 4.000000, 4.000000, 4.000000, 4.000000, 4.000000, 4.000000, 0.000000, 4.000000, 4.000000, 4.000000, 4.000000, 4.000000, 4.000000, 4.000000
70.000000, 0.000000, 4199.487305, 4347.179199, 4200.512695, 4211.281738, 4197.948730, 4220.512695, 4213.846191, 4217.436035, 4200.000000, 4222.563965, 4207.692383, 4198.461426, 4158.974121, 4201.538574, 3442.000000, 8192.000000, 8177.000000, 0.000000, 0.000000, 0.000000, -20290.000000, 304.102570, 4.000000, 4.000000, 4.000000, 4.000000, 4.000000, 4.000000, 4.000000, 4.000000, 0.000000, 4.000000, 4.000000, 4.000000, 4.000000, 4.000000, 4.000000, 4.000000
71.000000, 0.000000, 4201.538574, 4355.897461, 4201.025391, 4214.358887, 4196.922852, 4218.974121, 4211.281738, 4214.358887, 4202.563965, 4220.000000, 4213.333008, 4188.205078, 4160.000000, 4201.538574, 3507.000000, 8195.000000, 8176.000000, 0.000000, 0.000000, 0.000000, -20290.000000, 312.307678, 4.000000, 4.000000, 4.000000, 4.000000, 4.000000, 4.000000, 4.000000, 4.000000, 0.000000, 4.000000, 4.000000, 4.000000, 4.000000, 4.000000, 4.000000, 4.000000
72.000000, 0.000000, 4201.538574, 4363.076660, 4202.563965, 4213.846191, 4209.230469, 4216.410156, 4198.461426, 4206.666504, 4203.589844, 4217.948730, 4206.666504, 4183.589844, 4160.000000, 4201.538574, 0.000000, 8195.000000, 8176.000000, 0.000000, 0.000000, 0.000000, -20290.000000, 320.000000, 4.000000, 4.000000, 4.000000, 4.000000, 4.000000, 4.000000, 4.000000, 4.000000, 0.000000, 4.000000, 4.000000, 4.000000, 4.000000, 4.000000, 4.000000, 4.000000
73.000000, 0.000000, 4198.974121, 4363.076660, 4203.076660, 4208.205078, 4207.179199, 4215.897461, 4200.000000, 4210.769043, 4204.102539, 4217.436035, 4198.461426, 4183.076660, 4155.384277, 4196.410156, 3022.000000, 8205.000000, 8184.000000, 0.000000, 0.000000, 0.000000, -20290.000000, 327.692291, 4.000000, 4.000000, 4.000000, 4.000000, 4.000000, 4.000000, 4.000000, 4.000000, 0.000000, 4.000000, 4.000000, 4.000000, 4.000000, 4.000000, 4.000000, 4.000000
74.000000, 0.000000, 4198.461426, 4363.076660, 4199.487305, 4204.615234, 4200.000000, 4217.948730, 4205.127930, 4217.436035, 4204.102539, 4217.436035, 4203.589844, 4182.563965, 4154.871582, 4192.820313, 3589.000000, 8205.000000, 8184.000000, 0.000000, 0.000000, 0.000000, -20290.000000, 335.384613, 4.000000, 4.000000, 4.000000, 4.000000, 4.000000, 4.000000, 4.000000, 4.000000, 0.000000, 4.000000, 4.000000, 4.000000, 4.000000, 4.000000, 4.000000, 4.000000
75.000000, 0.000000, 4200.512695, 4366.666504, 4200.000000, 4204.102539, 4201.538574, 4213.846191, 4200.512695, 4217.948730, 4203.076660, 4216.410156, 4205.641113, 4186.153809, 4155.897461, 4196.410156, 3556.000000, 8216.000000, 8194.000000, 0.000000, 0.000000, 0.000000, -20290.000000, 343.076904, 4.000000, 4.000000, 4.000000, 4.000000, 4.000000, 4.000000, 4.000000, 4.000000, 0.000000, 4.000000, 4.000000, 4.000000, 4.000000, 4.000000, 4.000000, 4.000000
76.000000, 0.000000, 4200.000000, 4361.538574, 4197.948730, 4201.025391, 4195.897461, 4202.563965, 4198.461426, 4219.487305, 4202.051270, 4216.922852, 4203.589844, 4190.769043, 4155.384277, 4198.974121, 3520.000000, 8216.000000, 8194.000000, 0.000000, 0.000000, 0.000000, -20290.000000, 351.282043, 4.000000, 4.000000, 4.000000, 4.000000, 4.000000, 4.000000, 4.000000, 4.000000, 0.000000, 4.000000, 4.000000, 4.000000, 4.000000, 4.000000, 4.000000, 4.000000
77.000000, 0.000000, 4193.846191, 4354.358887, 4194.871582, 4197.948730, 4185.641113, 4198.461426, 4199.487305, 4217.948730, 4202.051270, 4216.410156, 4208.205078, 4192.307617, 4154.871582, 4197.948730, 3460.000000, 8228.000000, 8200.000000, 0.000000, 0.000000, 0.000000, -20290.000000, 358.974365, 4.000000, 4.000000, 4.000000, 4.000000, 4.000000, 4.000000, 4.000000, 4.000000, 0.000000, 4.000000, 4.000000, 4.000000, 4.000000, 4.000000, 4.000000, 4.000000
78.000000, 0.000000, 4192.307617, 4359.487305, 4197.948730, 4201.025391, 4182.563965, 4199.487305, 4197.436035, 4211.281738, 4201.538574, 4215.897461, 4209.743652, 4194.871582, 4155.384277, 4200.512695, 3589.000000, 8228.000000, 8200.000000, 0.000000, 0.000000, 0.000000, -20290.000000, 366.666656, 4.000000, 4.000000, 4.000000, 4.000000, 4.000000, 4.000000, 4.000000, 4.000000, 0.000000, 4.000000, 4.000000, 4.000000, 4.000000, 4.000000, 4.000000, 4.000000
79.000000, 0.000000, 4199.487305, 4365.641113, 4201.538574, 4208.717773, 4186.153809, 4200.512695, 4200.000000, 4214.871582, 4201.025391, 4216.410156, 4205.127930, 4195.384277, 4157.948730, 4205.127930, 3556.000000, 8237.000000, 8199.000000, 0.000000, 0.000000, 0.000000, -20290.000000, 374.358978, 4.000000, 4.000000, 4.000000, 4.000000, 4.000000, 4.000000, 4.000000, 4.000000, 0.000000, 4.000000, 4.000000, 4.000000, 4.000000, 4.000000, 4.000000, 4.000000
80.000000, 0.000000, 4204.102539, 4365.127930, 4200.512695, 4211.794922, 4193.333008, 4202.051270, 4205.127930, 4220.000000, 4201.025391, 4215.897461, 4201.538574, 4187.692383, 4156.922852, 4199.487305, 3520.000000, 8237.000000, 8199.000000, 0.000000, 0.000000, 0.000000, -20290.000000, 382.051270, 4.000000, 4.000000, 4.000000, 4.000000, 4.000000, 4.000000, 4.000000, 4.000000, 0.000000, 4.000000, 4.000000, 4.000000, 4.000000, 4.000000, 4.000000, 4.000000
81.000000, 0.000000, 4199.487305, 4360.512695, 4200.000000, 4205.127930, 4196.922852, 4201.538574, 4204.615234, 4212.307617, 4201.538574, 4215.384277, 4198.974121, 4183.076660, 4154.358887, 4192.820313, 3460.000000, 8239.000000, 8205.000000, 0.000000, 0.000000, 0.000000, -20290.000000, 389.743591, 4.000000, 4.000000, 4.000000, 4.000000, 4.000000, 4.000000, 4.000000, 4.000000, 0.000000, 4.000000, 4.000000, 4.000000, 4.000000, 4.000000, 4.000000, 4.000000
82.000000, 0.000000, 4196.410156, 4357.435547, 4201.025391, 4202.051270, 4192.820313, 4200.000000, 4203.589844, 4201.538574, 4202.051270, 4214.871582, 4202.563965, 4187.692383, 4154.871582, 4197.948730, 3589.000000, 8239.000000, 8205.000000, 0.000000, 0.000000, 0.000000, -20290.000000, 397.948700, 4.000000, 4.000000, 4.000000, 4.000000, 4.000000, 4.000000, 4.000000, 4.000000, 0.000000, 4.000000, 4.000000, 4.000000, 4.000000, 4.000000, 4.000000, 4.000000
83.000000, 0.000000, 4197.436035, 4357.948730, 4203.589844, 4202.563965, 4189.230469, 4198.461426, 4197.436035, 4197.948730, 4202.051270, 4211.281738, 4206.153809, 4189.743652, 4156.922852, 4201.538574, 3556.000000, 8250.000000, 8220.000000, 0.000000, 0.000000, 0.000000, -20290.000000, 405.641022, 4.000000, 4.000000, 4.000000, 4.000000, 4.000000, 4.000000, 4.000000, 4.000000, 0.000000, 4.000000, 4.000000, 4.000000, 4.000000, 4.000000, 4.000000, 4.000000
84.000000, 0.000000, 4197.436035, 4359.487305, 4198.974121, 4201.025391, 4191.281738, 4197.948730, 4186.666504, 4198.461426, 4202.051270, 4210.256348, 4201.025391, 4191.281738, 4160.512695, 4200.512695, 3520.000000, 8250.000000, 8220.000000, 0.000000, 0.000000, 0.000000, -20290.000000, 413.333313, 4.000000, 4.000000, 4.000000, 4.000000, 4.000000, 4.000000, 4.000000, 4.000000, 0.000000, 4.000000, 4.000000, 4.000000, 4.000000, 4.000000, 4.000000, 4.000000
85.000000, 0.000000, 4200.512695, 4362.051270, 4191.794922, 4202.051270, 4200.000000, 4200.512695, 4188.717773, 4201.025391, 4201.538574, 4215.897461, 4205.127930, 4198.461426, 4169.230469, 4208.205078, 3460.000000, 8253.000000, 8222.000000, 0.000000, 0.000000, 0.000000, -20290.000000, 421.025635, 4.000000, 4.000000, 4.000000, 4.000000, 4.000000, 4.000000, 4.000000, 4.000000, 0.000000, 4.000000, 4.000000, 4.000000, 4.000000, 4.000000, 4.000000, 4.000000
86.000000, 0.000000, 4201.538574, 4367.179199, 4194.871582, 4203.589844, 4205.641113, 4203.589844, 4198.974121, 4203.589844, 4201.025391, 4216.922852, 4215.384277, 4202.051270, 4173.333008, 4213.333008, 3589.000000, 8253.000000, 8222.000000, 0.000000, 0.000000, 0.000000, -20290.000000, 428.717926, 4.000000, 4.000000, 4.000000, 4.000000, 4.000000, 4.000000, 4.000000, 4.000000, 0.000000, 4.000000, 4.000000, 4.000000, 4.000000, 4.000000, 4.000000, 4.000000
87.000000, 0.000000, 4200.000000, 4366.153809, 4202.051270, 4200.000000, 4194.358887, 4200.512695, 4200.512695, 4204.102539, 4203.076660, 4214.358887, 4211.281738, 4200.000000, 4170.769043, 4208.717773, 3556.000000, 8256.000000, 8225.000000, 0.000000, 0.000000, 0.000000, -20290.000000, 436.410248, 4.000000, 4.000000, 4.000000, 4.000000, 4.000000, 4.000000, 4.000000, 4.000000, 0.000000, 4.000000, 4.000000, 4.000000, 4.000000, 4.000000, 4.000000, 4.000000
88.000000, 0.000000, 4202.563965, 4362.051270, 4205.127930, 4201.538574, 4187.179199, 4196.410156, 4197.436035, 4203.076660, 4204.615234, 4213.333008, 4202.563965, 4197.948730, 4169.743652, 4206.666504, 3520.000000, 8256.000000, 8225.000000, 0.000000, 0.000000, 0.000000, -20290.000000, 444.615387, 4.000000, 4.000000, 4.000000, 4.000000, 4.000000, 4.000000, 4.000000, 4.000000, 0.000000, 4.000000, 4.000000, 4.000000, 4.000000, 4.000000, 4.000000, 4.000000
89.000000, 0.000000, 4197.436035, 4360.000000, 4202.563965, 4201.025391, 4198.461426, 4197.436035, 4198.461426, 4201.025391, 4203.076660, 4207.179199, 4195.384277, 4188.717773, 4161.538574, 4199.487305, 3460.000000, 8262.000000, 8225.000000, 0.000000, 0.000000, 0.000000, -20290.000000, 452.307678, 4.000000, 4.000000, 4.000000, 4.000000, 4.000000, 4.000000, 4.000000, 4.000000, 0.000000, 4.000000, 4.000000, 4.000000, 4.000000, 4.000000, 4.000000, 4.000000
90.000000, 0.000000, 4184.102539, 4361.538574, 4194.871582, 4194.358887, 4203.589844, 4201.538574, 4200.512695, 4197.436035, 4202.051270, 4200.000000, 4188.717773, 4175.897461, 4151.794922, 4187.692383, 3589.000000, 8262.000000, 8225.000000, 0.000000, 0.000000, 0.000000, -20290.000000, 460.000000, 4.000000, 4.000000, 4.000000, 4.000000, 4.000000, 4.000000, 4.000000, 4.000000, 0.000000, 4.000000, 4.000000, 4.000000, 4.000000, 4.000000, 4.000000, 4.000000
91.000000, 0.000000, 4183.589844, 4364.615234, 4187.692383, 4194.871582, 4198.974121, 4203.076660, 4201.025391, 4195.897461, 4203.589844, 4201.025391, 4190.769043, 4173.333008, 4155.384277, 4192.820313, 3556.000000, 8263.000000, 8223.000000, 0.000000, 0.000000, 0.000000, -20290.000000, 467.692291, 4.000000, 4.000000, 4.000000, 4.000000, 4.000000, 4.000000, 4.000000, 4.000000, 0.000000, 4.000000, 4.000000, 4.000000, 4.000000, 4.000000, 4.000000, 4.000000
92.000000, 0.000000, 4187.692383, 4363.589844, 4183.589844, 4201.025391, 4202.563965, 4202.051270, 4197.436035, 4195.897461, 4203.589844, 4204.102539, 4193.333008, 4171.281738, 4159.487305, 4198.974121, 3520.000000, 8263.000000, 8223.000000, 0.000000, 0.000000, 0.000000, -20290.000000, 475.384613, 4.000000, 4.000000, 4.000000, 4.000000, 4.000000, 4.000000, 4.000000, 4.000000, 0.000000, 4.000000, 4.000000, 4.000000, 4.000000, 4.000000, 4.000000, 4.000000
93.000000, 0.000000, 4183.076660, 4364.102539, 4189.743652, 4200.512695, 4206.153809, 4204.102539, 4200.000000, 4195.897461, 4201.538574, 4205.641113, 4190.769043, 4174.871582, 4161.025391, 4196.410156, 3460.000000, 8256.000000, 8221.000000, 0.000000, 0.000000, 0.000000, -20290.000000, 483.589722, 4.000000, 4.000000, 4.000000, 4.000000, 4.000000, 4.000000, 4.000000, 4.000000, 0.000000, 4.000000, 4.000000, 4.000000, 4.000000, 4.000000, 4.000000, 4.000000
94.000000, 0.000000, 4189.743652, 4371.794922, 4206.666504, 4204.102539, 4198.461426, 4203.589844, 4214.358887, 4201.025391, 4201.025391, 4216.922852, 4207.179199, 4193.846191, 4179.487305, 4209.230469, 3589.000000, 8256.000000, 8221.000000, 0.000000, 0.000000, 0.000000, -20290.000000, 491.282043, 4.000000, 4.000000, 4.000000, 4.000000, 4.000000, 4.000000, 4.000000, 4.000000, 0.000000, 4.000000, 4.000000, 4.000000, 4.000000, 4.000000, 4.000000, 4.000000
95.000000, 0.000000, 4204.615234, 4379.487305, 4216.922852, 4212.820313, 4194.358887, 4200.512695, 4219.487305, 4213.333008, 4201.538574, 4228.717773, 4222.051270, 4206.666504, 4192.307617, 4222.051270, 3556.000000, 8253.000000, 8221.000000, 0.000000, 0.000000, 0.000000, -20290.000000, 498.974335, 4.000000, 4.000000, 4.000000, 4.000000, 4.000000, 4.000000, 4.000000, 4.000000, 0.000000, 4.000000, 4.000000, 4.000000, 4.000000, 4.000000, 4.000000, 4.000000
96.000000, 0.000000, 4197.436035, 4374.358887, 4210.256348, 4207.692383, 4197.948730, 4205.641113, 4215.384277, 4213.846191, 4201.025391, 4221.025391, 4209.743652, 4194.358887, 4174.358887, 4208.205078, 3520.000000, 8253.000000, 8221.000000, 0.000000, 0.000000, 0.000000, -20290.000000, 506.666656, 4.000000, 4.000000, 4.000000, 4.000000, 4.000000, 4.000000, 4.000000, 4.000000, 0.000000, 4.000000, 4.000000, 4.000000, 4.000000, 4.000000, 4.000000, 4.000000
97.000000, 0.000000, 4182.051270, 4362.563965, 4197.948730, 4198.974121, 4202.563965, 4216.410156, 4211.281738, 4202.051270, 4201.025391, 4202.563965, 4192.820313, 4180.512695, 4154.358887, 4193.846191, 3460.000000, 8251.000000, 8221.000000, 0.000000, 0.000000, 0.000000, -20290.000000, 514.871765, 4.000000, 4.000000, 4.000000, 4.000000, 4.000000, 4.000000, 4.000000, 4.000000, 0.000000, 4.000000, 4.000000, 4.000000, 4.000000, 4.000000, 4.000000, 4.000000
98.000000, 0.000000, 4178.974121, 4362.051270, 4191.281738, 4197.436035, 4205.641113, 4217.436035, 4206.153809, 4195.897461, 4201.538574, 4197.436035, 4188.717773, 4186.153809, 4155.384277, 4196.410156, 3589.000000, 8251.000000, 8221.000000, 0.000000, 0.000000, 0.000000, -20290.000000, 522.564087, 4.000000, 4.000000, 4.000000, 4.000000, 4.000000, 4.000000, 4.000000, 4.000000, 0.000000, 4.000000, 4.000000, 4.000000, 4.000000, 4.000000, 4.000000, 4.000000
99.000000, 0.000000, 4172.307617, 4360.512695, 4183.589844, 4190.769043, 4201.538574, 4206.153809, 4194.871582, 4187.179199, 4201.025391, 4194.871582, 4184.102539, 4186.153809, 4150.769043, 4189.230469, 3556.000000, 8236.000000, 8216.000000, 0.000000, 0.000000, 0.000000, -20290.000000, 530.256409, 4.000000, 4.000000, 4.000000, 4.000000, 4.000000, 4.000000, 4.000000, 4.000000, 0.000000, 4.000000, 4.000000, 4.000000, 4.000000, 4.000000, 4.000000, 4.000000
100.000000, 0.000000, 4165.641113, 4356.410156, 4182.563965, 4187.692383, 4198.461426, 4197.948730, 4189.230469, 4180.512695, 4201.025391, 4187.692383, 4180.512695, 4177.948730, 4134.358887, 4178.461426, 3520.000000, 8236.000000, 8216.000000, 0.000000, 0.000000, 0.000000, -20290.000000, 537.948730, 4.000000, 4.000000, 4.000000, 4.000000, 4.000000, 4.000000, 4.000000, 4.000000, 0.000000, 4.000000, 4.000000, 4.000000, 4.000000, 4.000000, 4.000000, 4.000000
101.000000, 0.000000, 4174.871582, 4364.615234, 4198.974121, 4201.025391, 4201.538574, 4201.025391, 4198.461426, 4196.922852, 4202.051270, 4199.487305, 4189.743652, 4187.692383, 4141.538574, 4186.666504, 3460.000000, 8234.000000, 8212.000000, 0.000000, 0.000000, 0.000000, -20290.000000, 546.153809, 4.000000, 4.000000, 4.000000, 4.000000, 4.000000, 4.000000, 4.000000, 4.000000, 0.000000, 4.000000, 4.000000, 4.000000, 4.000000, 4.000000, 4.000000, 4.000000
102.000000, 0.000000, 4186.666504, 4376.410156, 4214.871582, 4212.820313, 4201.538574, 4203.589844, 4209.743652, 4210.256348, 4203.076660, 4217.436035, 4204.615234, 4201.538574, 4165.641113, 4202.563965, 3589.000000, 8234.000000, 8212.000000, 0.000000, 0.000000, 0.000000, -20290.000000, 553.846130, 4.000000, 4.000000, 4.000000, 4.000000, 4.000000, 4.000000, 4.000000, 4.000000, 0.000000, 4.000000, 4.000000, 4.000000, 4.000000, 4.000000, 4.000000, 4.000000
103.000000, 0.000000, 4192.820313, 4375.897461, 4218.974121, 4213.846191, 4198.461426, 4200.000000, 4214.871582, 4203.076660, 4202.563965, 4215.897461, 4214.871582, 4203.076660, 4178.974121, 4209.743652, 3556.000000, 8227.000000, 8197.000000, 0.000000, 0.000000, 0.000000, -20290.000000, 561.538452, 4.000000, 4.000000, 4.000000, 4.000000, 4.000000, 4.000000, 4.000000, 4.000000, 0.000000, 4.000000, 4.000000, 4.000000, 4.000000, 4.000000, 4.000000, 4.000000
104.000000, 0.000000, 4200.000000, 4369.743652, 4220.512695, 4215.897461, 4197.436035, 4200.512695, 4213.333008, 4207.179199, 4203.076660, 4212.820313, 4219.487305, 4207.692383, 4181.538574, 4218.461426, 3520.000000, 8227.000000, 8197.000000, 0.000000, 0.000000, 0.000000, -20290.000000, 569.230774, 4.000000, 4.000000, 4.000000, 4.000000, 4.000000, 4.000000, 4.000000, 4.000000, 0.000000, 4.000000, 4.000000, 4.000000, 4.000000, 4.000000, 4.000000, 4.000000
105.000000, 0.000000, 4205.127930, 4371.281738, 4220.000000, 4218.461426, 4193.333008, 4204.615234, 4208.717773, 4216.410156, 4203.589844, 4220.000000, 4221.538574, 4213.846191, 4187.692383, 4230.256348, 3460.000000, 8223.000000, 8181.000000, 0.000000, 0.000000, 0.000000, -20290.000000, 577.435913, 4.000000, 4.000000, 4.000000, 4.000000, 4.000000, 4.000000, 4.000000, 4.000000, 0.000000, 4.000000, 4.000000, 4.000000, 4.000000, 4.000000, 4.000000, 4.000000
106.000000, 0.000000, 4200.512695, 4372.820313, 4213.333008, 4209.230469, 4184.102539, 4202.563965, 4202.563965, 4205.127930, 4203.589844, 4218.461426, 4216.922852, 4204.615234, 4183.589844, 4225.127930, 3589.000000, 8223.000000, 8181.000000, 0.000000, 0.000000, 0.000000, -20290.000000, 585.128174, 4.000000, 4.000000, 4.000000, 4.000000, 4.000000, 4.000000, 4.000000, 4.000000, 0.000000, 4.000000, 4.000000, 4.000000, 4.000000, 4.000000, 4.000000, 4.000000
107.000000, 0.000000, 4198.974121, 4368.205078, 4209.743652, 4198.974121, 4184.102539, 4198.974121, 4201.025391, 4197.436035, 4202.563965, 4214.871582, 4213.846191, 4203.589844, 4174.871582, 4217.436035, 3556.000000, 8221.000000, 8172.000000, 0.000000, 0.000000, 0.000000, -20290.000000, 592.820496, 4.000000, 4.000000, 4.000000, 4.000000, 4.000000, 4.000000, 4.000000, 4.000000, 0.000000, 4.000000, 4.000000, 4.000000, 4.000000, 4.000000, 4.000000, 4.000000
108.000000, 0.000000, 4204.615234, 4366.153809, 4216.922852, 4206.153809, 4190.256348, 4200.512695, 4199.487305, 4203.076660, 4202.563965, 4218.461426, 4219.487305, 4215.897461, 4175.897461, 4223.076660, 3520.000000, 8221.000000, 8172.000000, 0.000000, 0.000000, 0.000000, -20290.000000, 601.025635, 4.000000, 4.000000, 4.000000, 4.000000, 4.000000, 4.000000, 4.000000, 4.000000, 0.000000, 4.000000, 4.000000, 4.000000, 4.000000, 4.000000, 4.000000, 4.000000
109.000000, 0.000000, 4201.025391, 4364.102539, 4215.384277, 4217.948730, 4186.153809, 4202.051270, 4191.281738, 4201.538574, 4203.589844, 4217.436035, 4220.512695, 4211.794922, 4178.974121, 4224.102539, 3460.000000, 8216.000000, 8169.000000, 0.000000, 0.000000, 0.000000, -20290.000000, 608.717957, 4.000000, 4.000000, 4.000000, 4.000000, 4.000000, 4.000000, 4.000000, 4.000000, 0.000000, 4.000000, 4.000000, 4.000000, 4.000000, 4.000000, 4.000000, 4.000000
110.000000, 0.000000, 4193.333008, 4360.512695, 4204.615234, 4214.358887, 4184.102539, 4198.461426, 4184.615234, 4199.487305, 4202.563965, 4218.974121, 4218.974121, 4199.487305, 4182.563965, 4218.974121, 3589.000000, 8216.000000, 8169.000000, 0.000000, 0.000000, 0.000000, -20290.000000, 616.410217, 4.000000, 4.000000, 4.000000, 4.000000, 4.000000, 4.000000, 4.000000, 4.000000, 0.000000, 4.000000, 4.000000, 4.000000, 4.000000, 4.000000, 4.000000, 4.000000
111.000000, 0.000000, 4197.948730, 4362.563965, 4202.051270, 4212.820313, 4198.461426, 4197.436035, 4191.281738, 4195.897461, 4201.538574, 4218.974121, 4219.487305, 4201.025391, 4183.589844, 4222.051270, 3556.000000, 8223.000000, 8166.000000, 0.000000, 0.000000, 0.000000, -20290.000000, 624.102539, 4.000000, 4.000000, 4.000000, 4.000000, 4.000000, 4.000000, 4.000000, 4.000000, 0.000000, 4.000000, 4.000000, 4.000000, 4.000000, 4.000000, 4.000000, 4.000000
112.000000, 0.000000, 4198.974121, 4361.025391, 4201.025391, 4215.384277, 4210.256348, 4202.563965, 4202.563965, 4187.692383, 4203.076660, 4206.153809, 4214.358887, 4203.076660, 4180.000000, 4223.589844, 3520.000000, 8223.000000, 8166.000000, 0.000000, 0.000000, 0.000000, -20290.000000, 632.307678, 4.000000, 4.000000, 4.000000, 4.000000, 4.000000, 4.000000, 4.000000, 4.000000, 0.000000, 4.000000, 4.000000, 4.000000, 4.000000, 4.000000, 4.000000, 4.000000
113.000000, 0.000000, 4179.487305, 4350.769043, 4189.230469, 4205.127930, 4202.051270, 4205.641113, 4201.538574, 4185.127930, 4203.589844, 4194.358887, 4204.102539, 4186.153809, 4168.717773, 4205.127930, 3460.000000, 8222.000000, 8147.000000, 0.000000, 0.000000, 0.000000, -20290.000000, 640.000000, 4.000000, 4.000000, 4.000000, 4.000000, 4.000000, 4.000000, 4.000000, 4.000000, 0.000000, 4.000000, 4.000000, 4.000000, 4.000000, 4.000000, 4.000000, 4.000000
114.000000, 0.000000, 4164.102539, 4342.051270, 4179.487305, 4190.256348, 4189.230469, 4204.102539, 4196.410156, 4184.615234, 4202.051270, 4191.281738, 4191.794922, 4170.769043, 4156.922852, 4188.717773, 3589.000000, 8222.000000, 8147.000000, 0.000000, 0.000000, 0.000000, -20290.000000, 648.205139, 4.000000, 4.000000, 4.000000, 4.000000, 4.000000, 4.000000, 4.000000, 4.000000, 0.000000, 4.000000, 4.000000, 4.000000, 4.000000, 4.000000, 4.000000, 4.000000
115.000000, 0.000000, 4165.641113, 4340.512695, 4179.487305, 4185.127930, 4185.641113, 4202.051270, 4203.589844, 4188.205078, 4200.512695, 4188.717773, 4189.743652, 4173.846191, 4149.743652, 4189.743652, 3556.000000, 8224.000000, 8143.000000, 0.000000, 0.000000, 0.000000, -20290.000000, 655.897400, 4.000000, 4.000000, 4.000000, 4.000000, 4.000000, 4.000000, 4.000000, 4.000000, 0.000000, 4.000000, 4.000000, 4.000000, 4.000000, 4.000000, 4.000000, 4.000000
116.000000, 0.000000, 4168.205078, 4341.025391, 4185.127930, 4188.717773, 4183.589844, 4202.051270, 4203.589844, 4201.538574, 4202.563965, 4197.436035, 4207.179199, 4186.153809, 4161.538574, 4201.538574, 3520.000000, 8224.000000, 8143.000000, 0.000000, 0.000000, 0.000000, -20290.000000, 663.589722, 4.000000, 4.000000, 4.000000, 4.000000, 4.000000, 4.000000, 4.000000, 4.000000, 0.000000, 4.000000, 4.000000, 4.000000, 4.000000, 4.000000, 4.000000, 4.000000
117.000000, 0.000000, 4170.256348, 4336.922852, 4189.743652, 4195.897461, 4186.153809, 4200.512695, 4187.179199, 4204.615234, 4203.589844, 4214.871582, 4223.076660, 4195.897461, 4182.051270, 4209.230469, 3460.000000, 8220.000000, 8125.000000, 0.000000, 0.000000, 0.000000, -20290.000000, 671.282043, 4.000000, 4.000000, 4.000000, 4.000000, 4.000000, 4.000000, 4.000000, 4.000000, 0.000000, 4.000000, 4.000000, 4.000000, 4.000000, 4.000000, 4.000000, 4.000000
118.000000, 0.000000, 4174.871582, 4338.461426, 4191.281738, 4201.025391, 4181.538574, 4192.820313, 4182.563965, 4192.820313, 4203.076660, 4207.179199, 4206.666504, 4197.436035, 4178.461426, 4206.153809, 3589.000000, 8220.000000, 8125.000000, 0.000000, 0.000000, 0.000000, -20290.000000, 679.487183, 4.000000, 4.000000, 4.000000, 4.000000, 4.000000, 4.000000, 4.000000, 4.000000, 0.000000, 4.000000, 4.000000, 4.000000, 4.000000, 4.000000, 4.000000, 4.000000
119.000000, 0.000000, 4174.358887, 4341.025391, 4188.717773, 4199.487305, 4169.743652, 4188.205078, 4197.948730, 4185.641113, 4202.051270, 4187.692383, 4185.127930, 4189.743652, 4167.179199, 4196.922852, 3556.000000, 8214.000000, 8122.000000, 0.000000, 0.000000, 0.000000, -20290.000000, 687.179443, 4.000000, 4.000000, 4.000000, 4.000000, 4.000000, 4.000000, 4.000000, 4.000000, 0.000000, 4.000000, 4.000000, 4.000000, 4.000000, 4.000000, 4.000000, 4.000000
120.000000, 0.000000, 4170.769043, 4333.333008, 4185.127930, 4195.384277, 4178.461426, 4194.871582, 4200.000000, 4186.153809, 4203.076660, 4190.769043, 4192.820313, 4183.076660, 4173.846191, 4191.281738, 3520.000000, 8214.000000, 8122.000000, 0.000000, 0.000000, 0.000000, -20290.000000, 694.871765, 4.000000, 4.000000, 4.000000, 4.000000, 4.000000, 4.000000, 4.000000, 4.000000, 0.000000, 4.000000, 4.000000, 4.000000, 4.000000, 4.000000, 4.000000, 4.000000
121.000000, 0.000000, 4176.922852, 4335.897461, 4191.281738, 4200.512695, 4190.769043, 4200.000000, 4187.692383, 4192.307617, 4204.615234, 4201.538574, 4202.051270, 4189.230469, 4184.615234, 4194.871582, 3460.000000, 8210.000000, 8120.000000, 0.000000, 0.000000, 0.000000, -20290.000000, 703.076904, 4.000000, 4.000000, 4.000000, 4.000000, 4.000000, 4.000000, 4.000000, 4.000000, 0.000000, 4.000000, 4.000000, 4.000000, 4.000000, 4.000000, 4.000000, 4.000000
122.000000, 0.000000, 4194.358887, 4350.256348, 4206.153809, 4214.871582, 4188.205078, 4200.000000, 4193.846191, 4201.538574, 4204.102539, 4204.615234, 4206.666504, 4203.076660, 4194.871582, 4211.794922, 3589.000000, 8210.000000, 8120.000000, 0.000000, 0.000000, 0.000000, -20290.000000, 710.769226, 4.000000, 4.000000, 4.000000, 4.000000, 4.000000, 4.000000, 4.000000, 4.000000, 0.000000, 4.000000, 4.000000, 4.000000, 4.000000, 4.000000, 4.000000, 4.000000
123.000000, 0.000000, 4205.127930, 4350.256348, 4210.769043, 4216.922852, 4190.256348, 4204.615234, 4206.153809, 4203.589844, 4204.102539, 4209.743652, 4216.410156, 4212.820313, 4211.281738, 4226.153809, 3556.000000, 8195.000000, 8112.000000, 0.000000, 0.000000, 0.000000, -20290.000000, 718.974365, 4.000000, 4.000000, 4.000000, 4.000000, 4.000000, 4.000000, 4.000000, 4.000000, 0.000000, 4.000000, 4.000000, 4.000000, 4.000000, 4.000000, 4.000000, 4.000000
124.000000, 0.000000, 4197.948730, 4340.512695, 4203.589844, 4206.153809, 4194.871582, 4201.538574, 4196.922852, 4195.897461, 4204.102539, 4206.666504, 4209.743652, 4207.179199, 4209.743652, 4221.538574, 3520.000000, 8195.000000, 8112.000000, 0.000000, 0.000000, 0.000000, -20290.000000, 726.666626, 4.000000, 4.000000, 4.000000, 4.000000, 4.000000, 4.000000, 4.000000, 4.000000, 0.000000, 4.000000, 4.000000, 4.000000, 4.000000, 4.000000, 4.000000, 4.000000
125.000000, 0.000000, 4184.102539, 4335.897461, 4192.820313, 4202.563965, 4180.000000, 4191.281738, 4187.692383, 4187.692383, 4202.563965, 4182.051270, 4183.589844, 4184.102539, 4192.820313, 4201.025391, 3460.000000, 8194.000000, 8106.000000, 0.000000, 0.000000, 0.000000, -20290.000000, 734.871765, 4.000000, 4.000000, 4.000000, 4.000000, 4.000000, 4.000000, 4.000000, 4.000000, 0.000000, 4.000000, 4.000000, 4.000000, 4.000000, 4.000000, 4.000000, 4.000000
126.000000, 0.000000, 4180.000000, 4334.358887, 4186.153809, 4202.051270, 4168.205078, 4190.256348, 4196.410156, 4178.461426, 4200.512695, 4165.641113, 4167.692383, 4166.153809, 4192.307617, 4188.717773, 3589.000000, 8194.000000, 8106.000000, 0.000000, 0.000000, 0.000000, -20290.000000, 742.564087, 4.000000, 4.000000, 4.000000, 4.000000, 4.000000, 4.000000, 4.000000, 4.000000, 0.000000, 4.000000, 4.000000, 4.000000, 4.000000, 4.000000, 4.000000, 4.000000
127.000000, 0.000000, 4184.102539, 4332.820313, 4187.179199, 4198.974121, 4174.358887, 4191.281738, 4202.563965, 4173.846191, 4201.025391, 4177.436035, 4178.974121, 4169.743652, 4204.615234, 4191.794922, 56.000000, 8187.000000, 8099.000000, 0.000000, 0.000000, 0.000000, -20290.000000, 750.769226, 4.000000, 4.000000, 4.000000, 4.000000, 4.000000, 4.000000, 4.000000, 4.000000, 0.000000, 4.000000, 4.000000, 4.000000, 4.000000, 4.000000, 4.000000, 4.000000
0.000000, 0.000000, 4186.666504, 4336.922852, 4195.384277, 4201.538574, 4183.076660, 4192.307617, 4198.461426, 4180.000000, 4203.589844, 4186.153809, 4193.333008, 4182.563965, 4214.871582, 4201.025391, 3190.000000, 8187.000000, 8099.000000, 0.000000, 0.000000, 0.000000, -20290.000000, 758.461548, 4.000000, 4.000000, 4.000000, 4.000000, 4.000000, 4.000000, 4.000000, 4.000000, 0.000000, 4.000000, 4.000000, 4.000000, 4.000000, 4.000000, 4.000000, 4.000000
1.000000, 0.000000, 4188.717773, 4344.102539, 4203.589844, 4208.205078, 4191.794922, 4196.922852, 4198.974121, 4188.205078, 4204.615234, 4183.589844, 4196.922852, 4192.307617, 4221.538574, 4209.743652, 3540.000000, 8181.000000, 8101.000000, 0.000000, 0.000000, 0.000000, -20290.000000, 766.666626, 4.000000, 4.000000, 4.000000, 4.000000, 4.000000, 4.000000, 4.000000, 4.000000, 0.000000, 4.000000, 4.000000, 4.000000, 4.000000, 4.000000, 4.000000, 4.000000
2.000000, 0.000000, 4186.153809, 4341.025391, 4195.897461, 4199.487305, 4178.461426, 4187.692383, 4195.384277, 4186.666504, 4202.563965, 4182.051270, 4187.179199, 4186.666504, 4213.333008, 4204.102539, 3569.000000, 8181.000000, 8101.000000, 0.000000, 0.000000, 0.000000, -20290.000000, 774.358948, 4.000000, 4.000000, 4.000000, 4.000000, 4.000000, 4.000000, 4.000000, 4.000000, 0.000000, 4.000000, 4.000000, 4.000000, 4.000000, 4.000000, 4.000000, 4.000000
3.000000, 0.000000, 4182.563965, 4340.000000, 4187.179199, 4190.769043, 4165.127930, 4183.589844, 4194.871582, 4181.025391, 4201.538574, 4187.692383, 4184.102539, 4177.436035, 4200.512695, 4199.487305, 2458.000000, 8175.000000, 8107.000000, 0.000000, 0.000000, 0.000000, -20290.000000, 782.564087, 4.000000, 4.000000, 4.000000, 4.000000, 4.000000, 4.000000, 4.000000, 4.000000, 0.000000, 4.000000, 4.000000, 4.000000, 4.000000, 4.000000, 4.000000, 4.000000
4.000000, 0.000000, 4188.717773, 4350.256348, 4194.871582, 4198.974121, 4190.256348, 4203.589844, 4207.692383, 4188.717773, 4203.589844, 4184.615234, 4184.102539, 4182.051270, 4196.410156, 4209.230469, 3563.000000, 8175.000000, 8107.000000, 0.000000, 0.000000, 0.000000, -20290.000000, 790.256409, 4.000000, 4.000000, 4.000000, 4.000000, 4.000000, 4.000000, 4.000000, 4.000000, 0.000000, 4.000000, 4.000000, 4.000000, 4.000000, 4.000000, 4.000000, 4.000000
5.000000, 0.000000, 4185.127930, 4352.820313, 4194.871582, 4200.512695, 4208.717773, 4210.256348, 4210.769043, 4191.281738, 4202.563965, 4172.820313, 4172.307617, 4177.948730, 4186.666504, 4203.076660, 3587.000000, 8177.000000, 8119.000000, 0.000000, 0.000000, 0.000000, -20290.000000, 798.461548, 4.000000, 4.000000, 4.000000, 4.000000, 4.000000, 4.000000, 4.000000, 4.000000, 0.000000, 4.000000, 4.000000, 4.000000, 4.000000, 4.000000, 4.000000, 4.000000
6.000000, 0.000000, 4168.717773, 4346.666504, 4180.000000, 4190.256348, 4201.538574, 4198.974121, 4198.974121, 4181.538574, 4202.051270, 4175.897461, 4171.794922, 4164.615234, 4176.922852, 4187.179199, 3449.000000, 8177.000000, 8119.000000, 0.000000, 0.000000, 0.000000, -20290.000000, 806.153809, 4.000000, 4.000000, 4.000000, 4.000000, 4.000000, 4.000000, 4.000000, 4.000000, 0.000000, 4.000000, 4.000000, 4.000000, 4.000000, 4.000000, 4.000000, 4.000000
7.000000, 0.000000, 4162.563965, 4345.641113, 4175.384277, 4190.769043, 4200.512695, 4198.461426, 4195.384277, 4187.179199, 4203.589844, 4185.127930, 4175.897461, 4167.692383, 4171.281738, 4189.230469, 3513.000000, 8181.000000, 8130.000000, 0.000000, 0.000000, 0.000000, -20290.000000, 814.358948, 4.000000, 4.000000, 4.000000, 4.000000, 4.000000, 4.000000, 4.000000, 4.000000, 0.000000, 4.000000, 4.000000, 4.000000, 4.000000, 4.000000, 4.000000, 4.000000
8.000000, 0.000000, 4173.846191, 4352.307617, 4190.256348, 4199.487305, 4204.102539, 4201.538574, 4200.512695, 4198.974121, 4203.076660, 4186.153809, 4174.871582, 4187.692383, 4170.769043, 4201.025391, 0.000000, 8181.000000, 8130.000000, 0.000000, 0.000000, 0.000000, -20290.000000, 822.051270, 4.000000, 4.000000, 4.000000, 4.000000, 4.000000, 4.000000, 4.000000, 4.000000, 0.000000, 4.000000, 4.000000, 4.000000, 4.000000, 4.000000, 4.000000, 4.000000
9.000000, 0.000000, 4183.589844, 4354.358887, 4196.922852, 4201.538574, 4203.589844, 4199.487305, 4200.000000, 4191.281738, 4202.051270, 4180.512695, 4177.948730, 4195.384277, 4179.487305, 4204.102539, 3029.000000, 8175.000000, 8155.000000, 0.000000, 0.000000, 0.000000, -20290.000000, 830.256409, 4.000000, 4.000000, 4.000000, 4.000000, 4.000000, 4.000000, 4.000000, 4.000000, 0.000000, 4.000000, 4.000000, 4.000000, 4.000000, 4.000000, 4.000000, 4.000000
10.000000, 0.000000, 4179.487305, 4352.820313, 4187.179199, 4194.358887, 4196.410156, 4195.384277, 4198.461426, 4177.948730, 4203.589844, 4173.846191, 4171.794922, 4185.641113, 4181.025391, 4197.436035, 3592.000000, 8175.000000, 8155.000000, 0.000000, 0.000000, 0.000000, -20290.000000, 837.948669, 4.000000, 4.000000, 4.000000, 4.000000, 4.000000, 4.000000, 4.000000, 4.000000, 0.000000, 4.000000, 4.000000, 4.000000, 4.000000, 4.000000, 4.000000, 4.000000
11.000000, 0.000000, 4182.563965, 4354.871582, 4190.769043, 4191.281738, 4188.205078, 4192.307617, 4198.974121, 4188.205078, 4202.563965, 4181.538574, 4177.436035, 4192.820313, 4189.743652, 4207.179199, 3560.000000, 8174.000000, 8160.000000, 0.000000, 0.000000, 0.000000, -20290.000000, 846.153809, 4.000000, 4.000000, 4.000000, 4.000000, 4.000000, 4.000000, 4.000000, 4.000000, 0.000000, 4.000000, 4.000000, 4.000000, 4.000000, 4.000000, 4.000000, 4.000000
12.000000, 0.000000, 4211.794922, 4366.666504, 4211.281738, 4205.127930, 4211.794922, 4201.538574, 4201.538574, 4204.102539, 4201.538574, 4202.563965, 4203.076660, 4215.384277, 4222.051270, 4235.897461, 3531.000000, 8174.000000, 8160.000000, 0.000000, 0.000000, 0.000000, -20290.000000, 853.846130, 4.000000, 4.000000, 4.000000, 4.000000, 4.000000, 4.000000, 4.000000, 4.000000, 0.000000, 4.000000, 4.000000, 4.000000, 4.000000, 4.000000, 4.000000, 4.000000
13.000000, 0.000000, 4238.461426, 4379.487305, 4223.076660, 4219.487305, 4243.076660, 4209.230469, 4206.153809, 4206.666504, 4204.102539, 4204.102539, 4208.205078, 4222.563965, 4239.487305, 4253.846191, 3472.000000, 8171.000000, 8178.000000, 0.000000, 0.000000, 0.000000, -20290.000000, 862.051270, 4.000000, 4.000000, 4.000000, 4.000000, 4.000000, 4.000000, 4.000000, 4.000000, 0.000000, 4.000000, 4.000000, 4.000000, 4.000000, 4.000000, 4.000000, 4.000000
14.000000, 0.000000, 4245.641113, 4377.948730, 4224.102539, 4219.487305, 4228.717773, 4197.436035, 4200.512695, 4202.051270, 4204.102539, 4193.846191, 4195.897461, 4220.000000, 4230.256348, 4256.410156, 3592.000000, 8171.000000, 8178.000000, 0.000000, 0.000000, 0.000000, -20290.000000, 870.256409, 4.000000, 4.000000, 4.000000, 4.000000, 4.000000, 4.000000, 4.000000, 4.000000, 0.000000, 4.000000, 4.000000, 4.000000, 4.000000, 4.000000, 4.000000, 4.000000
15.000000, 0.000000, 4258.974121, 4380.000000, 4233.846191, 4224.615234, 4210.769043, 4191.281738, 4189.743652, 4196.922852, 4202.563965, 4200.512695, 4204.615234, 4227.692383, 4232.307617, 4266.666504, 3560.000000, 8177.000000, 8185.000000, 0.000000, 0.000000, 0.000000, -20290.000000, 877.948669, 4.000000, 4.000000, 4.000000, 4.000000, 4.000000, 4.000000, 4.000000, 4.000000, 0.000000, 4.000000, 4.000000, 4.000000, 4.000000, 4.000000, 4.000000, 4.000000
16.000000, 1.000000, 4262.051270, 4380.000000, 4234.358887, 4223.076660, 4213.333008, 4192.820313, 4193.846191, 4196.922852, 4202.563965, 4201.538574, 4205.641113, 4227.692383, 4237.436035, 4270.769043, 2967.000000, 8177.000000, 8185.000000, 0.000000, 0.000000, 0.000000, -20290.000000, 885.640991, 4.000000, 4.000000, 4.000000, 4.000000, 4.000000, 4.000000, 4.000000, 4.000000, 0.000000, 4.000000, 4.000000, 4.000000, 4.000000, 4.000000, 4.000000, 4.000000
17.000000, 1.000000, 4265.641113, 4379.487305, 4234.358887, 4221.538574, 4215.897461, 4194.358887, 4198.461426, 4196.410156, 4202.563965, 4202.563965, 4207.179199, 4227.692383, 4243.076660, 4274.871582, 2374.000000, 8177.000000, 8185.000000, 0.000000, 0.000000, 0.000000, -20290.000000, 893.846130, 4.000000, 4.000000, 4.000000, 4.000000, 4.000000, 4.000000, 4.000000, 4.000000, 0.000000, 4.000000, 4.000000, 4.000000, 4.000000, 4.000000, 4.000000, 4.000000
18.000000, 1.000000, 4268.717773, 4378.974121, 4234.358887, 4220.512695, 4217.948730, 4195.897461, 4202.563965, 4196.410156, 4202.563965, 4203.589844, 4208.205078, 4227.692383, 4248.205078, 4278.974121, 1781.000000, 8177.000000, 8185.000000, 0.000000, 0.000000, 0.000000, -20290.000000, 901.538452, 4.000000, 4.000000, 4.000000, 4.000000, 4.000000, 4.000000, 4.000000, 4.000000, 0.000000, 4.000000, 4.000000, 4.000000, 4.000000, 4.000000, 4.000000, 4.000000
19.000000, 1.000000, 4272.307617, 4378.461426, 4234.358887, 4218.974121, 4220.512695, 4197.436035, 4207.179199, 4196.410156, 4202.563965, 4204.615234, 4209.230469, 4227.692383, 4253.333008, 4283.076660, 1188.000000, 8177.000000, 8185.000000, 0.000000, 0.000000, 0.000000, -20290.000000, 909.230774, 4.000000, 4.000000, 4.000000, 4.000000, 4.000000, 4.000000, 4.000000, 4.000000, 0.000000, 4.000000, 4.000000, 4.000000, 4.000000, 4.000000, 4.000000, 4.000000
20.000000, 1.000000, 4275.384277, 4378.461426, 4234.871582, 4217.436035, 4223.076660, 4198.974121, 4211.281738, 4196.410156, 4202.563965, 4205.641113, 4210.256348, 4227.692383, 4258.461426, 4287.179199, 595.000000, 8177.000000, 8185.000000, 0.000000, 0.000000, 0.000000, -20290.000000, 917.435852, 4.000000, 4.000000, 4.000000, 4.000000, 4.000000, 4.000000, 4.000000, 4.000000, 0.000000, 4.000000, 4.000000, 4.000000, 4.000000, 4.000000, 4.000000, 4.000000
21.000000, 0.000000, 4278.974121, 4377.435547, 4235.384277, 4215.897461, 4225.641113, 4200.512695, 4215.897461, 4195.897461, 4202.051270, 4206.666504, 4211.794922, 4228.205078, 4264.102539, 4291.794922, 0.000000, 8177.000000, 8185.000000, 0.000000, 0.000000, 0.000000, -20290.000000, 925.128174, 4.000000, 4.000000, 4.000000, 4.000000, 4.000000, 4.000000, 4.000000, 4.000000, 0.000000, 4.000000, 4.000000, 4.000000, 4.000000, 4.000000, 4.000000, 4.000000
22.000000, 0.000000, 4281.538574, 4375.897461, 4234.871582, 4217.436035, 4214.871582, 4197.436035, 4219.487305, 4209.743652, 4203.076660, 4214.358887, 4221.538574, 4240.000000, 4268.717773, 4300.512695, 0.000000, 8177.000000, 8185.000000, 0.000000, 0.000000, 0.000000, -20290.000000, 933.333313, 4.000000, 4.000000, 4.000000, 4.000000, 4.000000, 4.000000, 4.000000, 4.000000, 0.000000, 4.000000, 4.000000, 4.000000, 4.000000, 4.000000, 4.000000, 4.000000
23.000000, 0.000000, 4271.794922, 4373.846191, 4233.333008, 4215.384277, 4213.846191, 4196.922852, 4214.871582, 4209.743652, 4202.563965, 4209.743652, 4217.948730, 4234.358887, 4261.025391, 4291.794922, 0.000000, 8197.000000, 8192.000000, 0.000000, 0.000000, 0.000000, -20290.000000, 941.025635, 4.000000, 4.000000, 4.000000, 4.000000, 4.000000, 4.000000, 4.000000, 4.000000, 0.000000, 4.000000, 4.000000, 4.000000, 4.000000, 4.000000, 4.000000, 4.000000
24.000000, 0.000000, 4264.102539, 4370.256348, 4232.820313, 4214.358887, 4219.487305, 4202.051270, 4217.436035, 4217.436035, 4201.538574, 4210.256348, 4213.333008, 4232.820313, 4253.846191, 4287.179199, 0.000000, 8197.000000, 8192.000000, 0.000000, 0.000000, 0.000000, -20290.000000, 948.717896, 4.000000, 4.000000, 4.000000, 4.000000, 4.000000, 4.000000, 4.000000, 4.000000, 0.000000, 4.000000, 4.000000, 4.000000, 4.000000, 4.000000, 4.000000, 4.000000
25.000000, 0.000000, 4266.153809, 4368.205078, 4232.820313, 4215.897461, 4217.436035, 4202.563965, 4217.436035, 4213.846191, 4201.538574, 4214.871582, 4217.948730, 4237.436035, 4259.487305, 4291.794922, 0.000000, 8198.000000, 8196.000000, 0.000000, 0.000000, 0.000000, -20290.000000, 956.923035, 4.000000, 4.000000, 4.000000, 4.000000, 4.000000, 4.000000, 4.000000, 4.000000, 0.000000, 4.000000, 4.000000, 4.000000, 4.000000, 4.000000, 4.000000, 4.000000
26.000000, 0.000000, 4261.538574, 4365.641113, 4234.358887, 4218.461426, 4217.436035, 4197.436035, 4196.410156, 4188.717773, 4203.076660, 4215.897461, 4222.563965, 4235.897461, 4265.127930, 4289.743652, 0.000000, 8198.000000, 8196.000000, 0.000000, 0.000000, 0.000000, -20290.000000, 964.615356, 4.000000, 4.000000, 4.000000, 4.000000, 4.000000, 4.000000, 4.000000, 4.000000, 0.000000, 4.000000, 4.000000, 4.000000, 4.000000, 4.000000, 4.000000, 4.000000
27.000000, 0.000000, 4249.230469, 4355.897461, 4230.769043, 4211.794922, 4220.000000, 4194.871582, 4185.641113, 4181.538574, 4203.589844, 4213.846191, 4217.436035, 4232.307617, 4252.307617, 4278.461426, 0.000000, 8196.000000, 8194.000000, 0.000000, 0.000000, 0.000000, -20290.000000, 972.820496, 4.000000, 4.000000, 4.000000, 4.000000, 4.000000, 4.000000, 4.000000, 4.000000, 0.000000, 4.000000, 4.000000, 4.000000, 4.000000, 4.000000, 4.000000, 4.000000
28.000000, 0.000000, 4240.512695, 4348.205078, 4223.589844, 4202.051270, 4223.076660, 4197.948730, 4197.436035, 4193.333008, 4202.563965, 4215.384277, 4214.871582, 4231.281738, 4244.102539, 4270.769043, 0.000000, 8196.000000, 8194.000000, 0.000000, 0.000000, 0.000000, -20290.000000, 980.512817, 4.000000, 4.000000, 4.000000, 4.000000, 4.000000, 4.000000, 4.000000, 4.000000, 0.000000, 4.000000, 4.000000, 4.000000, 4.000000, 4.000000, 4.000000, 4.000000
29.000000, 0.000000, 4237.436035, 4345.127930, 4222.051270, 4202.051270, 4226.666504, 4200.512695, 4203.589844, 4202.051270, 4203.076660, 4220.512695, 4218.974121, 4228.205078, 4248.717773, 4267.692383, 0.000000, 8206.000000, 8200.000000, 0.000000, 0.000000, 0.000000, -20290.000000, 988.717896, 4.000000, 4.000000, 4.000000, 4.000000, 4.000000, 4.000000, 4.000000, 4.000000, 0.000000, 4.000000, 4.000000, 4.000000, 4.000000, 4.000000, 4.000000, 4.000000
30.000000, 0.000000, 4230.769043, 4336.410156, 4218.461426, 4202.563965, 4221.025391, 4196.922852, 4198.461426, 4201.025391, 4203.076660, 4213.846191, 4214.358887, 4221.025391, 4236.410156, 4257.436035, 0.000000, 8206.000000, 8200.000000, 0.000000, 0.000000, 0.000000, -20290.000000, 996.410217, 4.000000, 4.000000, 4.000000, 4.000000, 4.000000, 4.000000, 4.000000, 4.000000, 0.000000, 4.000000, 4.000000, 4.000000, 4.000000, 4.000000, 4.000000, 4.000000
31.000000, 0.000000, 4221.025391, 4330.256348, 4218.974121, 4201.025391, 4216.922852, 4189.743652, 4200.000000, 4190.256348, 4203.076660, 4207.692383, 4203.076660, 4220.000000, 4216.922852, 4247.179199, 0.000000, 8201.000000, 8203.000000, 0.000000, 0.000000, 0.000000, -20289.000000, 4.102564, 4.000000, 4.000000, 4.000000, 4.000000, 4.000000, 4.000000, 4.000000, 4.000000, 0.000000, 4.000000, 4.000000, 4.000000, 4.000000, 4.000000, 4.000000, 4.000000
32.000000, 0.000000, 4215.897461, 4325.641113, 4225.127930, 4201.538574, 4220.512695, 4187.179199, 4203.589844, 4188.717773, 4203.589844, 4211.281738, 4204.615234, 4225.641113, 4212.820313, 4245.127930, 0.000000, 8201.000000, 8203.000000, 0.000000, 0.000000, 0.000000, -20289.000000, 12.307692, 4.000000, 4.000000, 4.000000, 4.000000, 4.000000, 4.000000, 4.000000, 4.000000, 0.000000, 4.000000, 4.000000, 4.000000, 4.000000, 4.000000, 4.000000, 4.000000
33.000000, 0.000000, 4212.820313, 4318.974121, 4224.615234, 4201.538574, 4217.948730, 4187.692383, 4201.538574, 4193.846191, 4202.051270, 4210.256348, 4206.666504, 4224.102539, 4207.179199, 4242.051270, 0.000000, 8189.000000, 8211.000000, 0.000000, 0.000000, 0.000000, -20289.000000, 20.000000, 4.000000, 4.000000, 4.000000, 4.000000, 4.000000, 4.000000, 4.000000, 4.000000, 0.000000, 4.000000, 4.000000, 4.000000, 4.000000, 4.000000, 4.000000, 4.000000
34.000000, 0.000000, 4206.666504, 4312.307617, 4221.025391, 4199.487305, 4213.846191, 4188.717773, 4204.615234, 4190.256348, 4201.538574, 4204.615234, 4200.512695, 4216.410156, 4194.871582, 4233.846191, 0.000000, 8189.000000, 8211.000000, 0.000000, 0.000000, 0.000000, -20289.000000, 27.692307, 4.000000, 4.000000, 4.000000, 4.000000, 4.000000, 4.000000, 4.000000, 4.000000, 0.000000, 4.000000, 4.000000, 4.000000, 4.000000, 4.000000, 4.000000, 4.000000
35.000000, 0.000000, 4201.538574, 4304.615234, 4221.025391, 4196.922852, 4217.948730, 4188.717773, 4202.051270, 4187.692383, 4204.615234, 4205.641113, 4203.076660, 4214.871582, 4189.743652, 4231.281738, 0.000000, 8186.000000, 8212.000000, 0.000000, 0.000000, 0.000000, -20289.000000, 35.384613, 4.000000, 4.000000, 4.000000, 4.000000, 4.000000, 4.000000, 4.000000, 4.000000, 0.000000, 4.000000, 4.000000, 4.000000, 4.000000, 4.000000, 4.000000, 4.000000
36.000000, 0.000000, 4201.025391, 4299.487305, 4219.487305, 4191.281738, 4217.948730, 4186.666504, 4189.743652, 4196.922852, 4204.102539, 4203.076660, 4206.153809, 4215.384277, 4185.641113, 4232.307617, 0.000000, 8186.000000, 8212.000000, 0.000000, 0.000000, 0.000000, -20289.000000, 43.589741, 4.000000, 4.000000, 4.000000, 4.000000, 4.000000, 4.000000, 4.000000, 4.000000, 0.000000, 4.000000, 4.000000, 4.000000, 4.000000, 4.000000, 4.000000, 4.000000
37.000000, 0.000000, 4203.076660, 4300.000000, 4215.384277, 4189.743652, 4218.461426, 4187.179199, 4190.256348, 4203.076660, 4202.051270, 4200.512695, 4201.538574, 4214.358887, 4183.076660, 4232.820313, 0.000000, 8179.000000, 8187.000000, 0.000000, 0.000000, 0.000000, -20289.000000, 51.282051, 4.000000, 4.000000, 4.000000, 4.000000, 4.000000, 4.000000, 4.000000, 4.000000, 0.000000, 4.000000, 4.000000, 4.000000, 4.000000, 4.000000, 4.000000, 4.000000
38.000000, 0.000000, 4197.948730, 4296.410156, 4210.256348, 4190.769043, 4223.589844, 4190.769043, 4201.538574, 4198.974121, 4203.589844, 4204.615234, 4200.000000, 4210.256348, 4182.563965, 4230.769043, 0.000000, 8179.000000, 8187.000000, 0.000000, 0.000000, 0.000000, -20289.000000, 58.974358, 4.000000, 4.000000, 4.000000, 4.000000, 4.000000, 4.000000, 4.000000, 4.000000, 0.000000, 4.000000, 4.000000, 4.000000, 4.000000, 4.000000, 4.000000, 4.000000
39.000000, 0.000000, 4184.102539, 4282.051270, 4202.051270, 4184.615234, 4214.358887, 4190.256348, 4207.692383, 4196.922852, 4204.102539, 4201.538574, 4196.922852, 4200.512695, 4173.333008, 4218.974121, 0.000000, 8182.000000, 8184.000000, 0.000000, 0.000000, 0.000000, -20289.000000, 66.666664, 4.000000, 4.000000, 4.000000, 4.000000, 4.000000, 4.000000, 4.000000, 4.000000, 0.000000, 4.000000, 4.000000, 4.000000, 4.000000, 4.000000, 4.000000, 4.000000
40.000000, 0.000000, 4177.948730, 4274.358887, 4199.487305, 4181.025391, 4203.589844, 4186.666504, 4203.076660, 4196.410156, 4202.563965, 4197.436035, 4191.794922, 4196.410156, 4165.127930, 4211.794922, 0.000000, 8182.000000, 8184.000000, 0.000000, 0.000000, 0.000000, -20289.000000, 74.871796, 4.000000, 4.000000, 4.000000, 4.000000, 4.000000, 4.000000, 4.000000, 4.000000, 0.000000, 4.000000, 4.000000, 4.000000, 4.000000, 4.000000, 4.000000, 4.000000
41.000000, 0.000000, 4192.820313, 4282.051270, 4210.256348, 4187.179199, 4211.794922, 4185.641113, 4200.000000, 4200.000000, 4202.563965, 4207.692383, 4198.461426, 4209.230469, 4174.871582, 4225.641113, 0.000000, 8182.000000, 8189.000000, 0.000000, 0.000000, 0.000000, -20289.000000, 82.564102, 4.000000, 4.000000, 4.000000, 4.000000, 4.000000, 4.000000, 4.000000, 4.000000, 0.000000, 4.000000, 4.000000, 4.000000, 4.000000, 4.000000, 4.000000, 4.000000
42.000000, 0.000000, 4202.563965, 4282.563965, 4218.974121, 4191.281738, 4222.563965, 4189.230469, 4206.153809, 4206.153809, 4203.076660, 4215.897461, 4211.794922, 4221.538574, 4184.615234, 4240.512695, 0.000000, 8182.000000, 8189.000000, 0.000000, 0.000000, 0.000000, -20289.000000, 90.256409, 4.000000, 4.000000, 4.000000, 4.000000, 4.000000, 4.000000, 4.000000, 4.000000, 0.000000, 4.000000, 4.000000, 4.000000, 4.000000, 4.000000, 4.000000, 4.000000
43.000000, 0.000000, 4190.769043, 4268.717773, 4212.307617, 4186.666504, 4215.897461, 4193.846191, 4210.256348, 4197.436035, 4202.563965, 4209.230469, 4208.205078, 4214.871582, 4174.871582, 4231.794922, 0.000000, 8181.000000, 8180.000000, 0.000000, 0.000000, 0.000000, -20289.000000, 97.948715, 4.000000, 4.000000, 4.000000, 4.000000, 4.000000, 4.000000, 4.000000, 4.000000, 0.000000, 4.000000, 4.000000, 4.000000, 4.000000, 4.000000, 4.000000, 4.000000
44.000000, 0.000000, 4180.000000, 4257.948730, 4200.000000, 4181.538574, 4202.051270, 4195.897461, 4212.307617, 4189.743652, 4202.563965, 4201.025391, 4197.436035, 4201.538574, 4163.076660, 4217.436035, 0.000000, 8181.000000, 8180.000000, 0.000000, 0.000000, 0.000000, -20289.000000, 106.153847, 4.000000, 4.000000, 4.000000, 4.000000, 4.000000, 4.000000, 4.000000, 4.000000, 0.000000, 4.000000, 4.000000, 4.000000, 4.000000, 4.000000, 4.000000, 4.000000
45.000000, 0.000000, 4183.076660, 4261.025391, 4198.974121, 4183.076660, 4205.641113, 4197.436035, 4209.230469, 4196.922852, 4202.563965, 4204.102539, 4205.127930, 4202.563965, 4168.205078, 4220.000000, 0.000000, 8187.000000, 8175.000000, 0.000000, 0.000000, 0.000000, -20289.000000, 113.846153, 4.000000, 4.000000, 4.000000, 4.000000, 4.000000, 4.000000, 4.000000, 4.000000, 0.000000, 4.000000, 4.000000, 4.000000, 4.000000, 4.000000, 4.000000, 4.000000
46.000000, 0.000000, 4187.179199, 4258.974121, 4203.076660, 4188.717773, 4213.846191, 4201.538574, 4204.102539, 4202.051270, 4202.563965, 4208.205078, 4215.384277, 4207.692383, 4169.743652, 4223.589844, 0.000000, 8187.000000, 8175.000000, 0.000000, 0.000000, 0.000000, -20289.000000, 121.538460, 4.000000, 4.000000, 4.000000, 4.000000, 4.000000, 4.000000, 4.000000, 4.000000, 0.000000, 4.000000, 4.000000, 4.000000, 4.000000, 4.000000, 4.000000, 4.000000
47.000000, 0.000000, 4182.563965, 4245.641113, 4200.512695, 4190.256348, 4208.205078, 4203.589844, 4206.153809, 4201.538574, 4202.563965, 4211.281738, 4207.692383, 4206.153809, 4167.179199, 4220.000000, 0.000000, 8185.000000, 8180.000000, 0.000000, 0.000000, 0.000000, -20289.000000, 129.230759, 4.000000, 4.000000, 4.000000, 4.000000, 4.000000, 4.000000, 4.000000, 4.000000, 0.000000, 4.000000, 4.000000, 4.000000, 4.000000, 4.000000, 4.000000, 4.000000
48.000000, 0.000000, 4180.000000, 4249.743652, 4202.563965, 4190.256348, 4198.461426, 4199.487305, 4212.820313, 4203.589844, 4203.076660, 4216.922852, 4200.512695, 4202.051270, 4168.717773, 4217.436035, 0.000000, 8185.000000, 8180.000000, 0.000000, 0.000000, 0.000000, -20289.000000, 137.435898, 4.000000, 4.000000, 4.000000, 4.000000, 4.000000, 4.000000, 4.000000, 4.000000, 0.000000, 4.000000, 4.000000, 4.000000, 4.000000, 4.000000, 4.000000, 4.000000
49.000000, 0.000000, 4170.256348, 4248.717773, 4202.563965, 4188.717773, 4195.384277, 4201.538574, 4212.307617, 4205.127930, 4202.563965, 4214.358887, 4198.461426, 4200.000000, 4153.333008, 4206.666504, 0.000000, 8186.000000, 8178.000000, 0.000000, 0.000000, 0.000000, -20289.000000, 145.128204, 4.000000, 4.000000, 4.000000, 4.000000, 4.000000, 4.000000, 4.000000, 4.000000, 0.000000, 4.000000, 4.000000, 4.000000, 4.000000, 4.000000, 4.000000, 4.000000
50.000000, 0.000000, 4158.461426, 4231.281738, 4194.358887, 4184.102539, 4195.384277, 4209.230469, 4209.743652, 4206.666504, 4203.076660, 4208.717773, 4194.358887, 4197.948730, 4138.974121, 4196.922852, 0.000000, 8186.000000, 8178.000000, 0.000000, 0.000000, 0.000000, -20289.000000, 152.820511, 4.000000, 4.000000, 4.000000, 4.000000, 4.000000, 4.000000, 4.000000, 4.000000, 0.000000, 4.000000, 4.000000, 4.000000, 4.000000, 4.000000, 4.000000, 4.000000
51.000000, 0.000000, 4161.538574, 4232.307617, 4195.897461, 4184.615234, 4193.846191, 4206.666504, 4213.333008, 4210.256348, 4202.563965, 4209.743652, 4200.512695, 4200.000000, 4156.922852, 4208.205078, 0.000000, 8185.000000, 8177.000000, 0.000000, 0.000000, 0.000000, -20289.000000, 160.512817, 4.000000, 4.000000, 4.000000, 4.000000, 4.000000, 4.000000, 4.000000, 4.000000, 0.000000, 4.000000, 4.000000, 4.000000, 4.000000, 4.000000, 4.000000, 4.000000
52.000000, 0.000000, 4171.794922, 4239.487305, 4201.538574, 4192.307617, 4191.281738, 4201.025391, 4216.410156, 4208.717773, 4202.563965, 4205.127930, 4215.384277, 4207.179199, 4182.051270, 4224.102539, 0.000000, 8185.000000, 8177.000000, 0.000000, 0.000000, 0.000000, -20289.000000, 168.717941, 4.000000, 4.000000, 4.000000, 4.000000, 4.000000, 4.000000, 4.000000, 4.000000, 0.000000, 4.000000, 4.000000, 4.000000, 4.000000, 4.000000, 4.000000, 4.000000
53.000000, 0.000000, 4177.948730, 4235.384277, 4201.025391, 4195.384277, 4185.641113, 4202.051270, 4220.000000, 4204.102539, 4203.076660, 4199.487305, 4216.922852, 4213.333008, 4185.127930, 4227.692383, 0.000000, 8177.000000, 8175.000000, 0.000000, 0.000000, 0.000000, -20289.000000, 176.410248, 4.000000, 4.000000, 4.000000, 4.000000, 4.000000, 4.000000, 4.000000, 4.000000, 0.000000, 4.000000, 4.000000, 4.000000, 4.000000, 4.000000, 4.000000, 4.000000
