title:winkRight3, recorded:21.05.18 17.18.58, timestamp started:2018-05-12T20:28:52.032863+02:00            , sampling:128, subject:Noé, labels:COUNTER INTERPOLATED AF3 F7 F3 FC5 T7 P7 O1 O2 P8 T8 FC6 F4 F8 AF4 RAW_CQ GYROX GYROY MARKER MARKER_HARDWARE SYNC TIME_STAMP_s TIME_STAMP_ms CQ_AF3 CQ_F7 CQ_F3 CQ_FC5 CQ_T7 CQ_P7 CQ_O1 CQ_O2 CQ_P8 CQ_T8 CQ_FC6 CQ_F4 CQ_F8 CQ_AF4 CQ_CMS CQ_DRL, chan:40, samples:2320, units:emotiv
3.000000, 0.000000, 4182.563965, 4333.333008, 4200.512695, 4198.974121, 4200.512695, 4204.102539, 4225.641113, 4237.948730, 4201.538574, 4233.333008, 4203.076660, 4185.641113, 4199.487305, 4200.512695, 2482.000000, 8157.000000, 7923.000000, 0.000000, 0.000000, 0.000000, -20225.000000, 347.692291, 4.000000, 4.000000, 4.000000, 4.000000, 4.000000, 4.000000, 4.000000, 4.000000, 0.000000, 4.000000, 4.000000, 4.000000, 4.000000, 4.000000, 4.000000, 4.000000
4.000000, 0.000000, 4185.641113, 4336.922852, 4202.051270, 4203.076660, 4203.076660, 4204.615234, 4207.179199, 4220.000000, 4202.051270, 4235.384277, 4202.563965, 4184.615234, 4203.589844, 4203.589844, 3551.000000, 8157.000000, 7923.000000, 0.000000, 0.000000, 0.000000, -20225.000000, 355.384613, 4.000000, 4.000000, 4.000000, 4.000000, 4.000000, 4.000000, 4.000000, 4.000000, 0.000000, 4.000000, 4.000000, 4.000000, 4.000000, 4.000000, 4.000000, 4.000000
5.000000, 0.000000, 4187.179199, 4342.563965, 4196.410156, 4203.589844, 4198.974121, 4196.410156, 4192.820313, 4208.205078, 4201.538574, 4237.948730, 4203.589844, 4181.025391, 4209.230469, 4201.538574, 3576.000000, 8161.000000, 7905.000000, 0.000000, 0.000000, 0.000000, -20225.000000, 363.076904, 4.000000, 4.000000, 4.000000, 4.000000, 4.000000, 4.000000, 4.000000, 4.000000, 0.000000, 4.000000, 4.000000, 4.000000, 4.000000, 4.000000, 4.000000, 4.000000
6.000000, 0.000000, 4183.076660, 4340.512695, 4192.820313, 4198.974121, 4190.256348, 4187.692383, 4200.000000, 4221.025391, 4201.538574, 4231.281738, 4198.461426, 4171.281738, 4207.179199, 4197.436035, 3440.000000, 8161.000000, 7905.000000, 0.000000, 0.000000, 0.000000, -20225.000000, 371.282043, 4.000000, 4.000000, 4.000000, 4.000000, 4.000000, 4.000000, 4.000000, 4.000000, 0.000000, 4.000000, 4.000000, 4.000000, 4.000000, 4.000000, 4.000000, 4.000000
7.000000, 0.000000, 4173.333008, 4329.230469, 4186.666504, 4188.205078, 4182.051270, 4191.281738, 4206.666504, 4219.487305, 4201.538574, 4220.000000, 4182.563965, 4157.436035, 4199.487305, 4187.179199, 3504.000000, 8154.000000, 7901.000000, 0.000000, 0.000000, 0.000000, -20225.000000, 378.974335, 4.000000, 4.000000, 4.000000, 4.000000, 4.000000, 4.000000, 4.000000, 4.000000, 0.000000, 4.000000, 4.000000, 4.000000, 4.000000, 4.000000, 4.000000, 4.000000
8.000000, 0.000000, 4166.153809, 4321.538574, 4182.563965, 4183.076660, 4182.563965, 4198.974121, 4201.538574, 4201.025391, 4202.051270, 4212.307617, 4169.743652, 4150.769043, 4191.281738, 4173.333008, 0.000000, 8154.000000, 7901.000000, 0.000000, 0.000000, 0.000000, -20225.000000, 387.179474, 4.000000, 4.000000, 4.000000, 4.000000, 4.000000, 4.000000, 4.000000, 4.000000, 0.000000, 4.000000, 4.000000, 4.000000, 4.000000, 4.000000, 4.000000, 4.000000
9.000000, 0.000000, 4166.153809, 4314.358887, 4183.589844, 4182.563965, 4183.076660, 4201.025391, 4198.974121, 4186.153809, 4202.051270, 4203.589844, 4164.102539, 4150.769043, 4181.025391, 4165.641113, 2996.000000, 8146.000000, 7900.000000, 0.000000, 0.000000, 0.000000, -20225.000000, 394.871796, 4.000000, 4.000000, 4.000000, 4.000000, 4.000000, 4.000000, 4.000000, 4.000000, 0.000000, 4.000000, 4.000000, 4.000000, 4.000000, 4.000000, 4.000000, 4.000000
10.000000, 0.000000, 4171.794922, 4306.666504, 4189.230469, 4183.589844, 4183.589844, 4206.153809, 4203.589844, 4188.717773, 4202.563965, 4206.153809, 4167.692383, 4157.436035, 4180.512695, 4171.794922, 3579.000000, 8146.000000, 7900.000000, 0.000000, 0.000000, 0.000000, -20225.000000, 403.076904, 4.000000, 4.000000, 4.000000, 4.000000, 4.000000, 4.000000, 4.000000, 4.000000, 0.000000, 4.000000, 4.000000, 4.000000, 4.000000, 4.000000, 4.000000, 4.000000
11.000000, 0.000000, 4183.589844, 4312.307617, 4201.025391, 4194.358887, 4190.256348, 4207.692383, 4196.922852, 4203.076660, 4203.076660, 4224.102539, 4182.051270, 4172.307617, 4196.410156, 4186.153809, 3548.000000, 8141.000000, 7910.000000, 0.000000, 0.000000, 0.000000, -20225.000000, 410.769226, 4.000000, 4.000000, 4.000000, 4.000000, 4.000000, 4.000000, 4.000000, 4.000000, 0.000000, 4.000000, 4.000000, 4.000000, 4.000000, 4.000000, 4.000000, 4.000000
12.000000, 0.000000, 4189.743652, 4316.922852, 4206.153809, 4205.127930, 4190.769043, 4198.461426, 4187.179199, 4205.127930, 4203.076660, 4227.179199, 4184.615234, 4175.897461, 4205.127930, 4190.769043, 3515.000000, 8141.000000, 7910.000000, 0.000000, 0.000000, 0.000000, -20225.000000, 418.461517, 4.000000, 4.000000, 4.000000, 4.000000, 4.000000, 4.000000, 4.000000, 4.000000, 0.000000, 4.000000, 4.000000, 4.000000, 4.000000, 4.000000, 4.000000, 4.000000
13.000000, 0.000000, 4184.102539, 4306.153809, 4197.948730, 4197.948730, 4185.127930, 4193.846191, 4185.641113, 4197.436035, 4202.563965, 4215.897461, 4171.281738, 4163.589844, 4202.051270, 4185.641113, 3215.000000, 8131.000000, 7914.000000, 0.000000, 0.000000, 0.000000, -20225.000000, 426.666656, 4.000000, 4.000000, 4.000000, 4.000000, 4.000000, 4.000000, 4.000000, 4.000000, 0.000000, 4.000000, 4.000000, 4.000000, 4.000000, 4.000000, 4.000000, 4.000000
14.000000, 0.000000, 4182.563965, 4296.410156, 4196.410156, 4185.127930, 4186.666504, 4201.025391, 4186.153809, 4195.897461, 4201.538574, 4216.922852, 4167.692383, 4158.974121, 4202.563965, 4186.153809, 3579.000000, 8131.000000, 7914.000000, 0.000000, 0.000000, 0.000000, -20225.000000, 434.871796, 4.000000, 4.000000, 4.000000, 4.000000, 4.000000, 4.000000, 4.000000, 4.000000, 0.000000, 4.000000, 4.000000, 4.000000, 4.000000, 4.000000, 4.000000, 4.000000
15.000000, 0.000000, 4186.666504, 4294.871582, 4197.948730, 4186.666504, 4189.743652, 4209.230469, 4187.179199, 4185.127930, 4201.025391, 4221.025391, 4173.846191, 4160.512695, 4204.102539, 4186.153809, 3548.000000, 8105.000000, 7936.000000, 0.000000, 0.000000, 0.000000, -20225.000000, 442.564087, 4.000000, 4.000000, 4.000000, 4.000000, 4.000000, 4.000000, 4.000000, 4.000000, 0.000000, 4.000000, 4.000000, 4.000000, 4.000000, 4.000000, 4.000000, 4.000000
16.000000, 0.000000, 4190.256348, 4299.487305, 4191.281738, 4196.410156, 4189.743652, 4209.230469, 4189.743652, 4176.410156, 4201.025391, 4214.358887, 4171.794922, 4156.410156, 4208.205078, 4185.127930, 0.000000, 8105.000000, 7936.000000, 0.000000, 0.000000, 0.000000, -20225.000000, 450.256409, 4.000000, 4.000000, 4.000000, 4.000000, 4.000000, 4.000000, 4.000000, 4.000000, 0.000000, 4.000000, 4.000000, 4.000000, 4.000000, 4.000000, 4.000000, 4.000000
17.000000, 0.000000, 4192.820313, 4298.974121, 4191.794922, 4196.410156, 4188.205078, 4202.051270, 4191.281738, 4197.436035, 4202.051270, 4215.384277, 4170.256348, 4160.512695, 4214.871582, 4186.153809, 0.000000, 8081.000000, 7940.000000, 0.000000, 0.000000, 0.000000, -20225.000000, 457.948700, 4.000000, 4.000000, 4.000000, 4.000000, 4.000000, 4.000000, 4.000000, 4.000000, 0.000000, 4.000000, 4.000000, 4.000000, 4.000000, 4.000000, 4.000000, 4.000000
18.000000, 0.000000, 4191.794922, 4289.230469, 4200.512695, 4192.307617, 4188.205078, 4204.102539, 4197.436035, 4204.102539, 4202.563965, 4224.615234, 4177.948730, 4170.769043, 4215.897461, 4184.615234, 0.000000, 8081.000000, 7940.000000, 0.000000, 0.000000, 0.000000, -20225.000000, 466.153839, 4.000000, 4.000000, 4.000000, 4.000000, 4.000000, 4.000000, 4.000000, 4.000000, 0.000000, 4.000000, 4.000000, 4.000000, 4.000000, 4.000000, 4.000000, 4.000000
19.000000, 0.000000, 4195.384277, 4291.281738, 4200.512695, 4197.436035, 4194.871582, 4214.871582, 4203.589844, 4182.051270, 4203.076660, 4228.717773, 4183.076660, 4171.281738, 4222.051270, 4189.230469, 0.000000, 8057.000000, 7940.000000, 0.000000, 0.000000, 0.000000, -20225.000000, 473.846130, 4.000000, 4.000000, 4.000000, 4.000000, 4.000000, 4.000000, 4.000000, 4.000000, 0.000000, 4.000000, 4.000000, 4.000000, 4.000000, 4.000000, 4.000000, 4.000000
20.000000, 0.000000, 4203.589844, 4305.127930, 4196.410156, 4205.641113, 4204.615234, 4216.922852, 4201.538574, 4187.179199, 4202.563965, 4228.205078, 4186.666504, 4167.692383, 4237.948730, 4199.487305, 0.000000, 8057.000000, 7940.000000, 0.000000, 0.000000, 0.000000, -20225.000000, 482.051270, 4.000000, 4.000000, 4.000000, 4.000000, 4.000000, 4.000000, 4.000000, 4.000000, 0.000000, 4.000000, 4.000000, 4.000000, 4.000000, 4.000000, 4.000000, 4.000000
21.000000, 0.000000, 4204.615234, 4304.102539, 4195.384277, 4202.563965, 4198.974121, 4208.717773, 4195.897461, 4206.666504, 4201.538574, 4225.127930, 4185.641113, 4162.563965, 4237.436035, 4195.897461, 0.000000, 8006.000000, 7936.000000, 0.000000, 0.000000, 0.000000, -20225.000000, 489.743591, 4.000000, 4.000000, 4.000000, 4.000000, 4.000000, 4.000000, 4.000000, 4.000000, 0.000000, 4.000000, 4.000000, 4.000000, 4.000000, 4.000000, 4.000000, 4.000000
22.000000, 0.000000, 4195.897461, 4286.666504, 4187.179199, 4193.333008, 4187.179199, 4195.384277, 4186.153809, 4187.179199, 4201.538574, 4214.358887, 4170.769043, 4145.127930, 4218.974121, 4176.922852, 0.000000, 8006.000000, 7936.000000, 0.000000, 0.000000, 0.000000, -20225.000000, 497.948700, 4.000000, 4.000000, 4.000000, 4.000000, 4.000000, 4.000000, 4.000000, 4.000000, 0.000000, 4.000000, 4.000000, 4.000000, 4.000000, 4.000000, 4.000000, 4.000000
23.000000, 0.000000, 4189.743652, 4276.922852, 4178.461426, 4190.256348, 4187.692383, 4187.179199, 4179.487305, 4175.384277, 4202.051270, 4200.000000, 4160.000000, 4137.948730, 4213.846191, 4171.281738, 0.000000, 7987.000000, 7947.000000, 0.000000, 0.000000, 0.000000, -20225.000000, 505.641022, 4.000000, 4.000000, 4.000000, 4.000000, 4.000000, 4.000000, 4.000000, 4.000000, 0.000000, 4.000000, 4.000000, 4.000000, 4.000000, 4.000000, 4.000000, 4.000000
24.000000, 0.000000, 4195.897461, 4281.538574, 4185.641113, 4197.436035, 4200.000000, 4200.512695, 4190.769043, 4194.358887, 4202.051270, 4203.589844, 4174.871582, 4157.948730, 4232.307617, 4185.641113, 0.000000, 7987.000000, 7947.000000, 0.000000, 0.000000, 0.000000, -20225.000000, 513.333313, 4.000000, 4.000000, 4.000000, 4.000000, 4.000000, 4.000000, 4.000000, 4.000000, 0.000000, 4.000000, 4.000000, 4.000000, 4.000000, 4.000000, 4.000000, 4.000000
25.000000, 0.000000, 4204.615234, 4282.563965, 4196.922852, 4205.127930, 4204.102539, 4217.436035, 4203.589844, 4181.538574, 4201.538574, 4215.897461, 4190.769043, 4173.333008, 4246.153809, 4195.897461, 0.000000, 7968.000000, 7981.000000, 0.000000, 0.000000, 0.000000, -20225.000000, 521.538452, 4.000000, 4.000000, 4.000000, 4.000000, 4.000000, 4.000000, 4.000000, 4.000000, 0.000000, 4.000000, 4.000000, 4.000000, 4.000000, 4.000000, 4.000000, 4.000000
26.000000, 0.000000, 4205.127930, 4272.307617, 4201.538574, 4201.538574, 4189.230469, 4212.820313, 4199.487305, 4172.820313, 4202.051270, 4215.384277, 4184.615234, 4169.230469, 4240.512695, 4192.820313, 0.000000, 7968.000000, 7981.000000, 0.000000, 0.000000, 0.000000, -20225.000000, 529.230774, 4.000000, 4.000000, 4.000000, 4.000000, 4.000000, 4.000000, 4.000000, 4.000000, 0.000000, 4.000000, 4.000000, 4.000000, 4.000000, 4.000000, 4.000000, 4.000000
27.000000, 0.000000, 4201.025391, 4264.102539, 4200.000000, 4197.436035, 4183.589844, 4207.692383, 4195.897461, 4197.436035, 4202.051270, 4218.974121, 4181.538574, 4168.717773, 4232.820313, 4189.743652, 0.000000, 7974.000000, 8000.000000, 0.000000, 0.000000, 0.000000, -20225.000000, 537.435913, 4.000000, 4.000000, 4.000000, 4.000000, 4.000000, 4.000000, 4.000000, 4.000000, 0.000000, 4.000000, 4.000000, 4.000000, 4.000000, 4.000000, 4.000000, 4.000000
28.000000, 0.000000, 4203.076660, 4262.051270, 4198.974121, 4197.436035, 4197.948730, 4213.846191, 4203.076660, 4195.897461, 4202.051270, 4229.743652, 4186.153809, 4171.794922, 4232.820313, 4189.743652, 0.000000, 7974.000000, 8000.000000, 0.000000, 0.000000, 0.000000, -20225.000000, 545.128174, 4.000000, 4.000000, 4.000000, 4.000000, 4.000000, 4.000000, 4.000000, 4.000000, 0.000000, 4.000000, 4.000000, 4.000000, 4.000000, 4.000000, 4.000000, 4.000000
29.000000, 0.000000, 4205.641113, 4255.897461, 4200.512695, 4193.333008, 4204.102539, 4210.769043, 4205.641113, 4186.666504, 4202.563965, 4232.820313, 4184.102539, 4167.692383, 4232.307617, 4187.692383, 0.000000, 8004.000000, 8042.000000, 0.000000, 0.000000, 0.000000, -20225.000000, 552.820496, 4.000000, 4.000000, 4.000000, 4.000000, 4.000000, 4.000000, 4.000000, 4.000000, 0.000000, 4.000000, 4.000000, 4.000000, 4.000000, 4.000000, 4.000000, 4.000000
30.000000, 0.000000, 4203.589844, 4246.666504, 4199.487305, 4187.692383, 4197.436035, 4203.076660, 4197.948730, 4204.615234, 4202.051270, 4227.179199, 4178.461426, 4160.000000, 4226.153809, 4182.051270, 0.000000, 8004.000000, 8042.000000, 0.000000, 0.000000, 0.000000, -20225.000000, 561.025635, 4.000000, 4.000000, 4.000000, 4.000000, 4.000000, 4.000000, 4.000000, 4.000000, 0.000000, 4.000000, 4.000000, 4.000000, 4.000000, 4.000000, 4.000000, 4.000000
31.000000, 0.000000, 4197.948730, 4238.974121, 4193.846191, 4187.692383, 4196.922852, 4207.692383, 4199.487305, 4208.717773, 4201.538574, 4220.000000, 4171.281738, 4156.410156, 4215.384277, 4175.897461, 0.000000, 8031.000000, 8071.000000, 0.000000, 0.000000, 0.000000, -20225.000000, 568.717957, 4.000000, 4.000000, 4.000000, 4.000000, 4.000000, 4.000000, 4.000000, 4.000000, 0.000000, 4.000000, 4.000000, 4.000000, 4.000000, 4.000000, 4.000000, 4.000000
32.000000, 0.000000, 4198.974121, 4239.487305, 4200.000000, 4196.922852, 4202.563965, 4218.461426, 4210.256348, 4196.922852, 4202.563965, 4216.410156, 4168.717773, 4163.076660, 4214.358887, 4179.487305, 0.000000, 8031.000000, 8071.000000, 0.000000, 0.000000, 0.000000, -20225.000000, 576.410217, 4.000000, 4.000000, 4.000000, 4.000000, 4.000000, 4.000000, 4.000000, 4.000000, 0.000000, 4.000000, 4.000000, 4.000000, 4.000000, 4.000000, 4.000000, 4.000000
33.000000, 0.000000, 4207.179199, 4245.127930, 4205.641113, 4203.589844, 4205.641113, 4220.512695, 4213.333008, 4198.461426, 4203.076660, 4219.487305, 4172.820313, 4172.820313, 4222.051270, 4189.743652, 0.000000, 8062.000000, 8102.000000, 0.000000, 0.000000, 0.000000, -20225.000000, 584.615356, 4.000000, 4.000000, 4.000000, 4.000000, 4.000000, 4.000000, 4.000000, 4.000000, 0.000000, 4.000000, 4.000000, 4.000000, 4.000000, 4.000000, 4.000000, 4.000000
34.000000, 0.000000, 4205.127930, 4240.512695, 4194.871582, 4199.487305, 4201.025391, 4209.230469, 4208.717773, 4204.615234, 4202.051270, 4222.051270, 4169.743652, 4170.769043, 4217.948730, 4187.692383, 0.000000, 8062.000000, 8102.000000, 0.000000, 0.000000, 0.000000, -20225.000000, 592.307678, 4.000000, 4.000000, 4.000000, 4.000000, 4.000000, 4.000000, 4.000000, 4.000000, 0.000000, 4.000000, 4.000000, 4.000000, 4.000000, 4.000000, 4.000000, 4.000000
35.000000, 0.000000, 4196.410156, 4229.743652, 4188.717773, 4193.846191, 4193.333008, 4198.461426, 4203.076660, 4211.281738, 4202.051270, 4226.153809, 4166.153809, 4163.589844, 4209.743652, 4181.025391, 0.000000, 8140.000000, 8170.000000, 0.000000, 0.000000, 0.000000, -20225.000000, 600.000000, 4.000000, 4.000000, 4.000000, 4.000000, 4.000000, 4.000000, 4.000000, 4.000000, 0.000000, 4.000000, 4.000000, 4.000000, 4.000000, 4.000000, 4.000000, 4.000000
36.000000, 0.000000, 4198.461426, 4231.794922, 4196.922852, 4197.436035, 4196.922852, 4202.051270, 4208.205078, 4222.051270, 4202.563965, 4237.436035, 4178.461426, 4167.692383, 4216.410156, 4185.127930, 0.000000, 8140.000000, 8170.000000, 0.000000, 0.000000, 0.000000, -20225.000000, 607.692322, 4.000000, 4.000000, 4.000000, 4.000000, 4.000000, 4.000000, 4.000000, 4.000000, 0.000000, 4.000000, 4.000000, 4.000000, 4.000000, 4.000000, 4.000000, 4.000000
37.000000, 0.000000, 4200.512695, 4235.897461, 4202.051270, 4198.974121, 4201.538574, 4204.615234, 4218.974121, 4222.563965, 4202.051270, 4238.974121, 4184.615234, 4172.820313, 4218.974121, 4188.205078, 0.000000, 8178.000000, 8192.000000, 0.000000, 0.000000, 0.000000, -20225.000000, 615.897400, 4.000000, 4.000000, 4.000000, 4.000000, 4.000000, 4.000000, 4.000000, 4.000000, 0.000000, 4.000000, 4.000000, 4.000000, 4.000000, 4.000000, 4.000000, 4.000000
38.000000, 0.000000, 4200.000000, 4232.307617, 4201.538574, 4196.410156, 4196.922852, 4197.948730, 4215.384277, 4216.410156, 4201.025391, 4227.692383, 4174.358887, 4169.743652, 4211.794922, 4184.615234, 0.000000, 8178.000000, 8192.000000, 0.000000, 0.000000, 0.000000, -20225.000000, 623.589722, 4.000000, 4.000000, 4.000000, 4.000000, 4.000000, 4.000000, 4.000000, 4.000000, 0.000000, 4.000000, 4.000000, 4.000000, 4.000000, 4.000000, 4.000000, 4.000000
39.000000, 0.000000, 4200.000000, 4234.358887, 4200.512695, 4198.461426, 4197.436035, 4202.563965, 4207.692383, 4208.717773, 4201.025391, 4220.000000, 4169.743652, 4167.692383, 4205.127930, 4180.512695, 0.000000, 8235.000000, 8164.000000, 0.000000, 0.000000, 0.000000, -20225.000000, 631.794861, 4.000000, 4.000000, 4.000000, 4.000000, 4.000000, 4.000000, 4.000000, 4.000000, 0.000000, 4.000000, 4.000000, 4.000000, 4.000000, 4.000000, 4.000000, 4.000000
40.000000, 0.000000, 4191.281738, 4235.384277, 4196.410156, 4199.487305, 4201.538574, 4216.922852, 4215.897461, 4195.897461, 4203.589844, 4216.922852, 4171.281738, 4168.205078, 4201.538574, 4174.871582, 0.000000, 8235.000000, 8164.000000, 0.000000, 0.000000, 0.000000, -20225.000000, 639.487183, 4.000000, 4.000000, 4.000000, 4.000000, 4.000000, 4.000000, 4.000000, 4.000000, 0.000000, 4.000000, 4.000000, 4.000000, 4.000000, 4.000000, 4.000000, 4.000000
41.000000, 0.000000, 4183.589844, 4233.333008, 4192.307617, 4196.922852, 4201.025391, 4217.436035, 4215.384277, 4190.769043, 4204.615234, 4216.922852, 4171.281738, 4167.179199, 4210.256348, 4173.333008, 0.000000, 8253.000000, 8143.000000, 0.000000, 0.000000, 0.000000, -20225.000000, 647.179443, 4.000000, 4.000000, 4.000000, 4.000000, 4.000000, 4.000000, 4.000000, 4.000000, 0.000000, 4.000000, 4.000000, 4.000000, 4.000000, 4.000000, 4.000000, 4.000000
42.000000, 0.000000, 4185.127930, 4238.461426, 4188.717773, 4192.820313, 4200.512695, 4207.179199, 4204.102539, 4202.563965, 4202.051270, 4212.820313, 4170.256348, 4158.974121, 4216.922852, 4168.717773, 0.000000, 8253.000000, 8143.000000, 0.000000, 0.000000, 0.000000, -20225.000000, 655.384583, 4.000000, 4.000000, 4.000000, 4.000000, 4.000000, 4.000000, 4.000000, 4.000000, 0.000000, 4.000000, 4.000000, 4.000000, 4.000000, 4.000000, 4.000000, 4.000000
43.000000, 0.000000, 4178.974121, 4242.563965, 4183.076660, 4187.692383, 4197.948730, 4202.563965, 4209.743652, 4205.641113, 4201.025391, 4199.487305, 4165.127930, 4145.641113, 4203.589844, 4158.974121, 0.000000, 8260.000000, 8115.000000, 0.000000, 0.000000, 0.000000, -20225.000000, 663.076904, 4.000000, 4.000000, 4.000000, 4.000000, 4.000000, 4.000000, 4.000000, 4.000000, 0.000000, 4.000000, 4.000000, 4.000000, 4.000000, 4.000000, 4.000000, 4.000000
44.000000, 0.000000, 4174.358887, 4243.589844, 4183.589844, 4189.743652, 4197.436035, 4201.025391, 4204.102539, 4183.589844, 4201.538574, 4194.358887, 4162.563965, 4142.563965, 4200.512695, 4161.025391, 0.000000, 8260.000000, 8115.000000, 0.000000, 0.000000, 0.000000, -20225.000000, 670.769226, 4.000000, 4.000000, 4.000000, 4.000000, 4.000000, 4.000000, 4.000000, 4.000000, 0.000000, 4.000000, 4.000000, 4.000000, 4.000000, 4.000000, 4.000000, 4.000000
45.000000, 0.000000, 4183.076660, 4252.820313, 4188.205078, 4197.948730, 4200.512695, 4197.436035, 4184.102539, 4175.897461, 4201.538574, 4203.076660, 4170.769043, 4152.307617, 4215.384277, 4171.281738, 0.000000, 8278.000000, 8054.000000, 0.000000, 0.000000, 0.000000, -20225.000000, 678.974365, 4.000000, 4.000000, 4.000000, 4.000000, 4.000000, 4.000000, 4.000000, 4.000000, 0.000000, 4.000000, 4.000000, 4.000000, 4.000000, 4.000000, 4.000000, 4.000000
46.000000, 0.000000, 4188.717773, 4257.948730, 4188.717773, 4198.974121, 4196.410156, 4200.000000, 4188.717773, 4188.717773, 4201.025391, 4202.051270, 4178.974121, 4158.974121, 4219.487305, 4173.846191, 0.000000, 8278.000000, 8054.000000, 0.000000, 0.000000, 0.000000, -20225.000000, 686.666626, 4.000000, 4.000000, 4.000000, 4.000000, 4.000000, 4.000000, 4.000000, 4.000000, 0.000000, 4.000000, 4.000000, 4.000000, 4.000000, 4.000000, 4.000000, 4.000000
47.000000, 0.000000, 4186.153809, 4254.358887, 4189.743652, 4197.436035, 4194.871582, 4203.589844, 4203.076660, 4190.769043, 4201.538574, 4196.410156, 4183.076660, 4157.436035, 4222.051270, 4177.948730, 0.000000, 8282.000000, 8041.000000, 0.000000, 0.000000, 0.000000, -20225.000000, 694.871765, 4.000000, 4.000000, 4.000000, 4.000000, 4.000000, 4.000000, 4.000000, 4.000000, 0.000000, 4.000000, 4.000000, 4.000000, 4.000000, 4.000000, 4.000000, 4.000000
48.000000, 0.000000, 4186.153809, 4254.871582, 4189.743652, 4198.461426, 4205.641113, 4202.563965, 4202.563965, 4196.922852, 4201.025391, 4203.589844, 4189.743652, 4156.922852, 4232.307617, 4181.025391, 0.000000, 8282.000000, 8041.000000, 0.000000, 0.000000, 0.000000, -20225.000000, 702.564087, 4.000000, 4.000000, 4.000000, 4.000000, 4.000000, 4.000000, 4.000000, 4.000000, 0.000000, 4.000000, 4.000000, 4.000000, 4.000000, 4.000000, 4.000000, 4.000000
49.000000, 0.000000, 4181.538574, 4255.384277, 4185.127930, 4192.307617, 4207.692383, 4195.384277, 4197.436035, 4205.127930, 4201.025391, 4202.051270, 4185.127930, 4153.846191, 4225.641113, 4170.769043, 0.000000, 8278.000000, 8034.000000, 0.000000, 0.000000, 0.000000, -20225.000000, 710.256409, 4.000000, 4.000000, 4.000000, 4.000000, 4.000000, 4.000000, 4.000000, 4.000000, 0.000000, 4.000000, 4.000000, 4.000000, 4.000000, 4.000000, 4.000000, 4.000000
50.000000, 0.000000, 4176.410156, 4246.666504, 4185.127930, 4190.256348, 4197.948730, 4187.692383, 4191.281738, 4181.538574, 4202.563965, 4184.615234, 4172.307617, 4148.205078, 4210.256348, 4162.051270, 0.000000, 8278.000000, 8034.000000, 0.000000, 0.000000, 0.000000, -20225.000000, 718.461548, 4.000000, 4.000000, 4.000000, 4.000000, 4.000000, 4.000000, 4.000000, 4.000000, 0.000000, 4.000000, 4.000000, 4.000000, 4.000000, 4.000000, 4.000000, 4.000000
51.000000, 0.000000, 4186.153809, 4243.076660, 4197.436035, 4199.487305, 4197.948730, 4189.230469, 4189.230469, 4171.794922, 4202.051270, 4183.076660, 4174.358887, 4158.974121, 4212.820313, 4172.307617, 0.000000, 8277.000000, 8029.000000, 0.000000, 0.000000, 0.000000, -20225.000000, 726.153809, 4.000000, 4.000000, 4.000000, 4.000000, 4.000000, 4.000000, 4.000000, 4.000000, 0.000000, 4.000000, 4.000000, 4.000000, 4.000000, 4.000000, 4.000000, 4.000000
52.000000, 0.000000, 4198.461426, 4247.692383, 4208.205078, 4205.127930, 4204.102539, 4196.410156, 4194.871582, 4197.436035, 4201.025391, 4201.025391, 4192.307617, 4182.051270, 4226.153809, 4187.692383, 0.000000, 8277.000000, 8029.000000, 0.000000, 0.000000, 0.000000, -20225.000000, 733.846130, 4.000000, 4.000000, 4.000000, 4.000000, 4.000000, 4.000000, 4.000000, 4.000000, 0.000000, 4.000000, 4.000000, 4.000000, 4.000000, 4.000000, 4.000000, 4.000000
53.000000, 0.000000, 4197.948730, 4241.025391, 4204.615234, 4201.538574, 4196.922852, 4198.461426, 4196.410156, 4204.102539, 4203.076660, 4213.333008, 4201.538574, 4189.230469, 4232.820313, 4190.769043, 0.000000, 8257.000000, 8048.000000, 0.000000, 0.000000, 0.000000, -20225.000000, 741.538452, 4.000000, 4.000000, 4.000000, 4.000000, 4.000000, 4.000000, 4.000000, 4.000000, 0.000000, 4.000000, 4.000000, 4.000000, 4.000000, 4.000000, 4.000000, 4.000000
54.000000, 0.000000, 4193.333008, 4230.256348, 4198.974121, 4198.461426, 4189.230469, 4195.384277, 4194.358887, 4202.051270, 4204.102539, 4221.538574, 4200.000000, 4186.153809, 4234.358887, 4187.179199, 0.000000, 8257.000000, 8048.000000, 0.000000, 0.000000, 0.000000, -20225.000000, 749.743591, 4.000000, 4.000000, 4.000000, 4.000000, 4.000000, 4.000000, 4.000000, 4.000000, 0.000000, 4.000000, 4.000000, 4.000000, 4.000000, 4.000000, 4.000000, 4.000000
55.000000, 0.000000, 4190.769043, 4230.769043, 4198.974121, 4200.000000, 4192.307617, 4197.948730, 4197.948730, 4213.846191, 4201.538574, 4231.794922, 4204.615234, 4187.692383, 4234.358887, 4187.692383, 0.000000, 8238.000000, 8061.000000, 0.000000, 0.000000, 0.000000, -20225.000000, 757.435852, 4.000000, 4.000000, 4.000000, 4.000000, 4.000000, 4.000000, 4.000000, 4.000000, 0.000000, 4.000000, 4.000000, 4.000000, 4.000000, 4.000000, 4.000000, 4.000000
56.000000, 0.000000, 4185.127930, 4225.641113, 4193.846191, 4197.948730, 4190.256348, 4201.025391, 4202.051270, 4215.384277, 4201.538574, 4232.307617, 4198.461426, 4178.461426, 4230.256348, 4183.076660, 0.000000, 8238.000000, 8061.000000, 0.000000, 0.000000, 0.000000, -20225.000000, 765.128174, 4.000000, 4.000000, 4.000000, 4.000000, 4.000000, 4.000000, 4.000000, 4.000000, 0.000000, 4.000000, 4.000000, 4.000000, 4.000000, 4.000000, 4.000000, 4.000000
57.000000, 0.000000, 4188.717773, 4217.948730, 4191.794922, 4196.922852, 4190.769043, 4199.487305, 4197.436035, 4212.307617, 4203.076660, 4227.179199, 4186.153809, 4167.179199, 4230.256348, 4177.436035, 0.000000, 8225.000000, 8075.000000, 0.000000, 0.000000, 0.000000, -20225.000000, 772.820496, 4.000000, 4.000000, 4.000000, 4.000000, 4.000000, 4.000000, 4.000000, 4.000000, 0.000000, 4.000000, 4.000000, 4.000000, 4.000000, 4.000000, 4.000000, 4.000000
58.000000, 0.000000, 4202.563965, 4223.076660, 4202.563965, 4199.487305, 4199.487305, 4199.487305, 4187.692383, 4221.538574, 4203.076660, 4232.820313, 4195.897461, 4177.436035, 4242.051270, 4186.153809, 0.000000, 8225.000000, 8075.000000, 0.000000, 0.000000, 0.000000, -20225.000000, 781.025635, 4.000000, 4.000000, 4.000000, 4.000000, 4.000000, 4.000000, 4.000000, 4.000000, 0.000000, 4.000000, 4.000000, 4.000000, 4.000000, 4.000000, 4.000000, 4.000000
59.000000, 0.000000, 4201.025391, 4222.563965, 4205.127930, 4195.384277, 4195.384277, 4200.512695, 4186.153809, 4217.948730, 4202.563965, 4232.820313, 4203.076660, 4183.589844, 4244.102539, 4188.717773, 0.000000, 8196.000000, 8082.000000, 0.000000, 0.000000, 0.000000, -20225.000000, 788.717957, 4.000000, 4.000000, 4.000000, 4.000000, 4.000000, 4.000000, 4.000000, 4.000000, 0.000000, 4.000000, 4.000000, 4.000000, 4.000000, 4.000000, 4.000000, 4.000000
60.000000, 0.000000, 4185.127930, 4204.615234, 4190.769043, 4184.102539, 4182.051270, 4200.000000, 4196.922852, 4210.256348, 4202.563965, 4223.589844, 4188.205078, 4171.794922, 4231.281738, 4174.871582, 0.000000, 8196.000000, 8082.000000, 0.000000, 0.000000, 0.000000, -20225.000000, 796.410217, 4.000000, 4.000000, 4.000000, 4.000000, 4.000000, 4.000000, 4.000000, 4.000000, 0.000000, 4.000000, 4.000000, 4.000000, 4.000000, 4.000000, 4.000000, 4.000000
61.000000, 0.000000, 4180.512695, 4197.948730, 4184.102539, 4181.025391, 4183.589844, 4201.025391, 4193.846191, 4215.384277, 4203.076660, 4220.512695, 4181.538574, 4169.230469, 4227.179199, 4168.205078, 0.000000, 8170.000000, 8098.000000, 0.000000, 0.000000, 0.000000, -20225.000000, 804.615356, 4.000000, 4.000000, 4.000000, 4.000000, 4.000000, 4.000000, 4.000000, 4.000000, 0.000000, 4.000000, 4.000000, 4.000000, 4.000000, 4.000000, 4.000000, 4.000000
62.000000, 0.000000, 4185.127930, 4203.076660, 4183.589844, 4181.538574, 4187.179199, 4198.974121, 4183.589844, 4208.205078, 4202.563965, 4220.000000, 4181.025391, 4168.717773, 4229.230469, 4172.307617, 0.000000, 8170.000000, 8098.000000, 0.000000, 0.000000, 0.000000, -20225.000000, 812.307678, 4.000000, 4.000000, 4.000000, 4.000000, 4.000000, 4.000000, 4.000000, 4.000000, 0.000000, 4.000000, 4.000000, 4.000000, 4.000000, 4.000000, 4.000000, 4.000000
63.000000, 0.000000, 4181.538574, 4198.974121, 4178.974121, 4178.461426, 4181.538574, 4195.384277, 4192.307617, 4205.641113, 4202.563965, 4222.051270, 4172.820313, 4160.000000, 4227.179199, 4168.717773, 0.000000, 8122.000000, 8133.000000, 0.000000, 0.000000, 0.000000, -20225.000000, 820.512817, 4.000000, 4.000000, 4.000000, 4.000000, 4.000000, 4.000000, 4.000000, 4.000000, 0.000000, 4.000000, 4.000000, 4.000000, 4.000000, 4.000000, 4.000000, 4.000000
64.000000, 0.000000, 4181.538574, 4195.384277, 4185.641113, 4181.025391, 4183.076660, 4200.000000, 4200.000000, 4216.922852, 4202.563965, 4229.743652, 4172.820313, 4164.102539, 4227.692383, 4167.179199, 3184.000000, 8122.000000, 8133.000000, 0.000000, 0.000000, 0.000000, -20225.000000, 828.205078, 4.000000, 4.000000, 4.000000, 4.000000, 4.000000, 4.000000, 4.000000, 4.000000, 0.000000, 4.000000, 4.000000, 4.000000, 4.000000, 4.000000, 4.000000, 4.000000
65.000000, 0.000000, 4195.897461, 4202.563965, 4203.076660, 4188.717773, 4186.666504, 4202.563965, 4195.897461, 4217.436035, 4203.076660, 4233.333008, 4184.615234, 4181.025391, 4231.281738, 4176.922852, 3538.000000, 8108.000000, 8145.000000, 0.000000, 0.000000, 0.000000, -20225.000000, 835.897400, 4.000000, 4.000000, 4.000000, 4.000000, 4.000000, 4.000000, 4.000000, 4.000000, 0.000000, 4.000000, 4.000000, 4.000000, 4.000000, 4.000000, 4.000000, 4.000000
66.000000, 0.000000, 4207.179199, 4205.127930, 4209.230469, 4195.384277, 4186.666504, 4200.000000, 4193.333008, 4213.846191, 4202.563965, 4238.461426, 4195.897461, 4191.794922, 4238.461426, 4187.179199, 3559.000000, 8108.000000, 8145.000000, 0.000000, 0.000000, 0.000000, -20225.000000, 844.102539, 4.000000, 4.000000, 4.000000, 4.000000, 4.000000, 4.000000, 4.000000, 4.000000, 0.000000, 4.000000, 4.000000, 4.000000, 4.000000, 4.000000, 4.000000, 4.000000
67.000000, 0.000000, 4205.127930, 4197.436035, 4204.102539, 4195.897461, 4188.717773, 4207.692383, 4193.846191, 4213.333008, 4202.563965, 4246.153809, 4198.461426, 4192.820313, 4244.102539, 4188.717773, 2493.000000, 8097.000000, 8161.000000, 0.000000, 0.000000, 0.000000, -20225.000000, 851.794861, 4.000000, 4.000000, 4.000000, 4.000000, 4.000000, 4.000000, 4.000000, 4.000000, 0.000000, 4.000000, 4.000000, 4.000000, 4.000000, 4.000000, 4.000000, 4.000000
68.000000, 0.000000, 4200.000000, 4188.717773, 4196.922852, 4189.743652, 4192.307617, 4214.358887, 4189.743652, 4201.538574, 4203.076660, 4239.487305, 4188.717773, 4184.102539, 4236.922852, 4182.051270, 3551.000000, 8097.000000, 8161.000000, 0.000000, 0.000000, 0.000000, -20225.000000, 860.000000, 4.000000, 4.000000, 4.000000, 4.000000, 4.000000, 4.000000, 4.000000, 4.000000, 0.000000, 4.000000, 4.000000, 4.000000, 4.000000, 4.000000, 4.000000, 4.000000
69.000000, 0.000000, 4196.922852, 4178.461426, 4187.692383, 4186.666504, 4192.307617, 4202.563965, 4185.641113, 4191.281738, 4202.051270, 4228.717773, 4177.436035, 4173.846191, 4229.230469, 4174.871582, 3577.000000, 8076.000000, 8177.000000, 0.000000, 0.000000, 0.000000, -20225.000000, 867.692261, 4.000000, 4.000000, 4.000000, 4.000000, 4.000000, 4.000000, 4.000000, 4.000000, 0.000000, 4.000000, 4.000000, 4.000000, 4.000000, 4.000000, 4.000000, 4.000000
70.000000, 0.000000, 4191.794922, 4171.794922, 4187.179199, 4189.743652, 4188.717773, 4196.410156, 4188.717773, 4202.563965, 4200.512695, 4234.871582, 4178.974121, 4172.307617, 4231.794922, 4172.820313, 3448.000000, 8076.000000, 8177.000000, 0.000000, 0.000000, 0.000000, -20225.000000, 875.384583, 4.000000, 4.000000, 4.000000, 4.000000, 4.000000, 4.000000, 4.000000, 4.000000, 0.000000, 4.000000, 4.000000, 4.000000, 4.000000, 4.000000, 4.000000, 4.000000
71.000000, 0.000000, 4188.205078, 4167.692383, 4193.846191, 4188.717773, 4185.641113, 4208.205078, 4197.948730, 4216.410156, 4201.025391, 4236.410156, 4182.051270, 4174.358887, 4229.743652, 4171.281738, 3531.000000, 8069.000000, 8179.000000, 0.000000, 0.000000, 0.000000, -20225.000000, 883.589722, 4.000000, 4.000000, 4.000000, 4.000000, 4.000000, 4.000000, 4.000000, 4.000000, 0.000000, 4.000000, 4.000000, 4.000000, 4.000000, 4.000000, 4.000000, 4.000000
72.000000, 0.000000, 4186.153809, 4158.461426, 4197.948730, 4184.615234, 4185.127930, 4214.358887, 4210.256348, 4224.102539, 4203.076660, 4231.794922, 4177.436035, 4176.922852, 4217.948730, 4168.717773, 0.000000, 8069.000000, 8179.000000, 0.000000, 0.000000, 0.000000, -20225.000000, 891.282043, 4.000000, 4.000000, 4.000000, 4.000000, 4.000000, 4.000000, 4.000000, 4.000000, 0.000000, 4.000000, 4.000000, 4.000000, 4.000000, 4.000000, 4.000000, 4.000000
73.000000, 0.000000, 4186.153809, 4152.307617, 4202.563965, 4183.589844, 4182.563965, 4205.127930, 4212.307617, 4235.384277, 4203.076660, 4240.512695, 4176.922852, 4184.102539, 4214.871582, 4170.769043, 3000.000000, 8056.000000, 8167.000000, 0.000000, 0.000000, 0.000000, -20225.000000, 898.974365, 4.000000, 4.000000, 4.000000, 4.000000, 4.000000, 4.000000, 4.000000, 4.000000, 0.000000, 4.000000, 4.000000, 4.000000, 4.000000, 4.000000, 4.000000, 4.000000
74.000000, 0.000000, 4184.102539, 4151.794922, 4203.589844, 4183.076660, 4172.820313, 4200.512695, 4209.230469, 4241.025391, 4201.538574, 4246.153809, 4179.487305, 4183.076660, 4222.563965, 4172.307617, 3587.000000, 8056.000000, 8167.000000, 0.000000, 0.000000, 0.000000, -20225.000000, 907.179443, 4.000000, 4.000000, 4.000000, 4.000000, 4.000000, 4.000000, 4.000000, 4.000000, 0.000000, 4.000000, 4.000000, 4.000000, 4.000000, 4.000000, 4.000000, 4.000000
75.000000, 0.000000, 4181.538574, 4149.230469, 4201.025391, 4182.051270, 4174.358887, 4210.256348, 4205.127930, 4221.538574, 4207.179199, 4236.922852, 4181.538574, 4176.922852, 4229.230469, 4170.256348, 3553.000000, 8052.000000, 8154.000000, 0.000000, 0.000000, 0.000000, -20225.000000, 914.871765, 4.000000, 4.000000, 4.000000, 4.000000, 4.000000, 4.000000, 4.000000, 4.000000, 0.000000, 4.000000, 4.000000, 4.000000, 4.000000, 4.000000, 4.000000, 4.000000
76.000000, 0.000000, 4182.563965, 4160.512695, 4206.666504, 4182.051270, 4193.333008, 4214.358887, 4200.000000, 4193.333008, 4215.384277, 4228.717773, 4181.538574, 4179.487305, 4229.230469, 4172.820313, 3518.000000, 8052.000000, 8154.000000, 0.000000, 0.000000, 0.000000, -20225.000000, 923.076904, 4.000000, 4.000000, 4.000000, 4.000000, 4.000000, 4.000000, 4.000000, 4.000000, 0.000000, 4.000000, 4.000000, 4.000000, 4.000000, 4.000000, 4.000000, 4.000000
77.000000, 0.000000, 4182.051270, 4178.461426, 4214.358887, 4182.563965, 4198.461426, 4203.076660, 4202.051270, 4198.461426, 4218.974121, 4231.794922, 4184.615234, 4185.641113, 4231.794922, 4180.000000, 3392.000000, 8057.000000, 8141.000000, 0.000000, 0.000000, 0.000000, -20225.000000, 930.769226, 4.000000, 4.000000, 4.000000, 4.000000, 4.000000, 4.000000, 4.000000, 4.000000, 0.000000, 4.000000, 4.000000, 4.000000, 4.000000, 4.000000, 4.000000, 4.000000
78.000000, 0.000000, 4184.102539, 4170.769043, 4211.281738, 4185.641113, 4193.333008, 4198.974121, 4204.615234, 4214.871582, 4212.820313, 4243.076660, 4196.410156, 4192.820313, 4245.641113, 4192.307617, 3587.000000, 8057.000000, 8141.000000, 0.000000, 0.000000, 0.000000, -20225.000000, 938.461487, 4.000000, 4.000000, 4.000000, 4.000000, 4.000000, 4.000000, 4.000000, 4.000000, 0.000000, 4.000000, 4.000000, 4.000000, 4.000000, 4.000000, 4.000000, 4.000000
79.000000, 0.000000, 4192.820313, 4148.205078, 4209.743652, 4191.281738, 4196.410156, 4206.153809, 4205.127930, 4217.436035, 4203.589844, 4251.281738, 4212.307617, 4209.743652, 4252.307617, 4208.205078, 3553.000000, 8064.000000, 8119.000000, 0.000000, 0.000000, 0.000000, -20225.000000, 946.666626, 4.000000, 4.000000, 4.000000, 4.000000, 4.000000, 4.000000, 4.000000, 4.000000, 0.000000, 4.000000, 4.000000, 4.000000, 4.000000, 4.000000, 4.000000, 4.000000
80.000000, 0.000000, 4198.974121, 4141.025391, 4219.487305, 4194.871582, 4192.307617, 4205.641113, 4204.615234, 4222.051270, 4200.512695, 4250.769043, 4220.000000, 4222.563965, 4251.281738, 4215.384277, 3518.000000, 8064.000000, 8119.000000, 0.000000, 0.000000, 0.000000, -20225.000000, 954.358948, 4.000000, 4.000000, 4.000000, 4.000000, 4.000000, 4.000000, 4.000000, 4.000000, 0.000000, 4.000000, 4.000000, 4.000000, 4.000000, 4.000000, 4.000000, 4.000000
81.000000, 0.000000, 4200.000000, 4140.000000, 4223.589844, 4198.461426, 4182.051270, 4204.102539, 4204.102539, 4227.179199, 4203.589844, 4249.230469, 4220.000000, 4218.974121, 4254.358887, 4216.922852, 3392.000000, 8077.000000, 8091.000000, 0.000000, 0.000000, 0.000000, -20225.000000, 962.051270, 4.000000, 4.000000, 4.000000, 4.000000, 4.000000, 4.000000, 4.000000, 4.000000, 0.000000, 4.000000, 4.000000, 4.000000, 4.000000, 4.000000, 4.000000, 4.000000
82.000000, 0.000000, 4197.948730, 4127.692383, 4209.230469, 4197.436035, 4189.230469, 4213.846191, 4206.666504, 4223.076660, 4204.102539, 4246.153809, 4217.436035, 4207.692383, 4254.358887, 4215.897461, 3587.000000, 8077.000000, 8091.000000, 0.000000, 0.000000, 0.000000, -20225.000000, 970.256409, 4.000000, 4.000000, 4.000000, 4.000000, 4.000000, 4.000000, 4.000000, 4.000000, 0.000000, 4.000000, 4.000000, 4.000000, 4.000000, 4.000000, 4.000000, 4.000000
83.000000, 0.000000, 4189.230469, 4121.538574, 4189.743652, 4191.794922, 4202.563965, 4214.358887, 4201.025391, 4218.974121, 4200.000000, 4235.384277, 4208.205078, 4196.922852, 4246.153809, 4204.615234, 3553.000000, 8115.000000, 8034.000000, 0.000000, 0.000000, 0.000000, -20225.000000, 977.948669, 4.000000, 4.000000, 4.000000, 4.000000, 4.000000, 4.000000, 4.000000, 4.000000, 0.000000, 4.000000, 4.000000, 4.000000, 4.000000, 4.000000, 4.000000, 4.000000
84.000000, 0.000000, 4181.025391, 4130.256348, 4181.025391, 4192.820313, 4204.615234, 4204.102539, 4186.153809, 4214.871582, 4200.512695, 4228.717773, 4198.974121, 4185.641113, 4241.538574, 4193.333008, 3518.000000, 8115.000000, 8034.000000, 0.000000, 0.000000, 0.000000, -20225.000000, 985.640991, 4.000000, 4.000000, 4.000000, 4.000000, 4.000000, 4.000000, 4.000000, 4.000000, 0.000000, 4.000000, 4.000000, 4.000000, 4.000000, 4.000000, 4.000000, 4.000000
85.000000, 0.000000, 4183.589844, 4138.461426, 4185.641113, 4201.025391, 4203.589844, 4201.025391, 4188.717773, 4212.820313, 4202.051270, 4236.410156, 4202.563965, 4183.076660, 4246.666504, 4194.871582, 3392.000000, 8132.000000, 8022.000000, 0.000000, 0.000000, 0.000000, -20225.000000, 993.333313, 4.000000, 4.000000, 4.000000, 4.000000, 4.000000, 4.000000, 4.000000, 4.000000, 0.000000, 4.000000, 4.000000, 4.000000, 4.000000, 4.000000, 4.000000, 4.000000
86.000000, 0.000000, 4186.153809, 4136.410156, 4191.281738, 4202.563965, 4204.102539, 4203.076660, 4203.589844, 4218.974121, 4203.076660, 4242.051270, 4209.743652, 4191.794922, 4247.179199, 4196.922852, 3587.000000, 8132.000000, 8022.000000, 0.000000, 0.000000, 0.000000, -20224.000000, 1.538461, 4.000000, 4.000000, 4.000000, 4.000000, 4.000000, 4.000000, 4.000000, 4.000000, 0.000000, 4.000000, 4.000000, 4.000000, 4.000000, 4.000000, 4.000000, 4.000000
87.000000, 0.000000, 4183.589844, 4134.871582, 4196.922852, 4196.922852, 4204.615234, 4199.487305, 4203.076660, 4220.000000, 4202.563965, 4242.563965, 4211.794922, 4199.487305, 4240.512695, 4196.922852, 3553.000000, 8172.000000, 8024.000000, 0.000000, 0.000000, 0.000000, -20224.000000, 9.230769, 4.000000, 4.000000, 4.000000, 4.000000, 4.000000, 4.000000, 4.000000, 4.000000, 0.000000, 4.000000, 4.000000, 4.000000, 4.000000, 4.000000, 4.000000, 4.000000
88.000000, 0.000000, 4186.666504, 4146.666504, 4204.615234, 4198.461426, 4196.410156, 4193.846191, 4206.666504, 4217.436035, 4202.563965, 4244.615234, 4214.871582, 4204.102539, 4231.281738, 4203.589844, 3518.000000, 8172.000000, 8024.000000, 0.000000, 0.000000, 0.000000, -20224.000000, 17.435898, 4.000000, 4.000000, 4.000000, 4.000000, 4.000000, 4.000000, 4.000000, 4.000000, 0.000000, 4.000000, 4.000000, 4.000000, 4.000000, 4.000000, 4.000000, 4.000000
89.000000, 0.000000, 4196.922852, 4157.948730, 4208.205078, 4209.230469, 4191.794922, 4188.717773, 4205.127930, 4214.358887, 4203.076660, 4243.076660, 4213.846191, 4204.615234, 4222.563965, 4208.717773, 3392.000000, 8199.000000, 8022.000000, 0.000000, 0.000000, 0.000000, -20224.000000, 25.128204, 4.000000, 4.000000, 4.000000, 4.000000, 4.000000, 4.000000, 4.000000, 4.000000, 0.000000, 4.000000, 4.000000, 4.000000, 4.000000, 4.000000, 4.000000, 4.000000
90.000000, 0.000000, 4198.974121, 4162.051270, 4204.615234, 4211.794922, 4197.436035, 4188.205078, 4188.205078, 4202.563965, 4201.538574, 4234.871582, 4203.589844, 4193.846191, 4210.769043, 4203.589844, 3587.000000, 8199.000000, 8022.000000, 0.000000, 0.000000, 0.000000, -20224.000000, 33.333332, 4.000000, 4.000000, 4.000000, 4.000000, 4.000000, 4.000000, 4.000000, 4.000000, 0.000000, 4.000000, 4.000000, 4.000000, 4.000000, 4.000000, 4.000000, 4.000000
91.000000, 0.000000, 4192.820313, 4169.230469, 4197.948730, 4206.666504, 4198.461426, 4196.922852, 4185.641113, 4198.974121, 4202.051270, 4231.794922, 4195.897461, 4183.076660, 4199.487305, 4195.897461, 3553.000000, 8216.000000, 8005.000000, 0.000000, 0.000000, 0.000000, -20224.000000, 41.025639, 4.000000, 4.000000, 4.000000, 4.000000, 4.000000, 4.000000, 4.000000, 4.000000, 0.000000, 4.000000, 4.000000, 4.000000, 4.000000, 4.000000, 4.000000, 4.000000
92.000000, 0.000000, 4196.922852, 4180.512695, 4198.974121, 4213.333008, 4202.051270, 4203.076660, 4191.281738, 4208.205078, 4203.076660, 4242.051270, 4200.512695, 4184.615234, 4198.461426, 4197.436035, 3518.000000, 8216.000000, 8005.000000, 0.000000, 0.000000, 0.000000, -20224.000000, 48.717949, 4.000000, 4.000000, 4.000000, 4.000000, 4.000000, 4.000000, 4.000000, 4.000000, 0.000000, 4.000000, 4.000000, 4.000000, 4.000000, 4.000000, 4.000000, 4.000000
93.000000, 0.000000, 4204.102539, 4193.846191, 4205.127930, 4223.589844, 4213.846191, 4203.076660, 4183.076660, 4211.794922, 4202.563965, 4250.769043, 4205.641113, 4194.358887, 4203.589844, 4203.076660, 3392.000000, 8218.000000, 8007.000000, 0.000000, 0.000000, 0.000000, -20224.000000, 56.923077, 4.000000, 4.000000, 4.000000, 4.000000, 4.000000, 4.000000, 4.000000, 4.000000, 0.000000, 4.000000, 4.000000, 4.000000, 4.000000, 4.000000, 4.000000, 4.000000
94.000000, 0.000000, 4203.589844, 4206.153809, 4204.102539, 4221.538574, 4217.948730, 4204.102539, 4184.102539, 4209.743652, 4202.051270, 4246.666504, 4205.127930, 4198.974121, 4205.127930, 4203.589844, 3587.000000, 8218.000000, 8007.000000, 0.000000, 0.000000, 0.000000, -20224.000000, 64.615379, 4.000000, 4.000000, 4.000000, 4.000000, 4.000000, 4.000000, 4.000000, 4.000000, 0.000000, 4.000000, 4.000000, 4.000000, 4.000000, 4.000000, 4.000000, 4.000000
95.000000, 0.000000, 4204.102539, 4217.948730, 4203.076660, 4220.000000, 4217.436035, 4204.615234, 4195.897461, 4206.666504, 4202.051270, 4239.487305, 4205.127930, 4196.410156, 4200.000000, 4205.641113, 3553.000000, 8210.000000, 8020.000000, 0.000000, 0.000000, 0.000000, -20224.000000, 72.307693, 4.000000, 4.000000, 4.000000, 4.000000, 4.000000, 4.000000, 4.000000, 4.000000, 0.000000, 4.000000, 4.000000, 4.000000, 4.000000, 4.000000, 4.000000, 4.000000
96.000000, 0.000000, 4198.461426, 4226.666504, 4200.000000, 4217.436035, 4217.436035, 4204.102539, 4202.051270, 4198.974121, 4201.538574, 4229.230469, 4197.948730, 4189.230469, 4190.256348, 4201.538574, 3518.000000, 8210.000000, 8020.000000, 0.000000, 0.000000, 0.000000, -20224.000000, 80.512817, 4.000000, 4.000000, 4.000000, 4.000000, 4.000000, 4.000000, 4.000000, 4.000000, 0.000000, 4.000000, 4.000000, 4.000000, 4.000000, 4.000000, 4.000000, 4.000000
97.000000, 0.000000, 4184.615234, 4231.281738, 4188.205078, 4203.589844, 4206.666504, 4210.256348, 4216.410156, 4196.410156, 4201.025391, 4215.384277, 4185.127930, 4183.589844, 4178.461426, 4186.666504, 3392.000000, 8180.000000, 8013.000000, 0.000000, 0.000000, 0.000000, -20224.000000, 88.205124, 4.000000, 4.000000, 4.000000, 4.000000, 4.000000, 4.000000, 4.000000, 4.000000, 0.000000, 4.000000, 4.000000, 4.000000, 4.000000, 4.000000, 4.000000, 4.000000
98.000000, 0.000000, 4182.563965, 4240.512695, 4185.127930, 4199.487305, 4202.563965, 4216.410156, 4224.102539, 4200.000000, 4202.563965, 4212.307617, 4183.589844, 4185.127930, 4176.410156, 4188.717773, 3587.000000, 8180.000000, 8013.000000, 0.000000, 0.000000, 0.000000, -20224.000000, 95.897430, 4.000000, 4.000000, 4.000000, 4.000000, 4.000000, 4.000000, 4.000000, 4.000000, 0.000000, 4.000000, 4.000000, 4.000000, 4.000000, 4.000000, 4.000000, 4.000000
99.000000, 0.000000, 4188.205078, 4255.384277, 4189.743652, 4206.666504, 4213.846191, 4216.922852, 4210.769043, 4205.127930, 4203.076660, 4222.051270, 4190.769043, 4186.153809, 4185.127930, 4197.948730, 3553.000000, 8172.000000, 7995.000000, 0.000000, 0.000000, 0.000000, -20224.000000, 104.102562, 4.000000, 4.000000, 4.000000, 4.000000, 4.000000, 4.000000, 4.000000, 4.000000, 0.000000, 4.000000, 4.000000, 4.000000, 4.000000, 4.000000, 4.000000, 4.000000
100.000000, 0.000000, 4186.153809, 4270.769043, 4187.692383, 4206.153809, 4217.948730, 4218.461426, 4201.025391, 4208.717773, 4202.563965, 4226.666504, 4193.846191, 4183.589844, 4193.333008, 4190.256348, 3518.000000, 8172.000000, 7995.000000, 0.000000, 0.000000, 0.000000, -20224.000000, 111.794868, 4.000000, 4.000000, 4.000000, 4.000000, 4.000000, 4.000000, 4.000000, 4.000000, 0.000000, 4.000000, 4.000000, 4.000000, 4.000000, 4.000000, 4.000000, 4.000000
101.000000, 0.000000, 4186.666504, 4286.666504, 4184.102539, 4202.051270, 4216.922852, 4220.000000, 4201.538574, 4209.230469, 4202.563965, 4225.641113, 4196.410156, 4181.538574, 4198.974121, 4185.127930, 3392.000000, 8168.000000, 7973.000000, 0.000000, 0.000000, 0.000000, -20224.000000, 119.487175, 4.000000, 4.000000, 4.000000, 4.000000, 4.000000, 4.000000, 4.000000, 4.000000, 0.000000, 4.000000, 4.000000, 4.000000, 4.000000, 4.000000, 4.000000, 4.000000
102.000000, 0.000000, 4191.281738, 4308.717773, 4183.589844, 4203.589844, 4218.461426, 4215.897461, 4203.076660, 4204.102539, 4202.563965, 4224.615234, 4197.948730, 4182.563965, 4201.538574, 4191.281738, 3587.000000, 8168.000000, 7973.000000, 0.000000, 0.000000, 0.000000, -20224.000000, 127.692307, 4.000000, 4.000000, 4.000000, 4.000000, 4.000000, 4.000000, 4.000000, 4.000000, 0.000000, 4.000000, 4.000000, 4.000000, 4.000000, 4.000000, 4.000000, 4.000000
103.000000, 0.000000, 4197.948730, 4333.846191, 4187.692383, 4208.205078, 4220.512695, 4207.179199, 4200.000000, 4206.666504, 4203.076660, 4226.153809, 4199.487305, 4187.179199, 4209.230469, 4195.897461, 3553.000000, 8145.000000, 7949.000000, 0.000000, 0.000000, 0.000000, -20224.000000, 135.384613, 4.000000, 4.000000, 4.000000, 4.000000, 4.000000, 4.000000, 4.000000, 4.000000, 0.000000, 4.000000, 4.000000, 4.000000, 4.000000, 4.000000, 4.000000, 4.000000
104.000000, 0.000000, 4207.179199, 4357.948730, 4196.922852, 4216.922852, 4224.615234, 4204.615234, 4196.922852, 4218.461426, 4203.076660, 4232.820313, 4206.153809, 4198.974121, 4224.615234, 4203.076660, 3518.000000, 8145.000000, 7949.000000, 0.000000, 0.000000, 0.000000, -20224.000000, 143.076920, 4.000000, 4.000000, 4.000000, 4.000000, 4.000000, 4.000000, 4.000000, 4.000000, 0.000000, 4.000000, 4.000000, 4.000000, 4.000000, 4.000000, 4.000000, 4.000000
105.000000, 0.000000, 4207.692383, 4378.461426, 4204.615234, 4218.461426, 4223.076660, 4204.102539, 4196.410156, 4219.487305, 4202.563965, 4235.897461, 4207.692383, 4206.153809, 4232.820313, 4207.692383, 3392.000000, 8135.000000, 7934.000000, 0.000000, 0.000000, 0.000000, -20224.000000, 150.769226, 4.000000, 4.000000, 4.000000, 4.000000, 4.000000, 4.000000, 4.000000, 4.000000, 0.000000, 4.000000, 4.000000, 4.000000, 4.000000, 4.000000, 4.000000, 4.000000
106.000000, 0.000000, 4201.538574, 4394.871582, 4200.512695, 4209.230469, 4214.358887, 4202.563965, 4198.974121, 4212.820313, 4202.563965, 4233.846191, 4200.512695, 4198.974121, 4230.769043, 4203.076660, 3587.000000, 8135.000000, 7934.000000, 0.000000, 0.000000, 0.000000, -20224.000000, 158.974350, 4.000000, 4.000000, 4.000000, 4.000000, 4.000000, 4.000000, 4.000000, 4.000000, 0.000000, 4.000000, 4.000000, 4.000000, 4.000000, 4.000000, 4.000000, 4.000000
107.000000, 0.000000, 4200.512695, 4410.256348, 4194.358887, 4202.051270, 4212.820313, 4204.102539, 4201.025391, 4216.410156, 4203.076660, 4234.358887, 4194.871582, 4191.794922, 4223.076660, 4199.487305, 3553.000000, 8130.000000, 7958.000000, 0.000000, 0.000000, 0.000000, -20224.000000, 167.179489, 4.000000, 4.000000, 4.000000, 4.000000, 4.000000, 4.000000, 4.000000, 4.000000, 0.000000, 4.000000, 4.000000, 4.000000, 4.000000, 4.000000, 4.000000, 4.000000
108.000000, 0.000000, 4194.871582, 4426.666504, 4187.692383, 4199.487305, 4211.794922, 4205.641113, 4200.000000, 4215.384277, 4202.563965, 4233.846191, 4186.153809, 4186.666504, 4215.384277, 4188.717773, 3518.000000, 8130.000000, 7958.000000, 0.000000, 0.000000, 0.000000, -20224.000000, 174.871796, 4.000000, 4.000000, 4.000000, 4.000000, 4.000000, 4.000000, 4.000000, 4.000000, 0.000000, 4.000000, 4.000000, 4.000000, 4.000000, 4.000000, 4.000000, 4.000000
109.000000, 0.000000, 4190.256348, 4444.615234, 4184.102539, 4197.436035, 4210.256348, 4203.589844, 4201.025391, 4203.076660, 4203.076660, 4236.410156, 4184.102539, 4183.589844, 4220.000000, 4181.538574, 3392.000000, 8143.000000, 7981.000000, 0.000000, 0.000000, 0.000000, -20224.000000, 182.564102, 4.000000, 4.000000, 4.000000, 4.000000, 4.000000, 4.000000, 4.000000, 4.000000, 0.000000, 4.000000, 4.000000, 4.000000, 4.000000, 4.000000, 4.000000, 4.000000
110.000000, 0.000000, 4195.897461, 4459.487305, 4188.205078, 4197.948730, 4213.846191, 4203.076660, 4200.512695, 4198.461426, 4204.102539, 4245.127930, 4195.384277, 4192.307617, 4232.820313, 4188.717773, 3587.000000, 8143.000000, 7981.000000, 0.000000, 0.000000, 0.000000, -20224.000000, 190.256409, 4.000000, 4.000000, 4.000000, 4.000000, 4.000000, 4.000000, 4.000000, 4.000000, 0.000000, 4.000000, 4.000000, 4.000000, 4.000000, 4.000000, 4.000000, 4.000000
111.000000, 0.000000, 4204.102539, 4473.846191, 4193.846191, 4196.922852, 4210.256348, 4201.538574, 4191.281738, 4200.512695, 4202.563965, 4249.230469, 4201.025391, 4202.051270, 4242.563965, 4195.384277, 3553.000000, 8165.000000, 8036.000000, 0.000000, 0.000000, 0.000000, -20224.000000, 198.461533, 4.000000, 4.000000, 4.000000, 4.000000, 4.000000, 4.000000, 4.000000, 4.000000, 0.000000, 4.000000, 4.000000, 4.000000, 4.000000, 4.000000, 4.000000, 4.000000
112.000000, 0.000000, 4212.307617, 4492.307617, 4197.948730, 4197.436035, 4202.051270, 4196.922852, 4183.076660, 4202.563965, 4201.538574, 4252.307617, 4198.974121, 4201.538574, 4258.974121, 4198.461426, 3518.000000, 8165.000000, 8036.000000, 0.000000, 0.000000, 0.000000, -20224.000000, 206.153839, 4.000000, 4.000000, 4.000000, 4.000000, 4.000000, 4.000000, 4.000000, 4.000000, 0.000000, 4.000000, 4.000000, 4.000000, 4.000000, 4.000000, 4.000000, 4.000000
113.000000, 0.000000, 4220.000000, 4509.230469, 4201.025391, 4198.461426, 4202.051270, 4199.487305, 4192.820313, 4207.179199, 4203.589844, 4261.025391, 4201.025391, 4201.538574, 4278.461426, 4204.615234, 3392.000000, 8188.000000, 8061.000000, 0.000000, 0.000000, 0.000000, -20224.000000, 213.846146, 4.000000, 4.000000, 4.000000, 4.000000, 4.000000, 4.000000, 4.000000, 4.000000, 0.000000, 4.000000, 4.000000, 4.000000, 4.000000, 4.000000, 4.000000, 4.000000
114.000000, 0.000000, 4221.025391, 4517.435547, 4203.076660, 4193.333008, 4203.076660, 4203.589844, 4203.076660, 4207.179199, 4204.615234, 4269.743652, 4204.102539, 4204.615234, 4286.666504, 4205.641113, 3587.000000, 8188.000000, 8061.000000, 0.000000, 0.000000, 0.000000, -20224.000000, 222.051270, 4.000000, 4.000000, 4.000000, 4.000000, 4.000000, 4.000000, 4.000000, 4.000000, 0.000000, 4.000000, 4.000000, 4.000000, 4.000000, 4.000000, 4.000000, 4.000000
115.000000, 0.000000, 4219.487305, 4522.563965, 4198.461426, 4187.692383, 4198.461426, 4199.487305, 4200.512695, 4211.281738, 4204.102539, 4276.922852, 4205.641113, 4202.563965, 4298.461426, 4205.127930, 3553.000000, 8211.000000, 8089.000000, 0.000000, 0.000000, 0.000000, -20224.000000, 229.743591, 4.000000, 4.000000, 4.000000, 4.000000, 4.000000, 4.000000, 4.000000, 4.000000, 0.000000, 4.000000, 4.000000, 4.000000, 4.000000, 4.000000, 4.000000, 4.000000
116.000000, 0.000000, 4218.974121, 4527.692383, 4193.846191, 4187.179199, 4195.384277, 4198.461426, 4199.487305, 4217.436035, 4204.102539, 4282.563965, 4206.153809, 4199.487305, 4311.794922, 4205.641113, 3518.000000, 8211.000000, 8089.000000, 0.000000, 0.000000, 0.000000, -20224.000000, 237.435898, 4.000000, 4.000000, 4.000000, 4.000000, 4.000000, 4.000000, 4.000000, 4.000000, 0.000000, 4.000000, 4.000000, 4.000000, 4.000000, 4.000000, 4.000000, 4.000000
117.000000, 0.000000, 4213.846191, 4530.769043, 4192.820313, 4182.563965, 4193.846191, 4206.153809, 4202.563965, 4213.333008, 4204.102539, 4286.666504, 4201.538574, 4195.897461, 4305.641113, 4201.025391, 3392.000000, 8243.000000, 8140.000000, 0.000000, 0.000000, 0.000000, -20224.000000, 245.128204, 4.000000, 4.000000, 4.000000, 4.000000, 4.000000, 4.000000, 4.000000, 4.000000, 0.000000, 4.000000, 4.000000, 4.000000, 4.000000, 4.000000, 4.000000, 4.000000
118.000000, 0.000000, 4212.820313, 4541.025391, 4190.769043, 4180.512695, 4197.436035, 4213.333008, 4201.538574, 4198.461426, 4204.102539, 4296.410156, 4195.897461, 4188.717773, 4301.025391, 4197.948730, 3587.000000, 8243.000000, 8140.000000, 0.000000, 0.000000, 0.000000, -20224.000000, 253.333328, 4.000000, 4.000000, 4.000000, 4.000000, 4.000000, 4.000000, 4.000000, 4.000000, 0.000000, 4.000000, 4.000000, 4.000000, 4.000000, 4.000000, 4.000000, 4.000000
119.000000, 0.000000, 4217.436035, 4547.692383, 4186.666504, 4188.717773, 4203.589844, 4215.897461, 4203.589844, 4188.717773, 4204.102539, 4296.410156, 4188.205078, 4183.589844, 4301.538574, 4198.461426, 3553.000000, 8255.000000, 8151.000000, 0.000000, 0.000000, 0.000000, -20224.000000, 261.538452, 4.000000, 4.000000, 4.000000, 4.000000, 4.000000, 4.000000, 4.000000, 4.000000, 0.000000, 4.000000, 4.000000, 4.000000, 4.000000, 4.000000, 4.000000, 4.000000
120.000000, 0.000000, 4224.102539, 4543.589844, 4187.692383, 4190.769043, 4203.076660, 4213.333008, 4205.641113, 4200.000000, 4204.102539, 4285.641113, 4181.538574, 4185.641113, 4299.487305, 4198.974121, 3518.000000, 8255.000000, 8151.000000, 0.000000, 0.000000, 0.000000, -20224.000000, 269.230774, 4.000000, 4.000000, 4.000000, 4.000000, 4.000000, 4.000000, 4.000000, 4.000000, 0.000000, 4.000000, 4.000000, 4.000000, 4.000000, 4.000000, 4.000000, 4.000000
121.000000, 0.000000, 4229.743652, 4545.127930, 4193.846191, 4183.589844, 4197.436035, 4202.563965, 4195.897461, 4204.615234, 4204.102539, 4280.512695, 4187.179199, 4193.333008, 4298.461426, 4198.974121, 3392.000000, 8244.000000, 8151.000000, 0.000000, 0.000000, 0.000000, -20224.000000, 276.923065, 4.000000, 4.000000, 4.000000, 4.000000, 4.000000, 4.000000, 4.000000, 4.000000, 0.000000, 4.000000, 4.000000, 4.000000, 4.000000, 4.000000, 4.000000, 4.000000
122.000000, 0.000000, 4234.871582, 4553.333008, 4198.461426, 4186.666504, 4193.846191, 4196.922852, 4190.256348, 4181.025391, 4204.102539, 4275.897461, 4195.897461, 4200.000000, 4301.538574, 4203.589844, 3587.000000, 8244.000000, 8151.000000, 0.000000, 0.000000, 0.000000, -20224.000000, 285.128204, 4.000000, 4.000000, 4.000000, 4.000000, 4.000000, 4.000000, 4.000000, 4.000000, 0.000000, 4.000000, 4.000000, 4.000000, 4.000000, 4.000000, 4.000000, 4.000000
123.000000, 0.000000, 4246.153809, 4558.974121, 4204.102539, 4200.512695, 4196.922852, 4200.512695, 4193.846191, 4174.358887, 4204.102539, 4280.000000, 4200.512695, 4203.589844, 4312.820313, 4213.333008, 3553.000000, 8227.000000, 8129.000000, 0.000000, 0.000000, 0.000000, -20224.000000, 292.820496, 4.000000, 4.000000, 4.000000, 4.000000, 4.000000, 4.000000, 4.000000, 4.000000, 0.000000, 4.000000, 4.000000, 4.000000, 4.000000, 4.000000, 4.000000, 4.000000
124.000000, 0.000000, 4253.333008, 4560.512695, 4206.153809, 4200.512695, 4200.000000, 4202.563965, 4186.153809, 4199.487305, 4204.102539, 4294.871582, 4204.102539, 4205.641113, 4322.563965, 4220.000000, 3518.000000, 8227.000000, 8129.000000, 0.000000, 0.000000, 0.000000, -20224.000000, 300.512817, 4.000000, 4.000000, 4.000000, 4.000000, 4.000000, 4.000000, 4.000000, 4.000000, 0.000000, 4.000000, 4.000000, 4.000000, 4.000000, 4.000000, 4.000000, 4.000000
125.000000, 0.000000, 4248.205078, 4554.358887, 4197.436035, 4188.717773, 4200.000000, 4202.563965, 4182.051270, 4207.179199, 4204.102539, 4298.461426, 4204.615234, 4203.589844, 4323.589844, 4218.461426, 3392.000000, 8209.000000, 8108.000000, 0.000000, 0.000000, 0.000000, -20224.000000, 308.717926, 4.000000, 4.000000, 4.000000, 4.000000, 4.000000, 4.000000, 4.000000, 4.000000, 0.000000, 4.000000, 4.000000, 4.000000, 4.000000, 4.000000, 4.000000, 4.000000
126.000000, 0.000000, 4248.205078, 4547.179199, 4194.871582, 4186.153809, 4198.974121, 4205.641113, 4195.897461, 4197.436035, 4204.102539, 4294.871582, 4204.615234, 4198.974121, 4323.076660, 4212.307617, 3587.000000, 8209.000000, 8108.000000, 0.000000, 0.000000, 0.000000, -20224.000000, 316.923065, 4.000000, 4.000000, 4.000000, 4.000000, 4.000000, 4.000000, 4.000000, 4.000000, 0.000000, 4.000000, 4.000000, 4.000000, 4.000000, 4.000000, 4.000000, 4.000000
127.000000, 0.000000, 4248.717773, 4538.974121, 4197.436035, 4186.153809, 4195.384277, 4204.615234, 4204.102539, 4200.000000, 4204.102539, 4290.769043, 4198.974121, 4193.333008, 4321.025391, 4203.589844, 56.000000, 8176.000000, 8122.000000, 0.000000, 0.000000, 0.000000, -20224.000000, 324.615387, 4.000000, 4.000000, 4.000000, 4.000000, 4.000000, 4.000000, 4.000000, 4.000000, 0.000000, 4.000000, 4.000000, 4.000000, 4.000000, 4.000000, 4.000000, 4.000000
0.000000, 0.000000, 4241.025391, 4527.179199, 4190.256348, 4182.563965, 4192.820313, 4201.025391, 4198.974121, 4206.666504, 4204.102539, 4280.512695, 4188.717773, 4184.102539, 4311.281738, 4194.358887, 3185.000000, 8176.000000, 8122.000000, 0.000000, 0.000000, 0.000000, -20224.000000, 332.307678, 4.000000, 4.000000, 4.000000, 4.000000, 4.000000, 4.000000, 4.000000, 4.000000, 0.000000, 4.000000, 4.000000, 4.000000, 4.000000, 4.000000, 4.000000, 4.000000
1.000000, 0.000000, 4250.256348, 4522.051270, 4193.846191, 4192.307617, 4199.487305, 4206.666504, 4206.666504, 4214.358887, 4204.102539, 4281.538574, 4193.846191, 4188.717773, 4314.358887, 4196.922852, 3538.000000, 8153.000000, 8155.000000, 0.000000, 0.000000, 0.000000, -20224.000000, 340.512817, 4.000000, 4.000000, 4.000000, 4.000000, 4.000000, 4.000000, 4.000000, 4.000000, 0.000000, 4.000000, 4.000000, 4.000000, 4.000000, 4.000000, 4.000000, 4.000000
2.000000, 0.000000, 4269.743652, 4522.563965, 4210.256348, 4205.641113, 4205.127930, 4214.358887, 4218.461426, 4227.179199, 4204.102539, 4295.897461, 4209.743652, 4209.743652, 4329.230469, 4212.307617, 3560.000000, 8153.000000, 8155.000000, 0.000000, 0.000000, 0.000000, -20224.000000, 348.205109, 4.000000, 4.000000, 4.000000, 4.000000, 4.000000, 4.000000, 4.000000, 4.000000, 0.000000, 4.000000, 4.000000, 4.000000, 4.000000, 4.000000, 4.000000, 4.000000
3.000000, 0.000000, 4269.230469, 4516.922852, 4212.820313, 4203.076660, 4196.410156, 4212.820313, 4216.922852, 4236.410156, 4204.102539, 4298.974121, 4213.846191, 4216.922852, 4330.256348, 4218.461426, 2479.000000, 8110.000000, 8206.000000, 0.000000, 0.000000, 0.000000, -20224.000000, 356.410248, 4.000000, 4.000000, 4.000000, 4.000000, 4.000000, 4.000000, 4.000000, 4.000000, 0.000000, 4.000000, 4.000000, 4.000000, 4.000000, 4.000000, 4.000000, 4.000000
4.000000, 0.000000, 4262.051270, 4502.563965, 4205.127930, 4196.922852, 4192.307617, 4212.820313, 4215.897461, 4232.820313, 4204.102539, 4295.384277, 4212.820313, 4205.641113, 4323.076660, 4207.692383, 3551.000000, 8110.000000, 8206.000000, 0.000000, 0.000000, 0.000000, -20224.000000, 364.102570, 4.000000, 4.000000, 4.000000, 4.000000, 4.000000, 4.000000, 4.000000, 4.000000, 0.000000, 4.000000, 4.000000, 4.000000, 4.000000, 4.000000, 4.000000, 4.000000
5.000000, 0.000000, 4264.102539, 4488.205078, 4205.127930, 4193.846191, 4199.487305, 4220.000000, 4214.871582, 4221.025391, 4204.102539, 4300.000000, 4215.897461, 4199.487305, 4318.974121, 4197.948730, 3577.000000, 8082.000000, 8239.000000, 0.000000, 0.000000, 0.000000, -20224.000000, 372.307678, 4.000000, 4.000000, 4.000000, 4.000000, 4.000000, 4.000000, 4.000000, 4.000000, 0.000000, 4.000000, 4.000000, 4.000000, 4.000000, 4.000000, 4.000000, 4.000000
6.000000, 0.000000, 4258.974121, 4475.384277, 4203.076660, 4186.153809, 4203.589844, 4220.512695, 4207.179199, 4215.897461, 4204.102539, 4295.384277, 4210.769043, 4201.025391, 4310.769043, 4198.974121, 3448.000000, 8082.000000, 8239.000000, 0.000000, 0.000000, 0.000000, -20224.000000, 380.000000, 4.000000, 4.000000, 4.000000, 4.000000, 4.000000, 4.000000, 4.000000, 4.000000, 0.000000, 4.000000, 4.000000, 4.000000, 4.000000, 4.000000, 4.000000, 4.000000
7.000000, 0.000000, 4251.281738, 4468.205078, 4195.897461, 4186.666504, 4206.666504, 4217.948730, 4196.410156, 4206.666504, 4204.102539, 4282.051270, 4204.102539, 4196.922852, 4307.692383, 4198.461426, 3507.000000, 7996.000000, 8265.000000, 0.000000, 0.000000, 0.000000, -20224.000000, 388.205109, 4.000000, 4.000000, 4.000000, 4.000000, 4.000000, 4.000000, 4.000000, 4.000000, 0.000000, 4.000000, 4.000000, 4.000000, 4.000000, 4.000000, 4.000000, 4.000000
8.000000, 0.000000, 4261.538574, 4475.384277, 4200.000000, 4201.538574, 4218.461426, 4221.538574, 4194.358887, 4194.871582, 4204.102539, 4275.897461, 4208.205078, 4196.410156, 4313.333008, 4200.512695, 0.000000, 7996.000000, 8265.000000, 0.000000, 0.000000, 0.000000, -20224.000000, 395.897430, 4.000000, 4.000000, 4.000000, 4.000000, 4.000000, 4.000000, 4.000000, 4.000000, 0.000000, 4.000000, 4.000000, 4.000000, 4.000000, 4.000000, 4.000000, 4.000000
9.000000, 0.000000, 4268.717773, 4473.333008, 4207.692383, 4200.000000, 4223.589844, 4224.615234, 4205.641113, 4201.025391, 4204.102539, 4269.743652, 4207.179199, 4202.563965, 4300.000000, 4201.538574, 2998.000000, 7949.000000, 8242.000000, 0.000000, 0.000000, 0.000000, -20224.000000, 404.102539, 4.000000, 4.000000, 4.000000, 4.000000, 4.000000, 4.000000, 4.000000, 4.000000, 0.000000, 4.000000, 4.000000, 4.000000, 4.000000, 4.000000, 4.000000, 4.000000
10.000000, 0.000000, 4262.563965, 4458.974121, 4206.666504, 4186.153809, 4217.436035, 4221.025391, 4209.743652, 4207.692383, 4204.102539, 4257.948730, 4198.974121, 4202.051270, 4289.230469, 4196.922852, 3581.000000, 7949.000000, 8242.000000, 0.000000, 0.000000, 0.000000, -20224.000000, 412.307678, 4.000000, 4.000000, 4.000000, 4.000000, 4.000000, 4.000000, 4.000000, 4.000000, 0.000000, 4.000000, 4.000000, 4.000000, 4.000000, 4.000000, 4.000000, 4.000000
11.000000, 0.000000, 4265.641113, 4461.538574, 4202.563965, 4188.205078, 4215.897461, 4217.436035, 4194.358887, 4202.051270, 4204.102539, 4253.846191, 4205.641113, 4200.512695, 4307.179199, 4203.076660, 3553.000000, 7901.000000, 8214.000000, 0.000000, 0.000000, 0.000000, -20224.000000, 420.000000, 4.000000, 4.000000, 4.000000, 4.000000, 4.000000, 4.000000, 4.000000, 4.000000, 0.000000, 4.000000, 4.000000, 4.000000, 4.000000, 4.000000, 4.000000, 4.000000
12.000000, 0.000000, 4278.974121, 4470.769043, 4202.051270, 4198.461426, 4220.512695, 4221.025391, 4190.769043, 4208.717773, 4203.589844, 4260.000000, 4221.538574, 4210.256348, 4329.743652, 4215.384277, 3518.000000, 7901.000000, 8214.000000, 0.000000, 0.000000, 0.000000, -20224.000000, 428.205109, 4.000000, 4.000000, 4.000000, 4.000000, 4.000000, 4.000000, 4.000000, 4.000000, 0.000000, 4.000000, 4.000000, 4.000000, 4.000000, 4.000000, 4.000000, 4.000000
13.000000, 0.000000, 4282.563965, 4471.281738, 4207.692383, 4200.512695, 4220.512695, 4222.563965, 4204.615234, 4223.589844, 4204.615234, 4263.076660, 4230.256348, 4220.512695, 4341.538574, 4220.512695, 3449.000000, 7841.000000, 8144.000000, 0.000000, 0.000000, 0.000000, -20224.000000, 435.897430, 4.000000, 4.000000, 4.000000, 4.000000, 4.000000, 4.000000, 4.000000, 4.000000, 0.000000, 4.000000, 4.000000, 4.000000, 4.000000, 4.000000, 4.000000, 4.000000
14.000000, 0.000000, 4279.487305, 4469.743652, 4211.794922, 4198.461426, 4220.000000, 4214.871582, 4201.538574, 4217.436035, 4203.589844, 4263.076660, 4233.333008, 4219.487305, 4350.256348, 4217.948730, 3581.000000, 7841.000000, 8144.000000, 0.000000, 0.000000, 0.000000, -20224.000000, 444.102539, 4.000000, 4.000000, 4.000000, 4.000000, 4.000000, 4.000000, 4.000000, 4.000000, 0.000000, 4.000000, 4.000000, 4.000000, 4.000000, 4.000000, 4.000000, 4.000000
15.000000, 0.000000, 4279.487305, 4470.769043, 4216.410156, 4199.487305, 4222.051270, 4211.794922, 4189.743652, 4203.589844, 4202.563965, 4260.512695, 4232.820313, 4217.436035, 4349.230469, 4218.461426, 3553.000000, 7828.000000, 8111.000000, 0.000000, 0.000000, 0.000000, -20224.000000, 451.794861, 4.000000, 4.000000, 4.000000, 4.000000, 4.000000, 4.000000, 4.000000, 4.000000, 0.000000, 4.000000, 4.000000, 4.000000, 4.000000, 4.000000, 4.000000, 4.000000
16.000000, 0.000000, 4280.512695, 4471.281738, 4218.461426, 4203.076660, 4223.076660, 4214.358887, 4193.846191, 4201.538574, 4207.692383, 4253.333008, 4223.076660, 4215.897461, 4344.102539, 4216.922852, 0.000000, 7828.000000, 8111.000000, 0.000000, 0.000000, 0.000000, -20224.000000, 460.000000, 4.000000, 4.000000, 4.000000, 4.000000, 4.000000, 4.000000, 4.000000, 4.000000, 0.000000, 4.000000, 4.000000, 4.000000, 4.000000, 4.000000, 4.000000, 4.000000
17.000000, 0.000000, 4275.384277, 4467.179199, 4215.384277, 4199.487305, 4218.974121, 4208.717773, 4194.871582, 4201.538574, 4208.205078, 4246.666504, 4214.358887, 4204.615234, 4342.051270, 4206.153809, 0.000000, 7879.000000, 8107.000000, 0.000000, 0.000000, 0.000000, -20224.000000, 467.692291, 4.000000, 4.000000, 4.000000, 4.000000, 4.000000, 4.000000, 4.000000, 4.000000, 0.000000, 4.000000, 4.000000, 4.000000, 4.000000, 4.000000, 4.000000, 4.000000
18.000000, 0.000000, 4271.281738, 4463.076660, 4214.358887, 4190.769043, 4216.922852, 4203.589844, 4187.692383, 4205.127930, 4202.051270, 4243.589844, 4210.769043, 4194.871582, 4332.820313, 4195.897461, 0.000000, 7879.000000, 8107.000000, 0.000000, 0.000000, 0.000000, -20224.000000, 475.897430, 4.000000, 4.000000, 4.000000, 4.000000, 4.000000, 4.000000, 4.000000, 4.000000, 0.000000, 4.000000, 4.000000, 4.000000, 4.000000, 4.000000, 4.000000, 4.000000
19.000000, 0.000000, 4274.871582, 4463.076660, 4216.410156, 4193.333008, 4218.461426, 4210.769043, 4188.717773, 4213.333008, 4205.641113, 4246.153809, 4211.794922, 4202.051270, 4327.179199, 4196.410156, 0.000000, 7936.000000, 8151.000000, 0.000000, 0.000000, 0.000000, -20224.000000, 483.589722, 4.000000, 4.000000, 4.000000, 4.000000, 4.000000, 4.000000, 4.000000, 4.000000, 0.000000, 4.000000, 4.000000, 4.000000, 4.000000, 4.000000, 4.000000, 4.000000
20.000000, 0.000000, 4277.948730, 4464.102539, 4218.461426, 4202.563965, 4218.461426, 4210.256348, 4186.666504, 4213.333008, 4217.436035, 4255.897461, 4212.307617, 4211.794922, 4331.794922, 4200.000000, 0.000000, 7936.000000, 8151.000000, 0.000000, 0.000000, 0.000000, -20224.000000, 491.794861, 4.000000, 4.000000, 4.000000, 4.000000, 4.000000, 4.000000, 4.000000, 4.000000, 0.000000, 4.000000, 4.000000, 4.000000, 4.000000, 4.000000, 4.000000, 4.000000
21.000000, 0.000000, 4278.461426, 4460.512695, 4224.102539, 4202.051270, 4214.871582, 4199.487305, 4184.102539, 4230.256348, 4213.333008, 4267.692383, 4213.333008, 4217.436035, 4330.769043, 4201.538574, 0.000000, 7997.000000, 8196.000000, 0.000000, 0.000000, 0.000000, -20224.000000, 500.000000, 4.000000, 4.000000, 4.000000, 4.000000, 4.000000, 4.000000, 4.000000, 4.000000, 0.000000, 4.000000, 4.000000, 4.000000, 4.000000, 4.000000, 4.000000, 4.000000
22.000000, 0.000000, 4284.615234, 4457.435547, 4232.307617, 4202.051270, 4214.871582, 4196.922852, 4192.307617, 4239.487305, 4200.000000, 4274.358887, 4212.820313, 4220.512695, 4324.615234, 4202.563965, 0.000000, 7997.000000, 8196.000000, 0.000000, 0.000000, 0.000000, -20224.000000, 507.692291, 4.000000, 4.000000, 4.000000, 4.000000, 4.000000, 4.000000, 4.000000, 4.000000, 0.000000, 4.000000, 4.000000, 4.000000, 4.000000, 4.000000, 4.000000, 4.000000
23.000000, 0.000000, 4290.256348, 4460.512695, 4234.358887, 4207.692383, 4214.358887, 4201.025391, 4193.333008, 4197.948730, 4207.179199, 4277.436035, 4207.179199, 4219.487305, 4317.948730, 4201.025391, 0.000000, 8095.000000, 8247.000000, 0.000000, 0.000000, 0.000000, -20224.000000, 515.897400, 4.000000, 4.000000, 4.000000, 4.000000, 4.000000, 4.000000, 4.000000, 4.000000, 0.000000, 4.000000, 4.000000, 4.000000, 4.000000, 4.000000, 4.000000, 4.000000
24.000000, 0.000000, 4290.769043, 4464.102539, 4231.794922, 4212.307617, 4214.358887, 4200.512695, 4183.589844, 4169.743652, 4216.922852, 4280.000000, 4202.563965, 4222.051270, 4314.358887, 4207.179199, 0.000000, 8095.000000, 8247.000000, 0.000000, 0.000000, 0.000000, -20224.000000, 523.589722, 4.000000, 4.000000, 4.000000, 4.000000, 4.000000, 4.000000, 4.000000, 4.000000, 0.000000, 4.000000, 4.000000, 4.000000, 4.000000, 4.000000, 4.000000, 4.000000
25.000000, 0.000000, 4295.897461, 4471.794922, 4233.846191, 4216.410156, 4218.461426, 4197.948730, 4182.563965, 4197.948730, 4211.281738, 4282.563965, 4205.127930, 4228.717773, 4320.000000, 4218.461426, 0.000000, 8131.000000, 8260.000000, 0.000000, 0.000000, 0.000000, -20224.000000, 531.794861, 4.000000, 4.000000, 4.000000, 4.000000, 4.000000, 4.000000, 4.000000, 4.000000, 0.000000, 4.000000, 4.000000, 4.000000, 4.000000, 4.000000, 4.000000, 4.000000
26.000000, 0.000000, 4296.410156, 4478.461426, 4237.948730, 4220.000000, 4219.487305, 4200.512695, 4187.692383, 4210.769043, 4210.769043, 4283.076660, 4202.051270, 4224.615234, 4322.563965, 4211.794922, 0.000000, 8131.000000, 8260.000000, 0.000000, 0.000000, 0.000000, -20224.000000, 539.487183, 4.000000, 4.000000, 4.000000, 4.000000, 4.000000, 4.000000, 4.000000, 4.000000, 0.000000, 4.000000, 4.000000, 4.000000, 4.000000, 4.000000, 4.000000, 4.000000
27.000000, 0.000000, 4282.051270, 4474.871582, 4227.692383, 4211.794922, 4215.384277, 4201.538574, 4191.794922, 4193.333008, 4210.769043, 4273.333008, 4189.743652, 4209.743652, 4311.281738, 4196.410156, 0.000000, 8168.000000, 8293.000000, 0.000000, 0.000000, 0.000000, -20224.000000, 547.692322, 4.000000, 4.000000, 4.000000, 4.000000, 4.000000, 4.000000, 4.000000, 4.000000, 0.000000, 4.000000, 4.000000, 4.000000, 4.000000, 4.000000, 4.000000, 4.000000
28.000000, 0.000000, 4273.846191, 4475.897461, 4217.948730, 4203.076660, 4222.051270, 4202.563965, 4199.487305, 4200.512695, 4207.692383, 4262.051270, 4183.589844, 4201.025391, 4303.076660, 4194.358887, 0.000000, 8168.000000, 8293.000000, 0.000000, 0.000000, 0.000000, -20224.000000, 555.384583, 4.000000, 4.000000, 4.000000, 4.000000, 4.000000, 4.000000, 4.000000, 4.000000, 0.000000, 4.000000, 4.000000, 4.000000, 4.000000, 4.000000, 4.000000, 4.000000
29.000000, 0.000000, 4280.000000, 4486.153809, 4221.025391, 4209.230469, 4234.871582, 4211.281738, 4203.076660, 4215.384277, 4213.333008, 4260.000000, 4192.307617, 4201.538574, 4306.153809, 4200.000000, 0.000000, 8179.000000, 8272.000000, 0.000000, 0.000000, 0.000000, -20224.000000, 563.589722, 4.000000, 4.000000, 4.000000, 4.000000, 4.000000, 4.000000, 4.000000, 4.000000, 0.000000, 4.000000, 4.000000, 4.000000, 4.000000, 4.000000, 4.000000, 4.000000
30.000000, 0.000000, 4281.538574, 4489.743652, 4220.512695, 4214.358887, 4232.820313, 4220.000000, 4201.025391, 4218.974121, 4213.846191, 4262.051270, 4200.000000, 4203.589844, 4308.205078, 4199.487305, 0.000000, 8179.000000, 8272.000000, 0.000000, 0.000000, 0.000000, -20224.000000, 571.794861, 4.000000, 4.000000, 4.000000, 4.000000, 4.000000, 4.000000, 4.000000, 4.000000, 0.000000, 4.000000, 4.000000, 4.000000, 4.000000, 4.000000, 4.000000, 4.000000
31.000000, 0.000000, 4283.076660, 4492.820313, 4220.000000, 4213.846191, 4229.743652, 4217.436035, 4206.666504, 4216.922852, 4202.051270, 4257.948730, 4200.512695, 4207.692383, 4309.743652, 4199.487305, 0.000000, 8193.000000, 8247.000000, 0.000000, 0.000000, 0.000000, -20224.000000, 579.487183, 4.000000, 4.000000, 4.000000, 4.000000, 4.000000, 4.000000, 4.000000, 4.000000, 0.000000, 4.000000, 4.000000, 4.000000, 4.000000, 4.000000, 4.000000, 4.000000
32.000000, 0.000000, 4295.897461, 4503.076660, 4230.769043, 4223.589844, 4240.512695, 4212.820313, 4208.205078, 4213.333008, 4202.051270, 4252.820313, 4210.256348, 4215.384277, 4324.102539, 4212.820313, 0.000000, 8193.000000, 8247.000000, 0.000000, 0.000000, 0.000000, -20224.000000, 587.692322, 4.000000, 4.000000, 4.000000, 4.000000, 4.000000, 4.000000, 4.000000, 4.000000, 0.000000, 4.000000, 4.000000, 4.000000, 4.000000, 4.000000, 4.000000, 4.000000
33.000000, 0.000000, 4305.641113, 4504.615234, 4237.948730, 4232.307617, 4243.589844, 4216.410156, 4203.589844, 4218.461426, 4207.692383, 4253.333008, 4223.589844, 4219.487305, 4337.948730, 4225.127930, 0.000000, 8217.000000, 8243.000000, 0.000000, 0.000000, 0.000000, -20224.000000, 595.384583, 4.000000, 4.000000, 4.000000, 4.000000, 4.000000, 4.000000, 4.000000, 4.000000, 0.000000, 4.000000, 4.000000, 4.000000, 4.000000, 4.000000, 4.000000, 4.000000
34.000000, 0.000000, 4296.410156, 4501.025391, 4232.820313, 4227.692383, 4237.436035, 4216.922852, 4199.487305, 4211.794922, 4204.102539, 4250.769043, 4222.051270, 4216.922852, 4335.384277, 4223.076660, 0.000000, 8217.000000, 8243.000000, 0.000000, 0.000000, 0.000000, -20224.000000, 603.589722, 4.000000, 4.000000, 4.000000, 4.000000, 4.000000, 4.000000, 4.000000, 4.000000, 0.000000, 4.000000, 4.000000, 4.000000, 4.000000, 4.000000, 4.000000, 4.000000
35.000000, 0.000000, 4280.512695, 4502.563965, 4229.230469, 4225.127930, 4243.589844, 4216.410156, 4198.974121, 4189.743652, 4203.076660, 4243.589844, 4215.897461, 4217.948730, 4329.743652, 4217.948730, 0.000000, 8220.000000, 8259.000000, 0.000000, 0.000000, 0.000000, -20224.000000, 611.282043, 4.000000, 4.000000, 4.000000, 4.000000, 4.000000, 4.000000, 4.000000, 4.000000, 0.000000, 4.000000, 4.000000, 4.000000, 4.000000, 4.000000, 4.000000, 4.000000
36.000000, 0.000000, 4268.205078, 4497.435547, 4226.153809, 4224.102539, 4251.794922, 4225.641113, 4206.666504, 4187.692383, 4203.589844, 4234.358887, 4208.717773, 4211.281738, 4317.948730, 4210.256348, 0.000000, 8220.000000, 8259.000000, 0.000000, 0.000000, 0.000000, -20224.000000, 619.487183, 4.000000, 4.000000, 4.000000, 4.000000, 4.000000, 4.000000, 4.000000, 4.000000, 0.000000, 4.000000, 4.000000, 4.000000, 4.000000, 4.000000, 4.000000, 4.000000
37.000000, 0.000000, 4258.461426, 4478.974121, 4214.871582, 4211.281738, 4248.717773, 4234.358887, 4218.974121, 4213.333008, 4209.230469, 4227.179199, 4197.436035, 4195.897461, 4296.922852, 4193.846191, 0.000000, 8202.000000, 8293.000000, 0.000000, 0.000000, 0.000000, -20224.000000, 627.692322, 4.000000, 4.000000, 4.000000, 4.000000, 4.000000, 4.000000, 4.000000, 4.000000, 0.000000, 4.000000, 4.000000, 4.000000, 4.000000, 4.000000, 4.000000, 4.000000
38.000000, 0.000000, 4254.871582, 4467.179199, 4214.358887, 4203.589844, 4246.153809, 4236.922852, 4229.230469, 4233.846191, 4215.384277, 4228.717773, 4196.410156, 4201.538574, 4293.333008, 4193.333008, 0.000000, 8202.000000, 8293.000000, 0.000000, 0.000000, 0.000000, -20224.000000, 635.384583, 4.000000, 4.000000, 4.000000, 4.000000, 4.000000, 4.000000, 4.000000, 4.000000, 0.000000, 4.000000, 4.000000, 4.000000, 4.000000, 4.000000, 4.000000, 4.000000
39.000000, 0.000000, 4257.948730, 4463.076660, 4225.641113, 4202.051270, 4242.051270, 4231.794922, 4233.333008, 4228.717773, 4206.666504, 4231.794922, 4202.563965, 4217.948730, 4296.410156, 4203.589844, 0.000000, 8169.000000, 8316.000000, 0.000000, 0.000000, 0.000000, -20224.000000, 643.589722, 4.000000, 4.000000, 4.000000, 4.000000, 4.000000, 4.000000, 4.000000, 4.000000, 0.000000, 4.000000, 4.000000, 4.000000, 4.000000, 4.000000, 4.000000, 4.000000
40.000000, 0.000000, 4258.974121, 4466.666504, 4229.230469, 4199.487305, 4236.922852, 4221.025391, 4221.538574, 4214.871582, 4198.461426, 4229.230469, 4206.153809, 4217.436035, 4291.794922, 4202.051270, 0.000000, 8169.000000, 8316.000000, 0.000000, 0.000000, 0.000000, -20224.000000, 651.282043, 4.000000, 4.000000, 4.000000, 4.000000, 4.000000, 4.000000, 4.000000, 4.000000, 0.000000, 4.000000, 4.000000, 4.000000, 4.000000, 4.000000, 4.000000, 4.000000
41.000000, 0.000000, 4264.102539, 4477.948730, 4227.692383, 4208.205078, 4245.127930, 4214.871582, 4201.538574, 4216.410156, 4202.563965, 4226.666504, 4215.897461, 4215.897461, 4303.589844, 4208.205078, 0.000000, 8135.000000, 8334.000000, 0.000000, 0.000000, 0.000000, -20224.000000, 659.487183, 4.000000, 4.000000, 4.000000, 4.000000, 4.000000, 4.000000, 4.000000, 4.000000, 0.000000, 4.000000, 4.000000, 4.000000, 4.000000, 4.000000, 4.000000, 4.000000
42.000000, 0.000000, 4270.769043, 4475.897461, 4231.281738, 4212.820313, 4251.794922, 4217.436035, 4199.487305, 4218.461426, 4204.615234, 4222.563965, 4222.051270, 4221.538574, 4314.871582, 4218.974121, 0.000000, 8135.000000, 8334.000000, 0.000000, 0.000000, 0.000000, -20224.000000, 667.179443, 4.000000, 4.000000, 4.000000, 4.000000, 4.000000, 4.000000, 4.000000, 4.000000, 0.000000, 4.000000, 4.000000, 4.000000, 4.000000, 4.000000, 4.000000, 4.000000
43.000000, 0.000000, 4266.666504, 4463.589844, 4232.307617, 4204.615234, 4246.153809, 4217.436035, 4206.666504, 4202.563965, 4197.948730, 4215.384277, 4215.384277, 4218.974121, 4304.615234, 4214.358887, 0.000000, 8124.000000, 8333.000000, 0.000000, 0.000000, 0.000000, -20224.000000, 675.384583, 4.000000, 4.000000, 4.000000, 4.000000, 4.000000, 4.000000, 4.000000, 4.000000, 0.000000, 4.000000, 4.000000, 4.000000, 4.000000, 4.000000, 4.000000, 4.000000
44.000000, 0.000000, 4263.589844, 4458.461426, 4230.256348, 4201.538574, 4244.615234, 4215.384277, 4204.102539, 4191.794922, 4203.076660, 4215.897461, 4212.307617, 4215.384277, 4303.076660, 4206.666504, 0.000000, 8124.000000, 8333.000000, 0.000000, 0.000000, 0.000000, -20224.000000, 683.076904, 4.000000, 4.000000, 4.000000, 4.000000, 4.000000, 4.000000, 4.000000, 4.000000, 0.000000, 4.000000, 4.000000, 4.000000, 4.000000, 4.000000, 4.000000, 4.000000
45.000000, 0.000000, 4269.743652, 4460.000000, 4230.769043, 4209.743652, 4250.256348, 4215.897461, 4200.512695, 4201.025391, 4213.846191, 4220.000000, 4216.922852, 4218.974121, 4311.794922, 4207.692383, 0.000000, 8124.000000, 8323.000000, 0.000000, 0.000000, 0.000000, -20224.000000, 691.282043, 4.000000, 4.000000, 4.000000, 4.000000, 4.000000, 4.000000, 4.000000, 4.000000, 0.000000, 4.000000, 4.000000, 4.000000, 4.000000, 4.000000, 4.000000, 4.000000
46.000000, 0.000000, 4269.743652, 4460.512695, 4227.692383, 4208.717773, 4248.205078, 4208.717773, 4201.025391, 4202.563965, 4209.743652, 4219.487305, 4215.897461, 4216.922852, 4311.281738, 4207.179199, 0.000000, 8124.000000, 8323.000000, 0.000000, 0.000000, 0.000000, -20224.000000, 699.487183, 4.000000, 4.000000, 4.000000, 4.000000, 4.000000, 4.000000, 4.000000, 4.000000, 0.000000, 4.000000, 4.000000, 4.000000, 4.000000, 4.000000, 4.000000, 4.000000
47.000000, 0.000000, 4264.102539, 4457.435547, 4216.922852, 4201.538574, 4243.589844, 4200.512695, 4197.948730, 4200.512695, 4208.717773, 4223.076660, 4212.820313, 4213.333008, 4316.410156, 4203.589844, 0.000000, 8175.000000, 8318.000000, 0.000000, 0.000000, 0.000000, -20224.000000, 707.179443, 4.000000, 4.000000, 4.000000, 4.000000, 4.000000, 4.000000, 4.000000, 4.000000, 0.000000, 4.000000, 4.000000, 4.000000, 4.000000, 4.000000, 4.000000, 4.000000
48.000000, 0.000000, 4267.179199, 4452.820313, 4215.897461, 4206.666504, 4243.589844, 4198.974121, 4193.846191, 4205.127930, 4214.871582, 4235.897461, 4214.871582, 4216.410156, 4333.846191, 4201.025391, 0.000000, 8175.000000, 8318.000000, 0.000000, 0.000000, 0.000000, -20224.000000, 715.384583, 4.000000, 4.000000, 4.000000, 4.000000, 4.000000, 4.000000, 4.000000, 4.000000, 0.000000, 4.000000, 4.000000, 4.000000, 4.000000, 4.000000, 4.000000, 4.000000
49.000000, 0.000000, 4268.205078, 4449.230469, 4227.179199, 4214.358887, 4237.436035, 4201.538574, 4198.461426, 4203.589844, 4207.692383, 4244.615234, 4212.307617, 4213.846191, 4339.487305, 4198.974121, 0.000000, 8220.000000, 8321.000000, 0.000000, 0.000000, 0.000000, -20224.000000, 723.076904, 4.000000, 4.000000, 4.000000, 4.000000, 4.000000, 4.000000, 4.000000, 4.000000, 0.000000, 4.000000, 4.000000, 4.000000, 4.000000, 4.000000, 4.000000, 4.000000
50.000000, 0.000000, 4264.615234, 4444.615234, 4229.743652, 4213.333008, 4233.333008, 4208.205078, 4206.666504, 4201.538574, 4203.589844, 4246.666504, 4203.589844, 4209.230469, 4335.897461, 4198.974121, 0.000000, 8220.000000, 8321.000000, 0.000000, 0.000000, 0.000000, -20224.000000, 731.282043, 4.000000, 4.000000, 4.000000, 4.000000, 4.000000, 4.000000, 4.000000, 4.000000, 0.000000, 4.000000, 4.000000, 4.000000, 4.000000, 4.000000, 4.000000, 4.000000
51.000000, 0.000000, 4268.717773, 4441.538574, 4225.641113, 4212.820313, 4241.025391, 4207.692383, 4201.025391, 4198.974121, 4216.922852, 4252.307617, 4203.589844, 4213.333008, 4338.974121, 4201.538574, 0.000000, 8290.000000, 8337.000000, 0.000000, 0.000000, 0.000000, -20224.000000, 738.974365, 4.000000, 4.000000, 4.000000, 4.000000, 4.000000, 4.000000, 4.000000, 4.000000, 0.000000, 4.000000, 4.000000, 4.000000, 4.000000, 4.000000, 4.000000, 4.000000
52.000000, 0.000000, 4265.127930, 4434.871582, 4218.974121, 4212.307617, 4240.512695, 4200.512695, 4201.025391, 4195.384277, 4215.384277, 4252.307617, 4197.436035, 4207.692383, 4330.769043, 4197.436035, 0.000000, 8290.000000, 8337.000000, 0.000000, 0.000000, 0.000000, -20224.000000, 747.179443, 4.000000, 4.000000, 4.000000, 4.000000, 4.000000, 4.000000, 4.000000, 4.000000, 0.000000, 4.000000, 4.000000, 4.000000, 4.000000, 4.000000, 4.000000, 4.000000
53.000000, 0.000000, 4250.256348, 4423.076660, 4203.076660, 4202.051270, 4228.205078, 4200.000000, 4216.410156, 4193.333008, 4200.512695, 4237.436035, 4173.846191, 4187.179199, 4297.948730, 4178.974121, 0.000000, 8306.000000, 8345.000000, 0.000000, 0.000000, 0.000000, -20224.000000, 755.384583, 4.000000, 4.000000, 4.000000, 4.000000, 4.000000, 4.000000, 4.000000, 4.000000, 0.000000, 4.000000, 4.000000, 4.000000, 4.000000, 4.000000, 4.000000, 4.000000
54.000000, 0.000000, 4243.589844, 4421.025391, 4190.256348, 4195.384277, 4231.281738, 4202.563965, 4208.205078, 4180.000000, 4202.563965, 4227.179199, 4160.512695, 4178.974121, 4273.846191, 4168.717773, 0.000000, 8306.000000, 8345.000000, 0.000000, 0.000000, 0.000000, -20224.000000, 763.076904, 4.000000, 4.000000, 4.000000, 4.000000, 4.000000, 4.000000, 4.000000, 4.000000, 0.000000, 4.000000, 4.000000, 4.000000, 4.000000, 4.000000, 4.000000, 4.000000
55.000000, 0.000000, 4246.153809, 4422.563965, 4193.333008, 4202.051270, 4243.589844, 4197.948730, 4188.717773, 4170.769043, 4206.666504, 4232.820313, 4170.769043, 4186.153809, 4276.922852, 4180.000000, 0.000000, 8333.000000, 8350.000000, 0.000000, 0.000000, 0.000000, -20224.000000, 771.282043, 4.000000, 4.000000, 4.000000, 4.000000, 4.000000, 4.000000, 4.000000, 4.000000, 0.000000, 4.000000, 4.000000, 4.000000, 4.000000, 4.000000, 4.000000, 4.000000
56.000000, 0.000000, 4252.820313, 4420.512695, 4204.615234, 4204.102539, 4245.127930, 4195.897461, 4193.333008, 4187.692383, 4203.076660, 4235.897461, 4180.000000, 4187.692383, 4282.051270, 4189.230469, 0.000000, 8333.000000, 8350.000000, 0.000000, 0.000000, 0.000000, -20224.000000, 778.974365, 4.000000, 4.000000, 4.000000, 4.000000, 4.000000, 4.000000, 4.000000, 4.000000, 0.000000, 4.000000, 4.000000, 4.000000, 4.000000, 4.000000, 4.000000, 4.000000
57.000000, 0.000000, 4261.538574, 4420.512695, 4211.794922, 4203.076660, 4243.589844, 4202.051270, 4201.538574, 4200.000000, 4203.076660, 4232.820313, 4183.076660, 4191.794922, 4278.974121, 4193.846191, 0.000000, 8356.000000, 8354.000000, 0.000000, 0.000000, 0.000000, -20224.000000, 787.179443, 4.000000, 4.000000, 4.000000, 4.000000, 4.000000, 4.000000, 4.000000, 4.000000, 0.000000, 4.000000, 4.000000, 4.000000, 4.000000, 4.000000, 4.000000, 4.000000
58.000000, 0.000000, 4268.205078, 4417.948730, 4209.743652, 4208.717773, 4247.179199, 4210.256348, 4198.974121, 4187.692383, 4204.102539, 4240.512695, 4186.666504, 4196.410156, 4280.000000, 4201.538574, 0.000000, 8356.000000, 8354.000000, 0.000000, 0.000000, 0.000000, -20224.000000, 794.871765, 4.000000, 4.000000, 4.000000, 4.000000, 4.000000, 4.000000, 4.000000, 4.000000, 0.000000, 4.000000, 4.000000, 4.000000, 4.000000, 4.000000, 4.000000, 4.000000
59.000000, 0.000000, 4270.769043, 4414.871582, 4201.538574, 4212.307617, 4253.846191, 4213.846191, 4197.948730, 4187.179199, 4203.589844, 4247.692383, 4185.127930, 4191.281738, 4289.230469, 4204.615234, 0.000000, 8337.000000, 8381.000000, 0.000000, 0.000000, 0.000000, -20224.000000, 803.076904, 4.000000, 4.000000, 4.000000, 4.000000, 4.000000, 4.000000, 4.000000, 4.000000, 0.000000, 4.000000, 4.000000, 4.000000, 4.000000, 4.000000, 4.000000, 4.000000
60.000000, 0.000000, 4273.846191, 4414.871582, 4196.410156, 4212.820313, 4260.512695, 4218.461426, 4202.563965, 4212.820313, 4202.563965, 4248.205078, 4185.127930, 4191.281738, 4294.871582, 4207.179199, 0.000000, 8337.000000, 8381.000000, 0.000000, 0.000000, 0.000000, -20224.000000, 810.769226, 4.000000, 4.000000, 4.000000, 4.000000, 4.000000, 4.000000, 4.000000, 4.000000, 0.000000, 4.000000, 4.000000, 4.000000, 4.000000, 4.000000, 4.000000, 4.000000
61.000000, 0.000000, 4275.384277, 4412.307617, 4196.410156, 4213.333008, 4266.153809, 4224.615234, 4211.794922, 4218.461426, 4202.563965, 4247.179199, 4188.205078, 4200.512695, 4290.256348, 4215.897461, 0.000000, 8261.000000, 8432.000000, 0.000000, 0.000000, 0.000000, -20224.000000, 818.974365, 4.000000, 4.000000, 4.000000, 4.000000, 4.000000, 4.000000, 4.000000, 4.000000, 0.000000, 4.000000, 4.000000, 4.000000, 4.000000, 4.000000, 4.000000, 4.000000
62.000000, 0.000000, 4276.410156, 4401.538574, 4194.358887, 4210.256348, 4272.820313, 4223.076660, 4212.307617, 4205.127930, 4203.076660, 4242.051270, 4189.743652, 4201.538574, 4282.563965, 4214.871582, 0.000000, 8261.000000, 8432.000000, 0.000000, 0.000000, 0.000000, -20224.000000, 827.179443, 4.000000, 4.000000, 4.000000, 4.000000, 4.000000, 4.000000, 4.000000, 4.000000, 0.000000, 4.000000, 4.000000, 4.000000, 4.000000, 4.000000, 4.000000, 4.000000
63.000000, 0.000000, 4277.436035, 4386.666504, 4192.820313, 4202.563965, 4273.846191, 4216.922852, 4209.230469, 4208.717773, 4204.615234, 4231.794922, 4186.666504, 4195.897461, 4277.436035, 4204.102539, 0.000000, 8239.000000, 8437.000000, 0.000000, 0.000000, 0.000000, -20224.000000, 834.871765, 4.000000, 4.000000, 4.000000, 4.000000, 4.000000, 4.000000, 4.000000, 4.000000, 0.000000, 4.000000, 4.000000, 4.000000, 4.000000, 4.000000, 4.000000, 4.000000
64.000000, 0.000000, 4284.102539, 4377.435547, 4197.948730, 4200.512695, 4272.307617, 4217.436035, 4214.358887, 4224.102539, 4203.589844, 4230.256348, 4186.153809, 4197.436035, 4279.487305, 4203.589844, 3186.000000, 8239.000000, 8437.000000, 0.000000, 0.000000, 0.000000, -20224.000000, 843.076904, 4.000000, 4.000000, 4.000000, 4.000000, 4.000000, 4.000000, 4.000000, 4.000000, 0.000000, 4.000000, 4.000000, 4.000000, 4.000000, 4.000000, 4.000000, 4.000000
65.000000, 0.000000, 4298.974121, 4374.358887, 4207.179199, 4212.307617, 4278.974121, 4223.076660, 4210.256348, 4222.051270, 4202.563965, 4242.563965, 4198.461426, 4204.102539, 4298.461426, 4216.922852, 3541.000000, 8273.000000, 8477.000000, 0.000000, 0.000000, 0.000000, -20224.000000, 850.769226, 4.000000, 4.000000, 4.000000, 4.000000, 4.000000, 4.000000, 4.000000, 4.000000, 0.000000, 4.000000, 4.000000, 4.000000, 4.000000, 4.000000, 4.000000, 4.000000
66.000000, 0.000000, 4304.102539, 4365.641113, 4208.717773, 4217.948730, 4285.641113, 4229.230469, 4208.205078, 4212.820313, 4203.076660, 4251.281738, 4201.025391, 4202.051270, 4313.333008, 4220.000000, 3560.000000, 8273.000000, 8477.000000, 0.000000, 0.000000, 0.000000, -20224.000000, 858.974365, 4.000000, 4.000000, 4.000000, 4.000000, 4.000000, 4.000000, 4.000000, 4.000000, 0.000000, 4.000000, 4.000000, 4.000000, 4.000000, 4.000000, 4.000000, 4.000000
67.000000, 0.000000, 4292.307617, 4341.538574, 4193.846191, 4202.563965, 4281.538574, 4231.794922, 4217.948730, 4214.358887, 4203.076660, 4256.410156, 4187.692383, 4188.205078, 4311.281738, 4209.743652, 2486.000000, 8293.000000, 8518.000000, 0.000000, 0.000000, 0.000000, -20224.000000, 866.666626, 4.000000, 4.000000, 4.000000, 4.000000, 4.000000, 4.000000, 4.000000, 4.000000, 0.000000, 4.000000, 4.000000, 4.000000, 4.000000, 4.000000, 4.000000, 4.000000
68.000000, 0.000000, 4281.025391, 4318.461426, 4179.487305, 4186.666504, 4275.897461, 4224.102539, 4213.333008, 4219.487305, 4201.538574, 4269.743652, 4182.051270, 4181.538574, 4309.230469, 4200.512695, 3549.000000, 8293.000000, 8518.000000, 0.000000, 0.000000, 0.000000, -20224.000000, 874.871765, 4.000000, 4.000000, 4.000000, 4.000000, 4.000000, 4.000000, 4.000000, 4.000000, 0.000000, 4.000000, 4.000000, 4.000000, 4.000000, 4.000000, 4.000000, 4.000000
69.000000, 0.000000, 4279.487305, 4309.230469, 4182.563965, 4189.230469, 4273.846191, 4214.358887, 4205.127930, 4219.487305, 4202.051270, 4279.487305, 4185.641113, 4193.333008, 4310.256348, 4201.538574, 3577.000000, 8317.000000, 8551.000000, 0.000000, 0.000000, 0.000000, -20224.000000, 883.076904, 4.000000, 4.000000, 4.000000, 4.000000, 4.000000, 4.000000, 4.000000, 4.000000, 0.000000, 4.000000, 4.000000, 4.000000, 4.000000, 4.000000, 4.000000, 4.000000
70.000000, 0.000000, 4287.692383, 4303.589844, 4193.333008, 4201.025391, 4276.410156, 4216.410156, 4206.153809, 4210.256348, 4204.102539, 4285.641113, 4187.692383, 4203.076660, 4316.410156, 4212.307617, 3445.000000, 8317.000000, 8551.000000, 0.000000, 0.000000, 0.000000, -20224.000000, 890.769226, 4.000000, 4.000000, 4.000000, 4.000000, 4.000000, 4.000000, 4.000000, 4.000000, 0.000000, 4.000000, 4.000000, 4.000000, 4.000000, 4.000000, 4.000000, 4.000000
71.000000, 0.000000, 4295.384277, 4300.000000, 4203.076660, 4211.794922, 4280.512695, 4218.461426, 4197.436035, 4205.127930, 4205.127930, 4294.871582, 4191.794922, 4202.051270, 4323.076660, 4217.436035, 3501.000000, 8341.000000, 8551.000000, 0.000000, 0.000000, 0.000000, -20224.000000, 898.974365, 4.000000, 4.000000, 4.000000, 4.000000, 4.000000, 4.000000, 4.000000, 4.000000, 0.000000, 4.000000, 4.000000, 4.000000, 4.000000, 4.000000, 4.000000, 4.000000
72.000000, 0.000000, 4293.333008, 4292.307617, 4212.820313, 4219.487305, 4273.846191, 4216.410156, 4206.153809, 4213.846191, 4204.615234, 4296.922852, 4197.436035, 4206.666504, 4315.897461, 4217.436035, 0.000000, 8341.000000, 8551.000000, 0.000000, 0.000000, 0.000000, -20224.000000, 906.666626, 4.000000, 4.000000, 4.000000, 4.000000, 4.000000, 4.000000, 4.000000, 4.000000, 0.000000, 4.000000, 4.000000, 4.000000, 4.000000, 4.000000, 4.000000, 4.000000
73.000000, 0.000000, 4295.384277, 4283.589844, 4217.948730, 4217.948730, 4263.589844, 4217.436035, 4229.743652, 4216.410156, 4203.589844, 4284.102539, 4199.487305, 4216.410156, 4309.743652, 4225.127930, 2998.000000, 8329.000000, 8522.000000, 0.000000, 0.000000, 0.000000, -20224.000000, 914.871765, 4.000000, 4.000000, 4.000000, 4.000000, 4.000000, 4.000000, 4.000000, 4.000000, 0.000000, 4.000000, 4.000000, 4.000000, 4.000000, 4.000000, 4.000000, 4.000000
74.000000, 0.000000, 4305.641113, 4282.563965, 4218.974121, 4215.897461, 4262.563965, 4215.384277, 4223.589844, 4213.333008, 4203.076660, 4273.846191, 4208.717773, 4219.487305, 4322.051270, 4237.436035, 3580.000000, 8329.000000, 8522.000000, 0.000000, 0.000000, 0.000000, -20224.000000, 922.564087, 4.000000, 4.000000, 4.000000, 4.000000, 4.000000, 4.000000, 4.000000, 4.000000, 0.000000, 4.000000, 4.000000, 4.000000, 4.000000, 4.000000, 4.000000, 4.000000
75.000000, 0.000000, 4307.179199, 4277.436035, 4215.384277, 4217.436035, 4265.127930, 4208.205078, 4215.384277, 4220.000000, 4203.076660, 4268.717773, 4225.641113, 4221.538574, 4328.717773, 4243.076660, 3553.000000, 8248.000000, 8429.000000, 0.000000, 0.000000, 0.000000, -20224.000000, 930.769226, 4.000000, 4.000000, 4.000000, 4.000000, 4.000000, 4.000000, 4.000000, 4.000000, 0.000000, 4.000000, 4.000000, 4.000000, 4.000000, 4.000000, 4.000000, 4.000000
76.000000, 0.000000, 4297.436035, 4269.743652, 4203.589844, 4211.794922, 4262.051270, 4203.076660, 4216.410156, 4223.076660, 4203.076660, 4256.922852, 4232.820313, 4217.436035, 4318.461426, 4241.025391, 3518.000000, 8248.000000, 8429.000000, 0.000000, 0.000000, 0.000000, -20224.000000, 938.461487, 4.000000, 4.000000, 4.000000, 4.000000, 4.000000, 4.000000, 4.000000, 4.000000, 0.000000, 4.000000, 4.000000, 4.000000, 4.000000, 4.000000, 4.000000, 4.000000
77.000000, 0.000000, 4283.589844, 4261.025391, 4189.743652, 4201.538574, 4264.102539, 4200.000000, 4194.871582, 4213.846191, 4202.563965, 4237.436035, 4223.589844, 4198.974121, 4311.281738, 4227.179199, 3454.000000, 8191.000000, 8384.000000, 0.000000, 0.000000, 0.000000, -20224.000000, 946.666626, 4.000000, 4.000000, 4.000000, 4.000000, 4.000000, 4.000000, 4.000000, 4.000000, 0.000000, 4.000000, 4.000000, 4.000000, 4.000000, 4.000000, 4.000000, 4.000000
78.000000, 0.000000, 4268.205078, 4250.769043, 4177.436035, 4200.000000, 4275.897461, 4204.615234, 4183.589844, 4215.384277, 4203.076660, 4214.871582, 4214.871582, 4183.076660, 4305.641113, 4204.615234, 3580.000000, 8191.000000, 8384.000000, 0.000000, 0.000000, 0.000000, -20224.000000, 954.871765, 4.000000, 4.000000, 4.000000, 4.000000, 4.000000, 4.000000, 4.000000, 4.000000, 0.000000, 4.000000, 4.000000, 4.000000, 4.000000, 4.000000, 4.000000, 4.000000
79.000000, 0.000000, 4261.025391, 4246.666504, 4173.333008, 4202.563965, 4283.589844, 4214.871582, 4204.102539, 4218.974121, 4202.563965, 4197.948730, 4215.384277, 4180.512695, 4297.436035, 4191.794922, 3553.000000, 8141.000000, 8361.000000, 0.000000, 0.000000, 0.000000, -20224.000000, 962.564087, 4.000000, 4.000000, 4.000000, 4.000000, 4.000000, 4.000000, 4.000000, 4.000000, 0.000000, 4.000000, 4.000000, 4.000000, 4.000000, 4.000000, 4.000000, 4.000000
80.000000, 0.000000, 4261.025391, 4246.153809, 4172.307617, 4199.487305, 4284.102539, 4217.948730, 4210.256348, 4209.230469, 4201.538574, 4194.358887, 4218.461426, 4182.563965, 4300.000000, 4192.307617, 3518.000000, 8141.000000, 8361.000000, 0.000000, 0.000000, 0.000000, -20224.000000, 970.769226, 4.000000, 4.000000, 4.000000, 4.000000, 4.000000, 4.000000, 4.000000, 4.000000, 0.000000, 4.000000, 4.000000, 4.000000, 4.000000, 4.000000, 4.000000, 4.000000
81.000000, 0.000000, 4262.051270, 4241.025391, 4170.769043, 4196.922852, 4283.076660, 4215.384277, 4194.871582, 4204.102539, 4201.025391, 4197.436035, 4226.153809, 4189.743652, 4314.871582, 4198.974121, 3454.000000, 8058.000000, 8324.000000, 0.000000, 0.000000, 0.000000, -20224.000000, 978.461487, 4.000000, 4.000000, 4.000000, 4.000000, 4.000000, 4.000000, 4.000000, 4.000000, 0.000000, 4.000000, 4.000000, 4.000000, 4.000000, 4.000000, 4.000000, 4.000000
82.000000, 0.000000, 4269.230469, 4229.743652, 4173.846191, 4199.487305, 4278.461426, 4218.461426, 4202.051270, 4227.179199, 4201.538574, 4202.563965, 4236.922852, 4200.000000, 4319.487305, 4208.205078, 3580.000000, 8058.000000, 8324.000000, 0.000000, 0.000000, 0.000000, -20224.000000, 986.666626, 4.000000, 4.000000, 4.000000, 4.000000, 4.000000, 4.000000, 4.000000, 4.000000, 0.000000, 4.000000, 4.000000, 4.000000, 4.000000, 4.000000, 4.000000, 4.000000
83.000000, 0.000000, 4280.000000, 4220.512695, 4175.384277, 4201.025391, 4269.743652, 4219.487305, 4209.743652, 4235.384277, 4201.025391, 4203.589844, 4237.948730, 4205.127930, 4312.820313, 4216.922852, 3553.000000, 8018.000000, 8319.000000, 0.000000, 0.000000, 0.000000, -20224.000000, 994.358948, 4.000000, 4.000000, 4.000000, 4.000000, 4.000000, 4.000000, 4.000000, 4.000000, 0.000000, 4.000000, 4.000000, 4.000000, 4.000000, 4.000000, 4.000000, 4.000000
84.000000, 0.000000, 4284.615234, 4217.948730, 4175.897461, 4203.076660, 4265.127930, 4215.897461, 4191.794922, 4215.384277, 4201.025391, 4201.025391, 4232.820313, 4200.512695, 4311.794922, 4217.436035, 3518.000000, 8018.000000, 8319.000000, 0.000000, 0.000000, 0.000000, -20223.000000, 2.564102, 4.000000, 4.000000, 4.000000, 4.000000, 4.000000, 4.000000, 4.000000, 4.000000, 0.000000, 4.000000, 4.000000, 4.000000, 4.000000, 4.000000, 4.000000, 4.000000
85.000000, 0.000000, 4281.538574, 4211.794922, 4176.410156, 4205.127930, 4265.641113, 4215.897461, 4187.179199, 4217.436035, 4201.025391, 4195.897461, 4229.743652, 4193.846191, 4310.769043, 4206.666504, 3454.000000, 7952.000000, 8310.000000, 0.000000, 0.000000, 0.000000, -20223.000000, 10.769231, 4.000000, 4.000000, 4.000000, 4.000000, 4.000000, 4.000000, 4.000000, 4.000000, 0.000000, 4.000000, 4.000000, 4.000000, 4.000000, 4.000000, 4.000000, 4.000000
86.000000, 0.000000, 4273.846191, 4202.051270, 4176.922852, 4204.615234, 4267.692383, 4216.410156, 4199.487305, 4219.487305, 4200.512695, 4195.897461, 4231.794922, 4193.333008, 4308.717773, 4201.025391, 3580.000000, 7952.000000, 8310.000000, 0.000000, 0.000000, 0.000000, -20223.000000, 18.461538, 4.000000, 4.000000, 4.000000, 4.000000, 4.000000, 4.000000, 4.000000, 4.000000, 0.000000, 4.000000, 4.000000, 4.000000, 4.000000, 4.000000, 4.000000, 4.000000
87.000000, 0.000000, 4265.641113, 4203.589844, 4173.333008, 4202.563965, 4268.717773, 4216.922852, 4205.127930, 4204.615234, 4199.487305, 4196.922852, 4234.358887, 4193.846191, 4310.769043, 4203.076660, 3553.000000, 7935.000000, 8295.000000, 0.000000, 0.000000, 0.000000, -20223.000000, 26.666666, 4.000000, 4.000000, 4.000000, 4.000000, 4.000000, 4.000000, 4.000000, 4.000000, 0.000000, 4.000000, 4.000000, 4.000000, 4.000000, 4.000000, 4.000000, 4.000000
88.000000, 0.000000, 4260.512695, 4211.281738, 4157.948730, 4198.974121, 4265.641113, 4219.487305, 4204.102539, 4203.589844, 4199.487305, 4193.333008, 4229.230469, 4184.102539, 4307.179199, 4194.358887, 3518.000000, 7935.000000, 8295.000000, 0.000000, 0.000000, 0.000000, -20223.000000, 34.358974, 4.000000, 4.000000, 4.000000, 4.000000, 4.000000, 4.000000, 4.000000, 4.000000, 0.000000, 4.000000, 4.000000, 4.000000, 4.000000, 4.000000, 4.000000, 4.000000
89.000000, 0.000000, 4263.589844, 4218.461426, 4151.794922, 4198.461426, 4265.127930, 4214.871582, 4201.538574, 4207.692383, 4202.051270, 4201.538574, 4230.769043, 4180.512695, 4308.717773, 4192.820313, 3454.000000, 7931.000000, 8192.000000, 0.000000, 0.000000, 0.000000, -20223.000000, 42.564102, 4.000000, 4.000000, 4.000000, 4.000000, 4.000000, 4.000000, 4.000000, 4.000000, 0.000000, 4.000000, 4.000000, 4.000000, 4.000000, 4.000000, 4.000000, 4.000000
90.000000, 0.000000, 4273.333008, 4225.641113, 4159.487305, 4200.000000, 4263.589844, 4204.102539, 4202.051270, 4204.102539, 4204.102539, 4217.436035, 4240.512695, 4186.666504, 4322.563965, 4207.179199, 3580.000000, 7931.000000, 8192.000000, 0.000000, 0.000000, 0.000000, -20223.000000, 50.256409, 4.000000, 4.000000, 4.000000, 4.000000, 4.000000, 4.000000, 4.000000, 4.000000, 0.000000, 4.000000, 4.000000, 4.000000, 4.000000, 4.000000, 4.000000, 4.000000
91.000000, 0.000000, 4276.922852, 4232.307617, 4160.512695, 4199.487305, 4258.974121, 4204.615234, 4210.769043, 4211.281738, 4203.076660, 4220.512695, 4240.512695, 4186.666504, 4329.743652, 4209.743652, 3553.000000, 7946.000000, 8230.000000, 0.000000, 0.000000, 0.000000, -20223.000000, 58.461536, 4.000000, 4.000000, 4.000000, 4.000000, 4.000000, 4.000000, 4.000000, 4.000000, 0.000000, 4.000000, 4.000000, 4.000000, 4.000000, 4.000000, 4.000000, 4.000000
92.000000, 0.000000, 4274.871582, 4239.487305, 4162.051270, 4200.512695, 4260.000000, 4215.897461, 4220.000000, 4220.512695, 4201.538574, 4215.897461, 4231.281738, 4182.563965, 4326.153809, 4201.538574, 3518.000000, 7946.000000, 8230.000000, 0.000000, 0.000000, 0.000000, -20223.000000, 66.153847, 4.000000, 4.000000, 4.000000, 4.000000, 4.000000, 4.000000, 4.000000, 4.000000, 0.000000, 4.000000, 4.000000, 4.000000, 4.000000, 4.000000, 4.000000, 4.000000
93.000000, 0.000000, 4280.000000, 4248.205078, 4174.358887, 4203.589844, 4264.102539, 4222.051270, 4217.436035, 4216.410156, 4201.025391, 4215.384277, 4229.743652, 4185.641113, 4321.025391, 4202.563965, 3454.000000, 7947.000000, 8302.000000, 0.000000, 0.000000, 0.000000, -20223.000000, 74.358971, 4.000000, 4.000000, 4.000000, 4.000000, 4.000000, 4.000000, 4.000000, 4.000000, 0.000000, 4.000000, 4.000000, 4.000000, 4.000000, 4.000000, 4.000000, 4.000000
94.000000, 0.000000, 4283.589844, 4254.871582, 4180.512695, 4204.102539, 4267.692383, 4220.000000, 4217.948730, 4216.410156, 4201.025391, 4216.922852, 4229.230469, 4192.307617, 4311.281738, 4206.666504, 3580.000000, 7947.000000, 8302.000000, 0.000000, 0.000000, 0.000000, -20223.000000, 82.051277, 4.000000, 4.000000, 4.000000, 4.000000, 4.000000, 4.000000, 4.000000, 4.000000, 0.000000, 4.000000, 4.000000, 4.000000, 4.000000, 4.000000, 4.000000, 4.000000
95.000000, 0.000000, 4273.333008, 4248.717773, 4173.333008, 4200.512695, 4272.820313, 4215.897461, 4225.127930, 4222.563965, 4202.051270, 4215.384277, 4218.974121, 4199.487305, 4290.256348, 4196.410156, 3553.000000, 7964.000000, 8567.000000, 0.000000, 0.000000, 0.000000, -20223.000000, 90.256409, 4.000000, 4.000000, 4.000000, 4.000000, 4.000000, 4.000000, 4.000000, 4.000000, 0.000000, 4.000000, 4.000000, 4.000000, 4.000000, 4.000000, 4.000000, 4.000000
96.000000, 0.000000, 4262.563965, 4242.563965, 4171.794922, 4197.436035, 4278.974121, 4217.436035, 4225.127930, 4227.179199, 4202.051270, 4215.897461, 4211.794922, 4201.025391, 4265.127930, 4190.256348, 3518.000000, 7964.000000, 8567.000000, 0.000000, 0.000000, 0.000000, -20223.000000, 97.948715, 4.000000, 4.000000, 4.000000, 4.000000, 4.000000, 4.000000, 4.000000, 4.000000, 0.000000, 4.000000, 4.000000, 4.000000, 4.000000, 4.000000, 4.000000, 4.000000
97.000000, 0.000000, 4262.563965, 4238.461426, 4171.281738, 4198.461426, 4282.051270, 4216.922852, 4214.871582, 4217.436035, 4202.051270, 4222.563965, 4213.333008, 4201.025391, 4249.230469, 4195.897461, 3454.000000, 7978.000000, 8684.000000, 0.000000, 0.000000, 0.000000, -20223.000000, 106.153847, 4.000000, 4.000000, 4.000000, 4.000000, 4.000000, 4.000000, 4.000000, 4.000000, 0.000000, 4.000000, 4.000000, 4.000000, 4.000000, 4.000000, 4.000000, 4.000000
98.000000, 0.000000, 4261.538574, 4221.538574, 4164.102539, 4200.000000, 4280.000000, 4203.589844, 4207.692383, 4221.025391, 4202.051270, 4234.358887, 4217.436035, 4209.230469, 4246.153809, 4203.589844, 3580.000000, 7978.000000, 8684.000000, 0.000000, 0.000000, 0.000000, -20223.000000, 114.358971, 4.000000, 4.000000, 4.000000, 4.000000, 4.000000, 4.000000, 4.000000, 4.000000, 0.000000, 4.000000, 4.000000, 4.000000, 4.000000, 4.000000, 4.000000, 4.000000
99.000000, 0.000000, 4261.538574, 4205.127930, 4167.692383, 4201.538574, 4281.025391, 4191.794922, 4204.615234, 4234.358887, 4202.051270, 4239.487305, 4222.563965, 4217.948730, 4244.102539, 4212.307617, 3553.000000, 8028.000000, 8682.000000, 0.000000, 0.000000, 0.000000, -20223.000000, 122.051277, 4.000000, 4.000000, 4.000000, 4.000000, 4.000000, 4.000000, 4.000000, 4.000000, 0.000000, 4.000000, 4.000000, 4.000000, 4.000000, 4.000000, 4.000000, 4.000000
100.000000, 0.000000, 4270.769043, 4200.000000, 4179.487305, 4210.256348, 4281.538574, 4211.794922, 4196.922852, 4207.692383, 4201.538574, 4228.717773, 4231.281738, 4220.000000, 4238.461426, 4229.230469, 3518.000000, 8028.000000, 8682.000000, 0.000000, 0.000000, 0.000000, -20223.000000, 130.256409, 4.000000, 4.000000, 4.000000, 4.000000, 4.000000, 4.000000, 4.000000, 4.000000, 0.000000, 4.000000, 4.000000, 4.000000, 4.000000, 4.000000, 4.000000, 4.000000
101.000000, 0.000000, 4275.897461, 4188.717773, 4188.205078, 4218.461426, 4274.358887, 4216.922852, 4185.641113, 4175.384277, 4201.538574, 4196.922852, 4230.769043, 4217.948730, 4230.256348, 4236.922852, 3454.000000, 8047.000000, 8593.000000, 0.000000, 0.000000, 0.000000, -20223.000000, 137.948715, 4.000000, 4.000000, 4.000000, 4.000000, 4.000000, 4.000000, 4.000000, 4.000000, 0.000000, 4.000000, 4.000000, 4.000000, 4.000000, 4.000000, 4.000000, 4.000000
102.000000, 0.000000, 4262.563965, 4168.717773, 4186.153809, 4210.769043, 4278.461426, 4153.333008, 4173.333008, 4174.871582, 4202.051270, 4146.153809, 4212.820313, 4202.563965, 4209.230469, 4216.922852, 3580.000000, 8047.000000, 8593.000000, 0.000000, 0.000000, 0.000000, -20223.000000, 146.153839, 4.000000, 4.000000, 4.000000, 4.000000, 4.000000, 4.000000, 4.000000, 4.000000, 0.000000, 4.000000, 4.000000, 4.000000, 4.000000, 4.000000, 4.000000, 4.000000
103.000000, 0.000000, 4247.692383, 4161.025391, 4178.974121, 4203.589844, 4287.692383, 4106.666504, 4170.256348, 4180.512695, 4202.051270, 4111.794922, 4199.487305, 4185.127930, 4197.948730, 4199.487305, 3553.000000, 8059.000000, 8519.000000, 0.000000, 0.000000, 0.000000, -20223.000000, 153.846146, 4.000000, 4.000000, 4.000000, 4.000000, 4.000000, 4.000000, 4.000000, 4.000000, 0.000000, 4.000000, 4.000000, 4.000000, 4.000000, 4.000000, 4.000000, 4.000000
104.000000, 0.000000, 4245.127930, 4170.769043, 4172.820313, 4210.256348, 4271.794922, 4123.589844, 4181.025391, 4171.281738, 4202.051270, 4102.051270, 4200.512695, 4177.948730, 4205.641113, 4196.922852, 3518.000000, 8059.000000, 8519.000000, 0.000000, 0.000000, 0.000000, -20223.000000, 162.051285, 4.000000, 4.000000, 4.000000, 4.000000, 4.000000, 4.000000, 4.000000, 4.000000, 0.000000, 4.000000, 4.000000, 4.000000, 4.000000, 4.000000, 4.000000, 4.000000
105.000000, 0.000000, 4244.102539, 4182.563965, 4164.615234, 4214.358887, 4254.871582, 4142.563965, 4191.794922, 4180.000000, 4201.538574, 4092.820313, 4202.563965, 4176.410156, 4207.692383, 4191.794922, 3454.000000, 8081.000000, 8548.000000, 0.000000, 0.000000, 0.000000, -20223.000000, 170.256409, 4.000000, 4.000000, 4.000000, 4.000000, 4.000000, 4.000000, 4.000000, 4.000000, 0.000000, 4.000000, 4.000000, 4.000000, 4.000000, 4.000000, 4.000000, 4.000000
106.000000, 0.000000, 4246.666504, 4194.871582, 4168.717773, 4219.487305, 4263.589844, 4164.102539, 4202.051270, 4212.307617, 4202.051270, 4090.256348, 4211.794922, 4187.692383, 4208.717773, 4196.410156, 3580.000000, 8081.000000, 8548.000000, 0.000000, 0.000000, 0.000000, -20223.000000, 177.948715, 4.000000, 4.000000, 4.000000, 4.000000, 4.000000, 4.000000, 4.000000, 4.000000, 0.000000, 4.000000, 4.000000, 4.000000, 4.000000, 4.000000, 4.000000, 4.000000
107.000000, 0.000000, 4258.461426, 4213.846191, 4189.743652, 4230.769043, 4268.717773, 4215.384277, 4223.076660, 4234.358887, 4203.076660, 4105.641113, 4233.846191, 4212.820313, 4219.487305, 4215.897461, 3553.000000, 8105.000000, 8582.000000, 0.000000, 0.000000, 0.000000, -20223.000000, 186.153839, 4.000000, 4.000000, 4.000000, 4.000000, 4.000000, 4.000000, 4.000000, 4.000000, 0.000000, 4.000000, 4.000000, 4.000000, 4.000000, 4.000000, 4.000000, 4.000000
108.000000, 0.000000, 4264.102539, 4230.256348, 4196.922852, 4233.333008, 4263.076660, 4229.230469, 4238.974121, 4245.127930, 4203.076660, 4120.512695, 4248.205078, 4224.615234, 4221.538574, 4222.051270, 3518.000000, 8105.000000, 8582.000000, 0.000000, 0.000000, 0.000000, -20223.000000, 193.846146, 4.000000, 4.000000, 4.000000, 4.000000, 4.000000, 4.000000, 4.000000, 4.000000, 0.000000, 4.000000, 4.000000, 4.000000, 4.000000, 4.000000, 4.000000, 4.000000
109.000000, 0.000000, 4256.922852, 4243.589844, 4188.717773, 4226.666504, 4259.487305, 4198.974121, 4232.307617, 4258.461426, 4203.076660, 4122.051270, 4241.025391, 4218.974121, 4212.820313, 4213.333008, 3454.000000, 8150.000000, 8546.000000, 0.000000, 0.000000, 0.000000, -20223.000000, 202.051270, 4.000000, 4.000000, 4.000000, 4.000000, 4.000000, 4.000000, 4.000000, 4.000000, 0.000000, 4.000000, 4.000000, 4.000000, 4.000000, 4.000000, 4.000000, 4.000000
110.000000, 0.000000, 4258.974121, 4267.692383, 4192.307617, 4229.230469, 4253.333008, 4200.512695, 4214.871582, 4253.846191, 4202.051270, 4116.410156, 4232.820313, 4217.436035, 4212.820313, 4213.333008, 3580.000000, 8150.000000, 8546.000000, 0.000000, 0.000000, 0.000000, -20223.000000, 209.743591, 4.000000, 4.000000, 4.000000, 4.000000, 4.000000, 4.000000, 4.000000, 4.000000, 0.000000, 4.000000, 4.000000, 4.000000, 4.000000, 4.000000, 4.000000, 4.000000
111.000000, 0.000000, 4270.769043, 4297.436035, 4203.589844, 4236.922852, 4248.717773, 4202.563965, 4195.897461, 4205.641113, 4201.025391, 4112.820313, 4233.333008, 4213.846191, 4219.487305, 4217.948730, 3553.000000, 8176.000000, 8522.000000, 0.000000, 0.000000, 0.000000, -20223.000000, 217.948715, 4.000000, 4.000000, 4.000000, 4.000000, 4.000000, 4.000000, 4.000000, 4.000000, 0.000000, 4.000000, 4.000000, 4.000000, 4.000000, 4.000000, 4.000000, 4.000000
112.000000, 0.000000, 4268.205078, 4315.384277, 4202.051270, 4234.871582, 4241.538574, 4181.025391, 4188.205078, 4175.384277, 4201.538574, 4104.615234, 4227.179199, 4201.538574, 4216.922852, 4217.436035, 3518.000000, 8176.000000, 8522.000000, 0.000000, 0.000000, 0.000000, -20223.000000, 225.641022, 4.000000, 4.000000, 4.000000, 4.000000, 4.000000, 4.000000, 4.000000, 4.000000, 0.000000, 4.000000, 4.000000, 4.000000, 4.000000, 4.000000, 4.000000, 4.000000
113.000000, 0.000000, 4260.512695, 4331.281738, 4196.410156, 4229.743652, 4229.743652, 4182.563965, 4194.871582, 4195.384277, 4201.025391, 4092.820313, 4221.025391, 4199.487305, 4211.794922, 4211.281738, 3454.000000, 8191.000000, 8509.000000, 0.000000, 0.000000, 0.000000, -20223.000000, 233.846146, 4.000000, 4.000000, 4.000000, 4.000000, 4.000000, 4.000000, 4.000000, 4.000000, 0.000000, 4.000000, 4.000000, 4.000000, 4.000000, 4.000000, 4.000000, 4.000000
114.000000, 0.000000, 4262.563965, 4363.076660, 4201.538574, 4231.794922, 4225.641113, 4204.615234, 4208.205078, 4214.358887, 4200.512695, 4095.384521, 4228.717773, 4214.871582, 4215.897461, 4204.102539, 3580.000000, 8191.000000, 8509.000000, 0.000000, 0.000000, 0.000000, -20223.000000, 242.051270, 4.000000, 4.000000, 4.000000, 4.000000, 4.000000, 4.000000, 4.000000, 4.000000, 0.000000, 4.000000, 4.000000, 4.000000, 4.000000, 4.000000, 4.000000, 4.000000
115.000000, 0.000000, 4264.102539, 4398.461426, 4212.820313, 4235.384277, 4223.589844, 4206.153809, 4220.000000, 4218.461426, 4203.076660, 4104.102539, 4236.410156, 4229.743652, 4218.461426, 4202.563965, 3553.000000, 8141.000000, 8499.000000, 0.000000, 0.000000, 0.000000, -20223.000000, 249.743576, 4.000000, 4.000000, 4.000000, 4.000000, 4.000000, 4.000000, 4.000000, 4.000000, 0.000000, 4.000000, 4.000000, 4.000000, 4.000000, 4.000000, 4.000000, 4.000000
116.000000, 0.000000, 4263.076660, 4427.179199, 4216.922852, 4233.846191, 4215.384277, 4196.410156, 4212.307617, 4212.820313, 4203.589844, 4094.358887, 4233.846191, 4236.922852, 4204.102539, 4204.102539, 3518.000000, 8141.000000, 8499.000000, 0.000000, 0.000000, 0.000000, -20223.000000, 257.948700, 4.000000, 4.000000, 4.000000, 4.000000, 4.000000, 4.000000, 4.000000, 4.000000, 0.000000, 4.000000, 4.000000, 4.000000, 4.000000, 4.000000, 4.000000, 4.000000
117.000000, 0.000000, 4266.153809, 4455.384277, 4220.000000, 4233.333008, 4215.897461, 4198.461426, 4201.538574, 4208.717773, 4201.025391, 4072.820313, 4233.846191, 4240.000000, 4187.692383, 4203.589844, 3454.000000, 8091.000000, 8507.000000, 0.000000, 0.000000, 0.000000, -20223.000000, 265.641022, 4.000000, 4.000000, 4.000000, 4.000000, 4.000000, 4.000000, 4.000000, 4.000000, 0.000000, 4.000000, 4.000000, 4.000000, 4.000000, 4.000000, 4.000000, 4.000000
118.000000, 0.000000, 4268.205078, 4485.641113, 4222.563965, 4232.820313, 4220.512695, 4204.102539, 4210.256348, 4221.538574, 4201.025391, 4060.512695, 4235.384277, 4234.358887, 4181.025391, 4200.512695, 3580.000000, 8091.000000, 8507.000000, 0.000000, 0.000000, 0.000000, -20223.000000, 273.846161, 4.000000, 4.000000, 4.000000, 4.000000, 4.000000, 4.000000, 4.000000, 4.000000, 0.000000, 4.000000, 4.000000, 4.000000, 4.000000, 4.000000, 4.000000, 4.000000
119.000000, 0.000000, 4264.615234, 4512.820313, 4221.025391, 4228.205078, 4211.281738, 4213.846191, 4223.589844, 4233.846191, 4202.563965, 4056.410156, 4230.256348, 4226.153809, 4168.717773, 4198.974121, 3553.000000, 8022.000000, 8518.000000, 0.000000, 0.000000, 0.000000, -20223.000000, 281.538452, 4.000000, 4.000000, 4.000000, 4.000000, 4.000000, 4.000000, 4.000000, 4.000000, 0.000000, 4.000000, 4.000000, 4.000000, 4.000000, 4.000000, 4.000000, 4.000000
120.000000, 0.000000, 4265.127930, 4535.384277, 4221.538574, 4229.230469, 4210.256348, 4216.410156, 4211.794922, 4235.384277, 4201.538574, 4061.538330, 4237.948730, 4237.436035, 4156.410156, 4200.512695, 3518.000000, 8022.000000, 8518.000000, 0.000000, 0.000000, 0.000000, -20223.000000, 289.743591, 4.000000, 4.000000, 4.000000, 4.000000, 4.000000, 4.000000, 4.000000, 4.000000, 0.000000, 4.000000, 4.000000, 4.000000, 4.000000, 4.000000, 4.000000, 4.000000
121.000000, 0.000000, 4264.102539, 4548.717773, 4216.922852, 4228.205078, 4212.307617, 4204.102539, 4207.179199, 4237.436035, 4200.512695, 4059.487061, 4246.153809, 4247.692383, 4152.307617, 4201.025391, 3454.000000, 8008.000000, 8484.000000, 0.000000, 0.000000, 0.000000, -20223.000000, 297.948700, 4.000000, 4.000000, 4.000000, 4.000000, 4.000000, 4.000000, 4.000000, 4.000000, 0.000000, 4.000000, 4.000000, 4.000000, 4.000000, 4.000000, 4.000000, 4.000000
122.000000, 0.000000, 4258.461426, 4556.922852, 4207.692383, 4214.358887, 4192.307617, 4200.512695, 4231.794922, 4229.743652, 4201.538574, 4039.487061, 4233.333008, 4234.358887, 4149.743652, 4200.000000, 3580.000000, 8008.000000, 8484.000000, 0.000000, 0.000000, 0.000000, -20223.000000, 305.641022, 4.000000, 4.000000, 4.000000, 4.000000, 4.000000, 4.000000, 4.000000, 4.000000, 0.000000, 4.000000, 4.000000, 4.000000, 4.000000, 4.000000, 4.000000, 4.000000
123.000000, 0.000000, 4268.205078, 4569.230469, 4217.436035, 4215.897461, 4183.589844, 4206.666504, 4229.230469, 4222.563965, 4201.025391, 4037.948730, 4231.794922, 4234.871582, 4164.102539, 4212.307617, 3553.000000, 7983.000000, 8450.000000, 0.000000, 0.000000, 0.000000, -20223.000000, 313.846161, 4.000000, 4.000000, 4.000000, 4.000000, 4.000000, 4.000000, 4.000000, 4.000000, 0.000000, 4.000000, 4.000000, 4.000000, 4.000000, 4.000000, 4.000000, 4.000000
124.000000, 0.000000, 4282.563965, 4577.948730, 4234.871582, 4232.820313, 4194.358887, 4202.051270, 4201.538574, 4227.692383, 4201.025391, 4048.717773, 4244.102539, 4246.666504, 4185.127930, 4223.589844, 3518.000000, 7983.000000, 8450.000000, 0.000000, 0.000000, 0.000000, -20223.000000, 321.538452, 4.000000, 4.000000, 4.000000, 4.000000, 4.000000, 4.000000, 4.000000, 4.000000, 0.000000, 4.000000, 4.000000, 4.000000, 4.000000, 4.000000, 4.000000, 4.000000
125.000000, 0.000000, 4273.846191, 4572.307617, 4226.666504, 4229.230469, 4191.794922, 4196.410156, 4208.205078, 4227.179199, 4201.538574, 4036.410156, 4234.871582, 4236.922852, 4176.410156, 4210.769043, 3454.000000, 7951.000000, 8435.000000, 0.000000, 0.000000, 0.000000, -20223.000000, 329.743591, 4.000000, 4.000000, 4.000000, 4.000000, 4.000000, 4.000000, 4.000000, 4.000000, 0.000000, 4.000000, 4.000000, 4.000000, 4.000000, 4.000000, 4.000000, 4.000000
126.000000, 0.000000, 4260.512695, 4563.589844, 4214.358887, 4221.538574, 4187.179199, 4204.102539, 4230.769043, 4221.025391, 4201.025391, 4028.205078, 4224.102539, 4230.769043, 4161.025391, 4202.051270, 3580.000000, 7951.000000, 8435.000000, 0.000000, 0.000000, 0.000000, -20223.000000, 337.435883, 4.000000, 4.000000, 4.000000, 4.000000, 4.000000, 4.000000, 4.000000, 4.000000, 0.000000, 4.000000, 4.000000, 4.000000, 4.000000, 4.000000, 4.000000, 4.000000
127.000000, 0.000000, 4267.692383, 4564.615234, 4220.512695, 4233.846191, 4201.538574, 4208.205078, 4220.512695, 4217.948730, 4201.025391, 4044.102539, 4241.538574, 4248.205078, 4169.230469, 4216.922852, 56.000000, 7923.000000, 8408.000000, 0.000000, 0.000000, 0.000000, -20223.000000, 345.641022, 4.000000, 4.000000, 4.000000, 4.000000, 4.000000, 4.000000, 4.000000, 4.000000, 0.000000, 4.000000, 4.000000, 4.000000, 4.000000, 4.000000, 4.000000, 4.000000
0.000000, 0.000000, 4270.256348, 4561.538574, 4222.051270, 4241.025391, 4207.692383, 4201.025391, 4204.102539, 4215.384277, 4202.563965, 4046.666504, 4256.922852, 4256.410156, 4170.256348, 4224.615234, 3189.000000, 7923.000000, 8408.000000, 0.000000, 0.000000, 0.000000, -20223.000000, 353.333313, 4.000000, 4.000000, 4.000000, 4.000000, 4.000000, 4.000000, 4.000000, 4.000000, 0.000000, 4.000000, 4.000000, 4.000000, 4.000000, 4.000000, 4.000000, 4.000000
1.000000, 0.000000, 4248.717773, 4543.589844, 4209.743652, 4233.333008, 4201.538574, 4205.127930, 4217.948730, 4217.436035, 4202.563965, 4023.076904, 4248.717773, 4249.743652, 4141.538574, 4208.205078, 3541.000000, 7915.000000, 8300.000000, 0.000000, 0.000000, 0.000000, -20223.000000, 361.538452, 4.000000, 4.000000, 4.000000, 4.000000, 4.000000, 4.000000, 4.000000, 4.000000, 0.000000, 4.000000, 4.000000, 4.000000, 4.000000, 4.000000, 4.000000, 4.000000
2.000000, 0.000000, 4226.153809, 4526.666504, 4201.025391, 4229.743652, 4203.076660, 4212.820313, 4230.769043, 4224.615234, 4201.538574, 4002.563965, 4230.256348, 4242.563965, 4111.281738, 4185.127930, 3564.000000, 7915.000000, 8300.000000, 0.000000, 0.000000, 0.000000, -20223.000000, 369.743591, 4.000000, 4.000000, 4.000000, 4.000000, 4.000000, 4.000000, 4.000000, 4.000000, 0.000000, 4.000000, 4.000000, 4.000000, 4.000000, 4.000000, 4.000000, 4.000000
3.000000, 0.000000, 4216.410156, 4515.384277, 4203.589844, 4227.179199, 4202.563965, 4206.666504, 4222.563965, 4229.230469, 4202.051270, 3997.435791, 4219.487305, 4233.846191, 4100.512695, 4172.307617, 2479.000000, 7941.000000, 8213.000000, 0.000000, 0.000000, 0.000000, -20223.000000, 377.435883, 4.000000, 4.000000, 4.000000, 4.000000, 4.000000, 4.000000, 4.000000, 4.000000, 0.000000, 4.000000, 4.000000, 4.000000, 4.000000, 4.000000, 4.000000, 4.000000
4.000000, 1.000000, 4210.256348, 4521.538574, 4206.153809, 4229.743652, 4202.563965, 4205.641113, 4224.102539, 4225.127930, 4202.051270, 4000.000000, 4221.025391, 4235.897461, 4106.666504, 4168.717773, 2568.000000, 7961.000000, 8169.000000, 0.000000, 0.000000, 0.000000, -20223.000000, 385.641022, 4.000000, 4.000000, 4.000000, 4.000000, 4.000000, 4.000000, 4.000000, 4.000000, 0.000000, 4.000000, 4.000000, 4.000000, 4.000000, 4.000000, 4.000000, 4.000000
5.000000, 1.000000, 4204.615234, 4528.205078, 4208.205078, 4232.307617, 4202.563965, 4204.615234, 4225.641113, 4221.538574, 4202.051270, 4002.563965, 4222.563965, 4237.436035, 4113.333008, 4165.641113, 2657.000000, 7981.000000, 8125.000000, 0.000000, 0.000000, 0.000000, -20223.000000, 393.333313, 4.000000, 4.000000, 4.000000, 4.000000, 4.000000, 4.000000, 4.000000, 4.000000, 0.000000, 4.000000, 4.000000, 4.000000, 4.000000, 4.000000, 4.000000, 4.000000
6.000000, 1.000000, 4198.461426, 4534.871582, 4210.256348, 4234.871582, 4202.051270, 4203.589844, 4227.692383, 4217.436035, 4202.563965, 4005.640869, 4224.102539, 4238.974121, 4119.487305, 4162.563965, 2746.000000, 8001.000000, 8081.000000, 0.000000, 0.000000, 0.000000, -20223.000000, 401.025635, 4.000000, 4.000000, 4.000000, 4.000000, 4.000000, 4.000000, 4.000000, 4.000000, 0.000000, 4.000000, 4.000000, 4.000000, 4.000000, 4.000000, 4.000000, 4.000000
7.000000, 1.000000, 4192.307617, 4541.538574, 4212.307617, 4237.436035, 4202.051270, 4202.051270, 4229.230469, 4213.846191, 4202.563965, 4008.205078, 4225.127930, 4240.512695, 4126.153809, 4158.974121, 2835.000000, 8021.000000, 8037.000000, 0.000000, 0.000000, 0.000000, -20223.000000, 409.230774, 4.000000, 4.000000, 4.000000, 4.000000, 4.000000, 4.000000, 4.000000, 4.000000, 0.000000, 4.000000, 4.000000, 4.000000, 4.000000, 4.000000, 4.000000, 4.000000
