title:winkRight4, recorded:21.05.18 17.19.31, timestamp started:2018-05-12T20:28:52.032863+02:00            , sampling:128, subject:Noé, labels:COUNTER INTERPOLATED AF3 F7 F3 FC5 T7 P7 O1 O2 P8 T8 FC6 F4 F8 AF4 RAW_CQ GYROX GYROY MARKER MARKER_HARDWARE SYNC TIME_STAMP_s TIME_STAMP_ms CQ_AF3 CQ_F7 CQ_F3 CQ_FC5 CQ_T7 CQ_P7 CQ_O1 CQ_O2 CQ_P8 CQ_T8 CQ_FC6 CQ_F4 CQ_F8 CQ_AF4 CQ_CMS CQ_DRL, chan:40, samples:2316, units:emotiv
112.000000, 0.000000, 4226.666504, 4163.076660, 4213.846191, 4202.563965, 4168.717773, 4201.025391, 4199.487305, 4197.436035, 4202.051270, 4259.487305, 4184.102539, 4198.974121, 4249.743652, 4212.820313, 3518.000000, 8503.000000, 8041.000000, 0.000000, 0.000000, 0.000000, -20192.000000, 480.512817, 4.000000, 4.000000, 4.000000, 4.000000, 4.000000, 4.000000, 4.000000, 4.000000, 0.000000, 4.000000, 4.000000, 4.000000, 4.000000, 4.000000, 4.000000, 4.000000
113.000000, 0.000000, 4227.179199, 4160.512695, 4214.358887, 4202.051270, 4173.846191, 4209.743652, 4202.563965, 4211.794922, 4203.589844, 4270.769043, 4188.205078, 4203.589844, 4261.025391, 4212.307617, 3455.000000, 8497.000000, 8057.000000, 0.000000, 0.000000, 0.000000, -20192.000000, 488.205109, 4.000000, 4.000000, 4.000000, 4.000000, 4.000000, 4.000000, 4.000000, 4.000000, 0.000000, 4.000000, 4.000000, 4.000000, 4.000000, 4.000000, 4.000000, 4.000000
114.000000, 0.000000, 4221.025391, 4155.897461, 4209.230469, 4205.127930, 4173.846191, 4215.384277, 4209.230469, 4217.436035, 4203.589844, 4270.256348, 4189.743652, 4204.102539, 4267.692383, 4210.256348, 3583.000000, 8497.000000, 8057.000000, 0.000000, 0.000000, 0.000000, -20192.000000, 496.410248, 4.000000, 4.000000, 4.000000, 4.000000, 4.000000, 4.000000, 4.000000, 4.000000, 0.000000, 4.000000, 4.000000, 4.000000, 4.000000, 4.000000, 4.000000, 4.000000
115.000000, 0.000000, 4211.794922, 4152.307617, 4200.512695, 4203.076660, 4174.871582, 4206.153809, 4204.615234, 4201.538574, 4201.538574, 4266.153809, 4187.179199, 4199.487305, 4262.563965, 4201.538574, 3554.000000, 8485.000000, 8070.000000, 0.000000, 0.000000, 0.000000, -20192.000000, 504.102539, 4.000000, 4.000000, 4.000000, 4.000000, 4.000000, 4.000000, 4.000000, 4.000000, 0.000000, 4.000000, 4.000000, 4.000000, 4.000000, 4.000000, 4.000000, 4.000000
116.000000, 0.000000, 4210.769043, 4151.281738, 4200.512695, 4201.025391, 4172.820313, 4198.974121, 4195.897461, 4198.974121, 4201.025391, 4267.692383, 4188.205078, 4198.974121, 4261.538574, 4199.487305, 3518.000000, 8485.000000, 8070.000000, 0.000000, 0.000000, 0.000000, -20192.000000, 511.794861, 4.000000, 4.000000, 4.000000, 4.000000, 4.000000, 4.000000, 4.000000, 4.000000, 0.000000, 4.000000, 4.000000, 4.000000, 4.000000, 4.000000, 4.000000, 4.000000
117.000000, 0.000000, 4216.922852, 4154.358887, 4206.666504, 4203.076660, 4168.205078, 4204.615234, 4201.538574, 4192.820313, 4202.051270, 4265.641113, 4190.256348, 4200.000000, 4264.615234, 4207.692383, 3455.000000, 8463.000000, 8077.000000, 0.000000, 0.000000, 0.000000, -20192.000000, 520.000000, 4.000000, 4.000000, 4.000000, 4.000000, 4.000000, 4.000000, 4.000000, 4.000000, 0.000000, 4.000000, 4.000000, 4.000000, 4.000000, 4.000000, 4.000000, 4.000000
118.000000, 0.000000, 4222.051270, 4155.384277, 4211.794922, 4206.153809, 4176.410156, 4201.538574, 4197.436035, 4180.512695, 4201.538574, 4255.897461, 4187.179199, 4200.512695, 4253.846191, 4217.948730, 3583.000000, 8463.000000, 8077.000000, 0.000000, 0.000000, 0.000000, -20192.000000, 527.692322, 4.000000, 4.000000, 4.000000, 4.000000, 4.000000, 4.000000, 4.000000, 4.000000, 0.000000, 4.000000, 4.000000, 4.000000, 4.000000, 4.000000, 4.000000, 4.000000
119.000000, 0.000000, 4227.692383, 4158.461426, 4217.436035, 4205.641113, 4187.692383, 4194.871582, 4181.538574, 4189.230469, 4201.538574, 4249.743652, 4187.179199, 4207.179199, 4235.897461, 4223.076660, 3554.000000, 8444.000000, 8079.000000, 0.000000, 0.000000, 0.000000, -20192.000000, 535.384583, 4.000000, 4.000000, 4.000000, 4.000000, 4.000000, 4.000000, 4.000000, 4.000000, 0.000000, 4.000000, 4.000000, 4.000000, 4.000000, 4.000000, 4.000000, 4.000000
120.000000, 0.000000, 4230.256348, 4165.641113, 4217.436035, 4202.051270, 4180.000000, 4203.589844, 4195.897461, 4201.538574, 4202.051270, 4248.205078, 4192.307617, 4212.820313, 4228.717773, 4222.051270, 3518.000000, 8444.000000, 8079.000000, 0.000000, 0.000000, 0.000000, -20192.000000, 543.589722, 4.000000, 4.000000, 4.000000, 4.000000, 4.000000, 4.000000, 4.000000, 4.000000, 0.000000, 4.000000, 4.000000, 4.000000, 4.000000, 4.000000, 4.000000, 4.000000
121.000000, 0.000000, 4225.127930, 4167.179199, 4209.743652, 4203.589844, 4170.256348, 4214.358887, 4214.358887, 4205.641113, 4204.102539, 4248.205078, 4192.307617, 4207.179199, 4228.205078, 4220.000000, 3455.000000, 8431.000000, 8082.000000, 0.000000, 0.000000, 0.000000, -20192.000000, 551.282043, 4.000000, 4.000000, 4.000000, 4.000000, 4.000000, 4.000000, 4.000000, 4.000000, 0.000000, 4.000000, 4.000000, 4.000000, 4.000000, 4.000000, 4.000000, 4.000000
122.000000, 0.000000, 4213.846191, 4162.563965, 4201.025391, 4203.589844, 4176.410156, 4216.922852, 4208.205078, 4217.948730, 4204.102539, 4246.153809, 4186.153809, 4195.384277, 4220.512695, 4212.307617, 3583.000000, 8431.000000, 8082.000000, 0.000000, 0.000000, 0.000000, -20192.000000, 558.974365, 4.000000, 4.000000, 4.000000, 4.000000, 4.000000, 4.000000, 4.000000, 4.000000, 0.000000, 4.000000, 4.000000, 4.000000, 4.000000, 4.000000, 4.000000, 4.000000
123.000000, 0.000000, 4201.025391, 4162.051270, 4195.384277, 4198.461426, 4177.436035, 4214.871582, 4206.666504, 4218.461426, 4203.076660, 4244.102539, 4183.589844, 4192.307617, 4209.743652, 4201.025391, 3554.000000, 8404.000000, 8074.000000, 0.000000, 0.000000, 0.000000, -20192.000000, 566.666626, 4.000000, 4.000000, 4.000000, 4.000000, 4.000000, 4.000000, 4.000000, 4.000000, 0.000000, 4.000000, 4.000000, 4.000000, 4.000000, 4.000000, 4.000000, 4.000000
124.000000, 0.000000, 4198.461426, 4169.743652, 4201.025391, 4198.461426, 4167.179199, 4205.641113, 4208.205078, 4209.230469, 4202.563965, 4245.127930, 4187.179199, 4199.487305, 4214.358887, 4201.025391, 3518.000000, 8404.000000, 8074.000000, 0.000000, 0.000000, 0.000000, -20192.000000, 574.871765, 4.000000, 4.000000, 4.000000, 4.000000, 4.000000, 4.000000, 4.000000, 4.000000, 0.000000, 4.000000, 4.000000, 4.000000, 4.000000, 4.000000, 4.000000, 4.000000
125.000000, 0.000000, 4198.974121, 4171.794922, 4209.743652, 4203.589844, 4170.256348, 4197.436035, 4202.051270, 4218.461426, 4203.076660, 4247.179199, 4190.769043, 4208.205078, 4227.179199, 4206.666504, 3455.000000, 8404.000000, 8071.000000, 0.000000, 0.000000, 0.000000, -20192.000000, 582.564087, 4.000000, 4.000000, 4.000000, 4.000000, 4.000000, 4.000000, 4.000000, 4.000000, 0.000000, 4.000000, 4.000000, 4.000000, 4.000000, 4.000000, 4.000000, 4.000000
126.000000, 0.000000, 4191.794922, 4170.769043, 4202.051270, 4202.051270, 4171.794922, 4204.615234, 4199.487305, 4217.948730, 4202.563965, 4249.743652, 4190.769043, 4204.102539, 4226.153809, 4205.641113, 3583.000000, 8404.000000, 8071.000000, 0.000000, 0.000000, 0.000000, -20192.000000, 590.769226, 4.000000, 4.000000, 4.000000, 4.000000, 4.000000, 4.000000, 4.000000, 4.000000, 0.000000, 4.000000, 4.000000, 4.000000, 4.000000, 4.000000, 4.000000, 4.000000
127.000000, 0.000000, 4183.076660, 4174.358887, 4188.717773, 4193.333008, 4154.871582, 4215.897461, 4204.102539, 4196.410156, 4202.051270, 4246.153809, 4185.641113, 4191.281738, 4215.897461, 4193.846191, 56.000000, 8396.000000, 8063.000000, 0.000000, 0.000000, 0.000000, -20192.000000, 598.461548, 4.000000, 4.000000, 4.000000, 4.000000, 4.000000, 4.000000, 4.000000, 4.000000, 0.000000, 4.000000, 4.000000, 4.000000, 4.000000, 4.000000, 4.000000, 4.000000
0.000000, 0.000000, 4184.102539, 4178.974121, 4192.307617, 4194.358887, 4153.846191, 4217.948730, 4210.769043, 4186.666504, 4202.051270, 4241.025391, 4180.512695, 4184.102539, 4219.487305, 4187.692383, 3185.000000, 8396.000000, 8063.000000, 0.000000, 0.000000, 0.000000, -20192.000000, 606.153809, 4.000000, 4.000000, 4.000000, 4.000000, 4.000000, 4.000000, 4.000000, 4.000000, 0.000000, 4.000000, 4.000000, 4.000000, 4.000000, 4.000000, 4.000000, 4.000000
1.000000, 0.000000, 4190.769043, 4189.230469, 4200.512695, 4201.538574, 4171.794922, 4218.461426, 4215.897461, 4201.538574, 4201.538574, 4244.615234, 4184.102539, 4186.153809, 4230.256348, 4192.820313, 3696.000000, 8405.000000, 8051.000000, 0.000000, 0.000000, 0.000000, -20192.000000, 614.358948, 4.000000, 4.000000, 4.000000, 4.000000, 4.000000, 4.000000, 4.000000, 4.000000, 0.000000, 4.000000, 4.000000, 4.000000, 4.000000, 4.000000, 4.000000, 4.000000
2.000000, 0.000000, 4200.512695, 4199.487305, 4200.512695, 4203.589844, 4171.281738, 4215.384277, 4209.230469, 4215.384277, 4201.538574, 4246.153809, 4192.820313, 4195.384277, 4236.922852, 4205.127930, 3562.000000, 8405.000000, 8051.000000, 0.000000, 0.000000, 0.000000, -20192.000000, 622.051270, 4.000000, 4.000000, 4.000000, 4.000000, 4.000000, 4.000000, 4.000000, 4.000000, 0.000000, 4.000000, 4.000000, 4.000000, 4.000000, 4.000000, 4.000000, 4.000000
3.000000, 0.000000, 4211.794922, 4202.563965, 4203.076660, 4202.051270, 4158.974121, 4204.102539, 4195.384277, 4206.153809, 4203.076660, 4232.820313, 4193.333008, 4203.076660, 4243.076660, 4213.333008, 2529.000000, 8426.000000, 8045.000000, 0.000000, 0.000000, 0.000000, -20192.000000, 630.256409, 4.000000, 4.000000, 4.000000, 4.000000, 4.000000, 4.000000, 4.000000, 4.000000, 0.000000, 4.000000, 4.000000, 4.000000, 4.000000, 4.000000, 4.000000, 4.000000
4.000000, 0.000000, 4208.205078, 4200.512695, 4204.615234, 4200.000000, 4157.436035, 4197.948730, 4201.025391, 4206.666504, 4203.589844, 4227.179199, 4182.563965, 4200.000000, 4245.641113, 4206.666504, 3549.000000, 8426.000000, 8045.000000, 0.000000, 0.000000, 0.000000, -20192.000000, 637.948730, 4.000000, 4.000000, 4.000000, 4.000000, 4.000000, 4.000000, 4.000000, 4.000000, 0.000000, 4.000000, 4.000000, 4.000000, 4.000000, 4.000000, 4.000000, 4.000000
5.000000, 0.000000, 4200.512695, 4205.127930, 4204.102539, 4196.922852, 4154.358887, 4204.615234, 4210.256348, 4215.897461, 4201.538574, 4240.512695, 4178.974121, 4194.871582, 4242.051270, 4197.948730, 3575.000000, 8440.000000, 8038.000000, 0.000000, 0.000000, 0.000000, -20192.000000, 646.153809, 4.000000, 4.000000, 4.000000, 4.000000, 4.000000, 4.000000, 4.000000, 4.000000, 0.000000, 4.000000, 4.000000, 4.000000, 4.000000, 4.000000, 4.000000, 4.000000
6.000000, 0.000000, 4208.205078, 4214.358887, 4212.307617, 4196.922852, 4151.281738, 4214.871582, 4212.820313, 4207.692383, 4202.563965, 4249.743652, 4188.717773, 4198.974121, 4246.666504, 4205.127930, 3432.000000, 8440.000000, 8038.000000, 0.000000, 0.000000, 0.000000, -20192.000000, 653.846130, 4.000000, 4.000000, 4.000000, 4.000000, 4.000000, 4.000000, 4.000000, 4.000000, 0.000000, 4.000000, 4.000000, 4.000000, 4.000000, 4.000000, 4.000000, 4.000000
7.000000, 0.000000, 4217.948730, 4218.461426, 4218.461426, 4201.025391, 4157.436035, 4220.512695, 4218.461426, 4205.641113, 4204.102539, 4249.230469, 4197.436035, 4203.589844, 4258.461426, 4215.897461, 3496.000000, 8444.000000, 8036.000000, 0.000000, 0.000000, 0.000000, -20192.000000, 661.538452, 4.000000, 4.000000, 4.000000, 4.000000, 4.000000, 4.000000, 4.000000, 4.000000, 0.000000, 4.000000, 4.000000, 4.000000, 4.000000, 4.000000, 4.000000, 4.000000
8.000000, 0.000000, 4216.410156, 4224.615234, 4215.897461, 4204.102539, 4165.127930, 4221.538574, 4215.897461, 4216.922852, 4202.563965, 4253.333008, 4197.436035, 4205.641113, 4268.717773, 4216.410156, 0.000000, 8444.000000, 8036.000000, 0.000000, 0.000000, 0.000000, -20192.000000, 669.743591, 4.000000, 4.000000, 4.000000, 4.000000, 4.000000, 4.000000, 4.000000, 4.000000, 0.000000, 4.000000, 4.000000, 4.000000, 4.000000, 4.000000, 4.000000, 4.000000
9.000000, 0.000000, 4214.358887, 4233.333008, 4214.871582, 4202.563965, 4166.153809, 4216.922852, 4215.897461, 4215.384277, 4202.051270, 4250.769043, 4196.410156, 4211.281738, 4273.846191, 4219.487305, 2998.000000, 8445.000000, 8033.000000, 0.000000, 0.000000, 0.000000, -20192.000000, 677.435852, 4.000000, 4.000000, 4.000000, 4.000000, 4.000000, 4.000000, 4.000000, 4.000000, 0.000000, 4.000000, 4.000000, 4.000000, 4.000000, 4.000000, 4.000000, 4.000000
10.000000, 0.000000, 4222.563965, 4239.487305, 4217.436035, 4202.051270, 4165.127930, 4207.692383, 4215.384277, 4192.820313, 4203.589844, 4245.641113, 4205.641113, 4213.846191, 4280.000000, 4229.743652, 3582.000000, 8445.000000, 8033.000000, 0.000000, 0.000000, 0.000000, -20192.000000, 685.128174, 4.000000, 4.000000, 4.000000, 4.000000, 4.000000, 4.000000, 4.000000, 4.000000, 0.000000, 4.000000, 4.000000, 4.000000, 4.000000, 4.000000, 4.000000, 4.000000
11.000000, 0.000000, 4229.743652, 4246.153809, 4222.051270, 4208.205078, 4168.205078, 4200.512695, 4200.512695, 4190.256348, 4202.051270, 4249.230469, 4215.384277, 4216.410156, 4290.769043, 4233.846191, 3554.000000, 8435.000000, 8043.000000, 0.000000, 0.000000, 0.000000, -20192.000000, 693.333313, 4.000000, 4.000000, 4.000000, 4.000000, 4.000000, 4.000000, 4.000000, 4.000000, 0.000000, 4.000000, 4.000000, 4.000000, 4.000000, 4.000000, 4.000000, 4.000000
12.000000, 0.000000, 4233.846191, 4258.974121, 4223.076660, 4219.487305, 4164.102539, 4199.487305, 4191.281738, 4198.461426, 4201.538574, 4248.717773, 4215.384277, 4220.000000, 4297.948730, 4232.820313, 3526.000000, 8435.000000, 8043.000000, 0.000000, 0.000000, 0.000000, -20192.000000, 701.025635, 4.000000, 4.000000, 4.000000, 4.000000, 4.000000, 4.000000, 4.000000, 4.000000, 0.000000, 4.000000, 4.000000, 4.000000, 4.000000, 4.000000, 4.000000, 4.000000
13.000000, 0.000000, 4234.358887, 4265.127930, 4218.461426, 4217.948730, 4154.871582, 4195.384277, 4190.769043, 4196.922852, 4202.563965, 4244.102539, 4215.384277, 4218.461426, 4295.384277, 4231.281738, 3455.000000, 8402.000000, 8044.000000, 0.000000, 0.000000, 0.000000, -20192.000000, 709.230774, 4.000000, 4.000000, 4.000000, 4.000000, 4.000000, 4.000000, 4.000000, 4.000000, 0.000000, 4.000000, 4.000000, 4.000000, 4.000000, 4.000000, 4.000000, 4.000000
14.000000, 0.000000, 4223.589844, 4257.436035, 4215.897461, 4203.076660, 4158.974121, 4189.743652, 4192.307617, 4204.102539, 4201.538574, 4244.615234, 4213.333008, 4214.358887, 4289.230469, 4228.717773, 3582.000000, 8402.000000, 8044.000000, 0.000000, 0.000000, 0.000000, -20192.000000, 716.923035, 4.000000, 4.000000, 4.000000, 4.000000, 4.000000, 4.000000, 4.000000, 4.000000, 0.000000, 4.000000, 4.000000, 4.000000, 4.000000, 4.000000, 4.000000, 4.000000
15.000000, 0.000000, 4221.538574, 4261.538574, 4218.461426, 4205.127930, 4173.333008, 4199.487305, 4203.589844, 4214.871582, 4200.512695, 4250.256348, 4218.974121, 4220.512695, 4298.461426, 4231.281738, 3554.000000, 8380.000000, 8032.000000, 0.000000, 0.000000, 0.000000, -20192.000000, 724.615356, 4.000000, 4.000000, 4.000000, 4.000000, 4.000000, 4.000000, 4.000000, 4.000000, 0.000000, 4.000000, 4.000000, 4.000000, 4.000000, 4.000000, 4.000000, 4.000000
16.000000, 0.000000, 4233.333008, 4282.051270, 4214.358887, 4216.410156, 4181.025391, 4210.769043, 4210.256348, 4210.769043, 4202.051270, 4253.846191, 4226.153809, 4223.076660, 4311.794922, 4235.384277, 0.000000, 8380.000000, 8032.000000, 0.000000, 0.000000, 0.000000, -20192.000000, 732.820496, 4.000000, 4.000000, 4.000000, 4.000000, 4.000000, 4.000000, 4.000000, 4.000000, 0.000000, 4.000000, 4.000000, 4.000000, 4.000000, 4.000000, 4.000000, 4.000000
17.000000, 0.000000, 4231.794922, 4285.127930, 4204.102539, 4206.153809, 4183.076660, 4207.179199, 4198.974121, 4203.076660, 4204.102539, 4256.922852, 4218.974121, 4215.384277, 4310.256348, 4231.281738, 0.000000, 8358.000000, 8019.000000, 0.000000, 0.000000, 0.000000, -20192.000000, 740.512817, 4.000000, 4.000000, 4.000000, 4.000000, 4.000000, 4.000000, 4.000000, 4.000000, 0.000000, 4.000000, 4.000000, 4.000000, 4.000000, 4.000000, 4.000000, 4.000000
18.000000, 0.000000, 4221.538574, 4275.384277, 4204.615234, 4192.820313, 4178.974121, 4205.127930, 4203.589844, 4221.538574, 4205.127930, 4267.179199, 4216.922852, 4218.974121, 4314.358887, 4229.743652, 0.000000, 8358.000000, 8019.000000, 0.000000, 0.000000, 0.000000, -20192.000000, 748.205139, 4.000000, 4.000000, 4.000000, 4.000000, 4.000000, 4.000000, 4.000000, 4.000000, 0.000000, 4.000000, 4.000000, 4.000000, 4.000000, 4.000000, 4.000000, 4.000000
19.000000, 0.000000, 4229.743652, 4283.076660, 4216.410156, 4202.563965, 4171.281738, 4213.846191, 4223.076660, 4243.589844, 4204.615234, 4273.333008, 4228.717773, 4234.358887, 4331.281738, 4240.000000, 0.000000, 8309.000000, 8007.000000, 0.000000, 0.000000, 0.000000, -20192.000000, 755.897400, 4.000000, 4.000000, 4.000000, 4.000000, 4.000000, 4.000000, 4.000000, 4.000000, 0.000000, 4.000000, 4.000000, 4.000000, 4.000000, 4.000000, 4.000000, 4.000000
20.000000, 0.000000, 4235.384277, 4291.794922, 4224.615234, 4209.230469, 4167.179199, 4215.897461, 4224.102539, 4235.384277, 4203.589844, 4267.179199, 4236.922852, 4238.974121, 4342.051270, 4246.666504, 0.000000, 8309.000000, 8007.000000, 0.000000, 0.000000, 0.000000, -20192.000000, 764.102539, 4.000000, 4.000000, 4.000000, 4.000000, 4.000000, 4.000000, 4.000000, 4.000000, 0.000000, 4.000000, 4.000000, 4.000000, 4.000000, 4.000000, 4.000000, 4.000000
21.000000, 0.000000, 4232.307617, 4287.692383, 4222.051270, 4201.538574, 4169.230469, 4212.307617, 4220.512695, 4218.461426, 4203.076660, 4263.076660, 4242.051270, 4233.333008, 4343.589844, 4246.153809, 0.000000, 8285.000000, 8012.000000, 0.000000, 0.000000, 0.000000, -20192.000000, 772.307678, 4.000000, 4.000000, 4.000000, 4.000000, 4.000000, 4.000000, 4.000000, 4.000000, 0.000000, 4.000000, 4.000000, 4.000000, 4.000000, 4.000000, 4.000000, 4.000000
22.000000, 0.000000, 4242.563965, 4295.384277, 4220.512695, 4202.051270, 4171.794922, 4212.307617, 4216.922852, 4217.948730, 4203.076660, 4263.076660, 4242.563965, 4234.358887, 4338.974121, 4245.641113, 0.000000, 8285.000000, 8012.000000, 0.000000, 0.000000, 0.000000, -20192.000000, 780.000000, 4.000000, 4.000000, 4.000000, 4.000000, 4.000000, 4.000000, 4.000000, 4.000000, 0.000000, 4.000000, 4.000000, 4.000000, 4.000000, 4.000000, 4.000000, 4.000000
23.000000, 0.000000, 4245.127930, 4303.076660, 4216.410156, 4204.102539, 4164.615234, 4207.692383, 4205.127930, 4229.743652, 4203.076660, 4253.333008, 4229.743652, 4231.281738, 4328.717773, 4238.461426, 0.000000, 8223.000000, 8010.000000, 0.000000, 0.000000, 0.000000, -20192.000000, 787.692261, 4.000000, 4.000000, 4.000000, 4.000000, 4.000000, 4.000000, 4.000000, 4.000000, 0.000000, 4.000000, 4.000000, 4.000000, 4.000000, 4.000000, 4.000000, 4.000000
24.000000, 0.000000, 4233.846191, 4297.436035, 4207.179199, 4199.487305, 4154.871582, 4202.563965, 4199.487305, 4235.384277, 4202.563965, 4243.589844, 4224.102539, 4221.538574, 4325.127930, 4230.769043, 0.000000, 8223.000000, 8010.000000, 0.000000, 0.000000, 0.000000, -20192.000000, 795.897400, 4.000000, 4.000000, 4.000000, 4.000000, 4.000000, 4.000000, 4.000000, 4.000000, 0.000000, 4.000000, 4.000000, 4.000000, 4.000000, 4.000000, 4.000000, 4.000000
25.000000, 0.000000, 4230.256348, 4301.025391, 4203.076660, 4199.487305, 4150.256348, 4196.410156, 4197.948730, 4229.230469, 4203.076660, 4241.538574, 4224.102539, 4216.922852, 4322.563965, 4230.256348, 0.000000, 8191.000000, 8002.000000, 0.000000, 0.000000, 0.000000, -20192.000000, 803.589722, 4.000000, 4.000000, 4.000000, 4.000000, 4.000000, 4.000000, 4.000000, 4.000000, 0.000000, 4.000000, 4.000000, 4.000000, 4.000000, 4.000000, 4.000000, 4.000000
26.000000, 0.000000, 4221.538574, 4309.743652, 4194.871582, 4201.025391, 4156.922852, 4192.307617, 4188.717773, 4202.563965, 4202.563965, 4223.589844, 4205.641113, 4205.641113, 4308.205078, 4221.538574, 0.000000, 8191.000000, 8002.000000, 0.000000, 0.000000, 0.000000, -20192.000000, 811.282043, 4.000000, 4.000000, 4.000000, 4.000000, 4.000000, 4.000000, 4.000000, 4.000000, 0.000000, 4.000000, 4.000000, 4.000000, 4.000000, 4.000000, 4.000000, 4.000000
27.000000, 0.000000, 4208.717773, 4311.281738, 4190.256348, 4201.538574, 4178.461426, 4196.922852, 4188.717773, 4192.307617, 4201.538574, 4207.179199, 4193.333008, 4191.794922, 4303.076660, 4209.743652, 0.000000, 8166.000000, 7998.000000, 0.000000, 0.000000, 0.000000, -20192.000000, 819.487183, 4.000000, 4.000000, 4.000000, 4.000000, 4.000000, 4.000000, 4.000000, 4.000000, 0.000000, 4.000000, 4.000000, 4.000000, 4.000000, 4.000000, 4.000000, 4.000000
28.000000, 0.000000, 4211.794922, 4318.461426, 4201.025391, 4202.563965, 4179.487305, 4193.333008, 4202.563965, 4226.153809, 4202.563965, 4221.025391, 4202.563965, 4201.538574, 4310.769043, 4212.820313, 0.000000, 8166.000000, 7998.000000, 0.000000, 0.000000, 0.000000, -20192.000000, 827.179443, 4.000000, 4.000000, 4.000000, 4.000000, 4.000000, 4.000000, 4.000000, 4.000000, 0.000000, 4.000000, 4.000000, 4.000000, 4.000000, 4.000000, 4.000000, 4.000000
29.000000, 0.000000, 4216.922852, 4328.717773, 4211.281738, 4201.025391, 4158.974121, 4179.487305, 4201.025391, 4226.666504, 4204.102539, 4232.820313, 4212.820313, 4216.410156, 4316.410156, 4219.487305, 0.000000, 8119.000000, 7994.000000, 0.000000, 0.000000, 0.000000, -20192.000000, 835.384583, 4.000000, 4.000000, 4.000000, 4.000000, 4.000000, 4.000000, 4.000000, 4.000000, 0.000000, 4.000000, 4.000000, 4.000000, 4.000000, 4.000000, 4.000000, 4.000000
30.000000, 0.000000, 4213.333008, 4329.230469, 4207.692383, 4195.897461, 4163.076660, 4187.179199, 4199.487305, 4196.410156, 4202.563965, 4228.717773, 4214.871582, 4215.384277, 4320.000000, 4220.512695, 0.000000, 8119.000000, 7994.000000, 0.000000, 0.000000, 0.000000, -20192.000000, 843.076904, 4.000000, 4.000000, 4.000000, 4.000000, 4.000000, 4.000000, 4.000000, 4.000000, 0.000000, 4.000000, 4.000000, 4.000000, 4.000000, 4.000000, 4.000000, 4.000000
31.000000, 0.000000, 4219.487305, 4334.871582, 4208.205078, 4194.871582, 4179.487305, 4205.127930, 4218.461426, 4218.974121, 4201.025391, 4234.358887, 4217.436035, 4221.538574, 4330.256348, 4225.641113, 0.000000, 8105.000000, 7995.000000, 0.000000, 0.000000, 0.000000, -20192.000000, 851.282043, 4.000000, 4.000000, 4.000000, 4.000000, 4.000000, 4.000000, 4.000000, 4.000000, 0.000000, 4.000000, 4.000000, 4.000000, 4.000000, 4.000000, 4.000000, 4.000000
32.000000, 0.000000, 4230.769043, 4348.205078, 4217.948730, 4199.487305, 4174.358887, 4203.589844, 4225.127930, 4248.205078, 4202.051270, 4248.717773, 4228.205078, 4236.922852, 4347.179199, 4237.948730, 0.000000, 8105.000000, 7995.000000, 0.000000, 0.000000, 0.000000, -20192.000000, 858.974365, 4.000000, 4.000000, 4.000000, 4.000000, 4.000000, 4.000000, 4.000000, 4.000000, 0.000000, 4.000000, 4.000000, 4.000000, 4.000000, 4.000000, 4.000000, 4.000000
33.000000, 0.000000, 4234.871582, 4348.717773, 4215.897461, 4198.461426, 4169.743652, 4204.102539, 4216.410156, 4236.922852, 4203.076660, 4254.358887, 4234.871582, 4236.922852, 4357.948730, 4249.230469, 0.000000, 8067.000000, 8011.000000, 0.000000, 0.000000, 0.000000, -20192.000000, 867.179443, 4.000000, 4.000000, 4.000000, 4.000000, 4.000000, 4.000000, 4.000000, 4.000000, 0.000000, 4.000000, 4.000000, 4.000000, 4.000000, 4.000000, 4.000000, 4.000000
34.000000, 0.000000, 4232.307617, 4344.102539, 4206.153809, 4189.743652, 4173.846191, 4213.333008, 4225.127930, 4240.512695, 4202.563965, 4257.948730, 4229.743652, 4228.205078, 4352.307617, 4246.666504, 0.000000, 8067.000000, 8011.000000, 0.000000, 0.000000, 0.000000, -20192.000000, 875.384583, 4.000000, 4.000000, 4.000000, 4.000000, 4.000000, 4.000000, 4.000000, 4.000000, 0.000000, 4.000000, 4.000000, 4.000000, 4.000000, 4.000000, 4.000000, 4.000000
35.000000, 0.000000, 4225.641113, 4351.281738, 4198.461426, 4184.102539, 4175.384277, 4216.922852, 4238.974121, 4258.461426, 4203.076660, 4260.000000, 4223.076660, 4227.179199, 4346.666504, 4233.846191, 0.000000, 8053.000000, 8025.000000, 0.000000, 0.000000, 0.000000, -20192.000000, 883.076904, 4.000000, 4.000000, 4.000000, 4.000000, 4.000000, 4.000000, 4.000000, 4.000000, 0.000000, 4.000000, 4.000000, 4.000000, 4.000000, 4.000000, 4.000000, 4.000000
36.000000, 0.000000, 4224.615234, 4368.717773, 4197.436035, 4193.333008, 4189.230469, 4225.641113, 4236.922852, 4252.307617, 4203.076660, 4260.000000, 4230.256348, 4231.281738, 4353.333008, 4236.922852, 0.000000, 8053.000000, 8025.000000, 0.000000, 0.000000, 0.000000, -20192.000000, 890.769226, 4.000000, 4.000000, 4.000000, 4.000000, 4.000000, 4.000000, 4.000000, 4.000000, 0.000000, 4.000000, 4.000000, 4.000000, 4.000000, 4.000000, 4.000000, 4.000000
37.000000, 0.000000, 4227.692383, 4382.051270, 4200.512695, 4203.589844, 4203.589844, 4231.281738, 4229.743652, 4247.692383, 4202.563965, 4262.563965, 4234.871582, 4233.846191, 4351.794922, 4246.153809, 0.000000, 8047.000000, 8044.000000, 0.000000, 0.000000, 0.000000, -20192.000000, 898.974365, 4.000000, 4.000000, 4.000000, 4.000000, 4.000000, 4.000000, 4.000000, 4.000000, 0.000000, 4.000000, 4.000000, 4.000000, 4.000000, 4.000000, 4.000000, 4.000000
38.000000, 0.000000, 4221.538574, 4383.076660, 4196.922852, 4201.538574, 4197.948730, 4221.025391, 4224.615234, 4249.743652, 4203.076660, 4261.538574, 4220.000000, 4233.333008, 4337.436035, 4237.436035, 0.000000, 8047.000000, 8044.000000, 0.000000, 0.000000, 0.000000, -20192.000000, 907.179443, 4.000000, 4.000000, 4.000000, 4.000000, 4.000000, 4.000000, 4.000000, 4.000000, 0.000000, 4.000000, 4.000000, 4.000000, 4.000000, 4.000000, 4.000000, 4.000000
39.000000, 0.000000, 4221.025391, 4387.179199, 4204.615234, 4203.589844, 4193.333008, 4214.358887, 4219.487305, 4238.461426, 4204.615234, 4260.512695, 4221.025391, 4240.000000, 4338.974121, 4234.871582, 0.000000, 8042.000000, 8051.000000, 0.000000, 0.000000, 0.000000, -20192.000000, 914.871765, 4.000000, 4.000000, 4.000000, 4.000000, 4.000000, 4.000000, 4.000000, 4.000000, 0.000000, 4.000000, 4.000000, 4.000000, 4.000000, 4.000000, 4.000000, 4.000000
40.000000, 0.000000, 4241.025391, 4404.102539, 4226.153809, 4217.436035, 4202.563965, 4220.000000, 4216.410156, 4231.794922, 4204.102539, 4267.692383, 4250.769043, 4256.410156, 4358.461426, 4257.948730, 0.000000, 8042.000000, 8051.000000, 0.000000, 0.000000, 0.000000, -20192.000000, 923.076904, 4.000000, 4.000000, 4.000000, 4.000000, 4.000000, 4.000000, 4.000000, 4.000000, 0.000000, 4.000000, 4.000000, 4.000000, 4.000000, 4.000000, 4.000000, 4.000000
41.000000, 0.000000, 4253.333008, 4413.333008, 4233.846191, 4221.538574, 4208.205078, 4220.512695, 4214.871582, 4232.820313, 4203.076660, 4267.692383, 4253.846191, 4257.948730, 4357.435547, 4267.179199, 0.000000, 8044.000000, 8057.000000, 0.000000, 0.000000, 0.000000, -20192.000000, 930.769226, 4.000000, 4.000000, 4.000000, 4.000000, 4.000000, 4.000000, 4.000000, 4.000000, 0.000000, 4.000000, 4.000000, 4.000000, 4.000000, 4.000000, 4.000000, 4.000000
42.000000, 0.000000, 4245.127930, 4408.717773, 4226.153809, 4212.820313, 4204.615234, 4211.794922, 4214.871582, 4227.692383, 4203.076660, 4260.000000, 4227.692383, 4245.127930, 4343.076660, 4251.281738, 0.000000, 8044.000000, 8057.000000, 0.000000, 0.000000, 0.000000, -20192.000000, 938.974365, 4.000000, 4.000000, 4.000000, 4.000000, 4.000000, 4.000000, 4.000000, 4.000000, 0.000000, 4.000000, 4.000000, 4.000000, 4.000000, 4.000000, 4.000000, 4.000000
43.000000, 0.000000, 4247.179199, 4408.717773, 4228.205078, 4211.794922, 4203.076660, 4204.615234, 4214.358887, 4226.666504, 4203.076660, 4259.487305, 4226.666504, 4243.589844, 4345.127930, 4250.769043, 0.000000, 8047.000000, 8079.000000, 0.000000, 0.000000, 0.000000, -20192.000000, 946.666626, 4.000000, 4.000000, 4.000000, 4.000000, 4.000000, 4.000000, 4.000000, 4.000000, 0.000000, 4.000000, 4.000000, 4.000000, 4.000000, 4.000000, 4.000000, 4.000000
44.000000, 0.000000, 4261.025391, 4414.871582, 4236.410156, 4217.436035, 4201.538574, 4206.153809, 4216.922852, 4249.230469, 4203.076660, 4265.127930, 4237.948730, 4245.641113, 4353.333008, 4265.127930, 0.000000, 8047.000000, 8079.000000, 0.000000, 0.000000, 0.000000, -20192.000000, 954.871765, 4.000000, 4.000000, 4.000000, 4.000000, 4.000000, 4.000000, 4.000000, 4.000000, 0.000000, 4.000000, 4.000000, 4.000000, 4.000000, 4.000000, 4.000000, 4.000000
45.000000, 0.000000, 4262.563965, 4414.871582, 4232.307617, 4212.820313, 4199.487305, 4210.769043, 4219.487305, 4249.230469, 4203.076660, 4267.692383, 4231.794922, 4235.897461, 4351.281738, 4262.563965, 0.000000, 8050.000000, 8086.000000, 0.000000, 0.000000, 0.000000, -20192.000000, 963.076904, 4.000000, 4.000000, 4.000000, 4.000000, 4.000000, 4.000000, 4.000000, 4.000000, 0.000000, 4.000000, 4.000000, 4.000000, 4.000000, 4.000000, 4.000000, 4.000000
46.000000, 0.000000, 4252.307617, 4411.794922, 4219.487305, 4203.589844, 4201.538574, 4206.153809, 4205.127930, 4206.153809, 4202.563965, 4260.512695, 4225.127930, 4226.153809, 4347.692383, 4249.230469, 0.000000, 8050.000000, 8086.000000, 0.000000, 0.000000, 0.000000, -20192.000000, 970.769226, 4.000000, 4.000000, 4.000000, 4.000000, 4.000000, 4.000000, 4.000000, 4.000000, 0.000000, 4.000000, 4.000000, 4.000000, 4.000000, 4.000000, 4.000000, 4.000000
47.000000, 0.000000, 4247.179199, 4416.410156, 4215.897461, 4202.051270, 4199.487305, 4198.461426, 4193.333008, 4189.743652, 4202.563965, 4249.743652, 4224.615234, 4226.666504, 4350.769043, 4245.127930, 0.000000, 8063.000000, 8112.000000, 0.000000, 0.000000, 0.000000, -20192.000000, 978.974365, 4.000000, 4.000000, 4.000000, 4.000000, 4.000000, 4.000000, 4.000000, 4.000000, 0.000000, 4.000000, 4.000000, 4.000000, 4.000000, 4.000000, 4.000000, 4.000000
48.000000, 0.000000, 4248.205078, 4418.974121, 4222.051270, 4201.538574, 4195.384277, 4201.025391, 4210.256348, 4218.974121, 4202.563965, 4248.717773, 4215.897461, 4229.743652, 4344.615234, 4244.615234, 0.000000, 8063.000000, 8112.000000, 0.000000, 0.000000, 0.000000, -20192.000000, 986.666626, 4.000000, 4.000000, 4.000000, 4.000000, 4.000000, 4.000000, 4.000000, 4.000000, 0.000000, 4.000000, 4.000000, 4.000000, 4.000000, 4.000000, 4.000000, 4.000000
49.000000, 0.000000, 4248.717773, 4413.333008, 4220.512695, 4199.487305, 4200.512695, 4204.615234, 4220.000000, 4224.615234, 4202.563965, 4248.717773, 4205.127930, 4225.641113, 4328.205078, 4242.563965, 0.000000, 8076.000000, 8122.000000, 0.000000, 0.000000, 0.000000, -20192.000000, 994.871765, 4.000000, 4.000000, 4.000000, 4.000000, 4.000000, 4.000000, 4.000000, 4.000000, 0.000000, 4.000000, 4.000000, 4.000000, 4.000000, 4.000000, 4.000000, 4.000000
50.000000, 0.000000, 4256.922852, 4418.974121, 4215.897461, 4205.641113, 4206.666504, 4202.563965, 4205.127930, 4192.820313, 4203.076660, 4237.948730, 4200.512695, 4218.461426, 4325.641113, 4243.589844, 0.000000, 8076.000000, 8122.000000, 0.000000, 0.000000, 0.000000, -20191.000000, 2.564102, 4.000000, 4.000000, 4.000000, 4.000000, 4.000000, 4.000000, 4.000000, 4.000000, 0.000000, 4.000000, 4.000000, 4.000000, 4.000000, 4.000000, 4.000000, 4.000000
51.000000, 0.000000, 4271.794922, 4436.410156, 4224.102539, 4215.384277, 4203.076660, 4194.358887, 4195.384277, 4187.179199, 4203.589844, 4231.281738, 4199.487305, 4214.358887, 4332.307617, 4245.641113, 0.000000, 8096.000000, 8130.000000, 0.000000, 0.000000, 0.000000, -20191.000000, 10.769231, 4.000000, 4.000000, 4.000000, 4.000000, 4.000000, 4.000000, 4.000000, 4.000000, 0.000000, 4.000000, 4.000000, 4.000000, 4.000000, 4.000000, 4.000000, 4.000000
52.000000, 0.000000, 4287.692383, 4450.256348, 4233.333008, 4223.589844, 4203.076660, 4189.230469, 4193.846191, 4202.051270, 4203.589844, 4238.974121, 4205.127930, 4218.461426, 4337.948730, 4252.820313, 0.000000, 8096.000000, 8130.000000, 0.000000, 0.000000, 0.000000, -20191.000000, 18.461538, 4.000000, 4.000000, 4.000000, 4.000000, 4.000000, 4.000000, 4.000000, 4.000000, 0.000000, 4.000000, 4.000000, 4.000000, 4.000000, 4.000000, 4.000000, 4.000000
53.000000, 0.000000, 4303.076660, 4457.948730, 4231.281738, 4232.820313, 4216.922852, 4189.230469, 4188.717773, 4187.692383, 4203.589844, 4242.563965, 4213.846191, 4226.666504, 4347.692383, 4267.179199, 0.000000, 8137.000000, 8122.000000, 0.000000, 0.000000, 0.000000, -20191.000000, 26.666666, 4.000000, 4.000000, 4.000000, 4.000000, 4.000000, 4.000000, 4.000000, 4.000000, 0.000000, 4.000000, 4.000000, 4.000000, 4.000000, 4.000000, 4.000000, 4.000000
54.000000, 0.000000, 4313.333008, 4461.025391, 4229.743652, 4235.384277, 4216.922852, 4186.153809, 4190.769043, 4181.025391, 4203.589844, 4238.974121, 4217.948730, 4232.820313, 4358.974121, 4278.974121, 0.000000, 8137.000000, 8122.000000, 0.000000, 0.000000, 0.000000, -20191.000000, 34.871796, 4.000000, 4.000000, 4.000000, 4.000000, 4.000000, 4.000000, 4.000000, 4.000000, 0.000000, 4.000000, 4.000000, 4.000000, 4.000000, 4.000000, 4.000000, 4.000000
55.000000, 0.000000, 4313.846191, 4466.666504, 4231.281738, 4232.820313, 4199.487305, 4186.153809, 4202.563965, 4212.307617, 4203.076660, 4241.025391, 4217.948730, 4234.358887, 4356.922852, 4282.563965, 0.000000, 8161.000000, 8130.000000, 0.000000, 0.000000, 0.000000, -20191.000000, 42.564102, 4.000000, 4.000000, 4.000000, 4.000000, 4.000000, 4.000000, 4.000000, 4.000000, 0.000000, 4.000000, 4.000000, 4.000000, 4.000000, 4.000000, 4.000000, 4.000000
56.000000, 0.000000, 4309.743652, 4470.769043, 4227.179199, 4232.307617, 4203.076660, 4200.000000, 4208.717773, 4227.179199, 4202.563965, 4246.153809, 4216.922852, 4231.281738, 4350.769043, 4279.487305, 0.000000, 8161.000000, 8130.000000, 0.000000, 0.000000, 0.000000, -20191.000000, 50.769230, 4.000000, 4.000000, 4.000000, 4.000000, 4.000000, 4.000000, 4.000000, 4.000000, 0.000000, 4.000000, 4.000000, 4.000000, 4.000000, 4.000000, 4.000000, 4.000000
57.000000, 0.000000, 4308.205078, 4461.538574, 4228.205078, 4231.281738, 4217.436035, 4206.666504, 4205.641113, 4203.076660, 4202.563965, 4248.205078, 4214.871582, 4228.205078, 4349.230469, 4269.743652, 0.000000, 8213.000000, 8130.000000, 0.000000, 0.000000, 0.000000, -20191.000000, 58.461536, 4.000000, 4.000000, 4.000000, 4.000000, 4.000000, 4.000000, 4.000000, 4.000000, 0.000000, 4.000000, 4.000000, 4.000000, 4.000000, 4.000000, 4.000000, 4.000000
58.000000, 0.000000, 4312.307617, 4457.948730, 4238.974121, 4237.948730, 4209.743652, 4196.410156, 4203.076660, 4187.692383, 4203.076660, 4246.666504, 4216.922852, 4230.256348, 4351.281738, 4271.281738, 0.000000, 8213.000000, 8130.000000, 0.000000, 0.000000, 0.000000, -20191.000000, 66.153847, 4.000000, 4.000000, 4.000000, 4.000000, 4.000000, 4.000000, 4.000000, 4.000000, 0.000000, 4.000000, 4.000000, 4.000000, 4.000000, 4.000000, 4.000000, 4.000000
59.000000, 0.000000, 4324.102539, 4474.871582, 4248.717773, 4250.256348, 4203.076660, 4189.230469, 4205.127930, 4204.102539, 4203.076660, 4247.179199, 4222.051270, 4240.000000, 4356.410156, 4286.153809, 0.000000, 8236.000000, 8129.000000, 0.000000, 0.000000, 0.000000, -20191.000000, 74.358971, 4.000000, 4.000000, 4.000000, 4.000000, 4.000000, 4.000000, 4.000000, 4.000000, 0.000000, 4.000000, 4.000000, 4.000000, 4.000000, 4.000000, 4.000000, 4.000000
60.000000, 0.000000, 4329.230469, 4480.000000, 4250.256348, 4251.281738, 4215.897461, 4188.717773, 4199.487305, 4211.281738, 4202.563965, 4247.692383, 4217.948730, 4243.589844, 4351.281738, 4287.179199, 0.000000, 8236.000000, 8129.000000, 0.000000, 0.000000, 0.000000, -20191.000000, 82.564102, 4.000000, 4.000000, 4.000000, 4.000000, 4.000000, 4.000000, 4.000000, 4.000000, 0.000000, 4.000000, 4.000000, 4.000000, 4.000000, 4.000000, 4.000000, 4.000000
61.000000, 0.000000, 4318.461426, 4470.769043, 4242.051270, 4250.256348, 4215.384277, 4184.102539, 4186.666504, 4183.589844, 4203.076660, 4237.436035, 4204.102539, 4228.717773, 4331.281738, 4268.717773, 0.000000, 8253.000000, 8146.000000, 0.000000, 0.000000, 0.000000, -20191.000000, 90.256409, 4.000000, 4.000000, 4.000000, 4.000000, 4.000000, 4.000000, 4.000000, 4.000000, 0.000000, 4.000000, 4.000000, 4.000000, 4.000000, 4.000000, 4.000000, 4.000000
62.000000, 0.000000, 4305.641113, 4475.897461, 4228.205078, 4253.846191, 4210.769043, 4184.615234, 4185.641113, 4174.871582, 4203.076660, 4220.512695, 4185.127930, 4205.641113, 4307.692383, 4246.666504, 0.000000, 8253.000000, 8146.000000, 0.000000, 0.000000, 0.000000, -20191.000000, 97.948715, 4.000000, 4.000000, 4.000000, 4.000000, 4.000000, 4.000000, 4.000000, 4.000000, 0.000000, 4.000000, 4.000000, 4.000000, 4.000000, 4.000000, 4.000000, 4.000000
63.000000, 0.000000, 4294.871582, 4480.000000, 4215.897461, 4250.256348, 4220.000000, 4192.820313, 4191.794922, 4191.794922, 4202.563965, 4214.871582, 4170.769043, 4190.769043, 4293.846191, 4228.717773, 0.000000, 8256.000000, 8153.000000, 0.000000, 0.000000, 0.000000, -20191.000000, 106.153847, 4.000000, 4.000000, 4.000000, 4.000000, 4.000000, 4.000000, 4.000000, 4.000000, 0.000000, 4.000000, 4.000000, 4.000000, 4.000000, 4.000000, 4.000000, 4.000000
64.000000, 0.000000, 4285.127930, 4469.230469, 4213.846191, 4246.153809, 4212.820313, 4189.230469, 4186.666504, 4167.692383, 4202.051270, 4211.794922, 4163.589844, 4178.461426, 4286.666504, 4211.794922, 3185.000000, 8256.000000, 8153.000000, 0.000000, 0.000000, 0.000000, -20191.000000, 113.846153, 4.000000, 4.000000, 4.000000, 4.000000, 4.000000, 4.000000, 4.000000, 4.000000, 0.000000, 4.000000, 4.000000, 4.000000, 4.000000, 4.000000, 4.000000, 4.000000
65.000000, 0.000000, 4277.948730, 4464.615234, 4216.922852, 4247.692383, 4202.051270, 4181.025391, 4180.000000, 4130.769043, 4202.051270, 4206.153809, 4162.563965, 4173.333008, 4276.922852, 4201.025391, 3620.000000, 8259.000000, 8172.000000, 0.000000, 0.000000, 0.000000, -20191.000000, 122.051277, 4.000000, 4.000000, 4.000000, 4.000000, 4.000000, 4.000000, 4.000000, 4.000000, 0.000000, 4.000000, 4.000000, 4.000000, 4.000000, 4.000000, 4.000000, 4.000000
66.000000, 0.000000, 4269.230469, 4466.666504, 4214.358887, 4242.563965, 4212.820313, 4191.281738, 4189.743652, 4154.871582, 4202.051270, 4212.307617, 4171.794922, 4187.692383, 4272.820313, 4203.076660, 3562.000000, 8259.000000, 8172.000000, 0.000000, 0.000000, 0.000000, -20191.000000, 129.743591, 4.000000, 4.000000, 4.000000, 4.000000, 4.000000, 4.000000, 4.000000, 4.000000, 0.000000, 4.000000, 4.000000, 4.000000, 4.000000, 4.000000, 4.000000, 4.000000
67.000000, 0.000000, 4263.076660, 4467.692383, 4213.846191, 4242.051270, 4229.230469, 4202.563965, 4201.538574, 4182.563965, 4202.563965, 4220.512695, 4181.538574, 4204.102539, 4283.076660, 4214.871582, 2508.000000, 8259.000000, 8193.000000, 0.000000, 0.000000, 0.000000, -20191.000000, 137.948715, 4.000000, 4.000000, 4.000000, 4.000000, 4.000000, 4.000000, 4.000000, 4.000000, 0.000000, 4.000000, 4.000000, 4.000000, 4.000000, 4.000000, 4.000000, 4.000000
68.000000, 0.000000, 4265.127930, 4456.410156, 4218.461426, 4249.230469, 4227.692383, 4195.897461, 4192.307617, 4174.871582, 4203.076660, 4215.897461, 4180.000000, 4204.615234, 4288.205078, 4218.974121, 3548.000000, 8259.000000, 8193.000000, 0.000000, 0.000000, 0.000000, -20191.000000, 145.641022, 4.000000, 4.000000, 4.000000, 4.000000, 4.000000, 4.000000, 4.000000, 4.000000, 0.000000, 4.000000, 4.000000, 4.000000, 4.000000, 4.000000, 4.000000, 4.000000
69.000000, 0.000000, 4266.666504, 4445.127930, 4213.846191, 4242.563965, 4219.487305, 4183.076660, 4173.846191, 4165.641113, 4203.076660, 4206.666504, 4165.641113, 4190.769043, 4269.230469, 4205.127930, 3577.000000, 8255.000000, 8204.000000, 0.000000, 0.000000, 0.000000, -20191.000000, 153.846146, 4.000000, 4.000000, 4.000000, 4.000000, 4.000000, 4.000000, 4.000000, 4.000000, 0.000000, 4.000000, 4.000000, 4.000000, 4.000000, 4.000000, 4.000000, 4.000000
70.000000, 0.000000, 4251.281738, 4446.153809, 4202.051270, 4223.076660, 4220.512695, 4184.615234, 4174.871582, 4154.871582, 4202.563965, 4194.871582, 4146.153809, 4173.333008, 4244.615234, 4181.538574, 3211.000000, 8255.000000, 8204.000000, 0.000000, 0.000000, 0.000000, -20191.000000, 161.538452, 4.000000, 4.000000, 4.000000, 4.000000, 4.000000, 4.000000, 4.000000, 4.000000, 0.000000, 4.000000, 4.000000, 4.000000, 4.000000, 4.000000, 4.000000, 4.000000
71.000000, 0.000000, 4231.794922, 4439.487305, 4193.846191, 4213.846191, 4215.384277, 4196.410156, 4184.615234, 4157.948730, 4202.563965, 4183.589844, 4137.436035, 4162.051270, 4236.410156, 4166.666504, 3500.000000, 8246.000000, 8218.000000, 0.000000, 0.000000, 0.000000, -20191.000000, 169.743591, 4.000000, 4.000000, 4.000000, 4.000000, 4.000000, 4.000000, 4.000000, 4.000000, 0.000000, 4.000000, 4.000000, 4.000000, 4.000000, 4.000000, 4.000000, 4.000000
72.000000, 0.000000, 4230.769043, 4426.153809, 4198.974121, 4213.846191, 4207.179199, 4203.589844, 4185.641113, 4182.563965, 4202.563965, 4201.025391, 4155.384277, 4170.769043, 4251.281738, 4175.384277, 0.000000, 8246.000000, 8218.000000, 0.000000, 0.000000, 0.000000, -20191.000000, 177.435898, 4.000000, 4.000000, 4.000000, 4.000000, 4.000000, 4.000000, 4.000000, 4.000000, 0.000000, 4.000000, 4.000000, 4.000000, 4.000000, 4.000000, 4.000000, 4.000000
73.000000, 0.000000, 4242.563965, 4430.256348, 4214.358887, 4215.384277, 4211.281738, 4200.512695, 4192.820313, 4189.743652, 4202.563965, 4231.281738, 4180.000000, 4188.717773, 4272.307617, 4191.794922, 2992.000000, 8242.000000, 8219.000000, 0.000000, 0.000000, 0.000000, -20191.000000, 185.641022, 4.000000, 4.000000, 4.000000, 4.000000, 4.000000, 4.000000, 4.000000, 4.000000, 0.000000, 4.000000, 4.000000, 4.000000, 4.000000, 4.000000, 4.000000, 4.000000
74.000000, 0.000000, 4255.897461, 4442.563965, 4228.717773, 4221.025391, 4220.512695, 4201.538574, 4207.179199, 4182.563965, 4202.563965, 4238.461426, 4186.666504, 4200.000000, 4291.281738, 4204.615234, 3568.000000, 8242.000000, 8219.000000, 0.000000, 0.000000, 0.000000, -20191.000000, 193.333328, 4.000000, 4.000000, 4.000000, 4.000000, 4.000000, 4.000000, 4.000000, 4.000000, 0.000000, 4.000000, 4.000000, 4.000000, 4.000000, 4.000000, 4.000000, 4.000000
75.000000, 0.000000, 4268.205078, 4444.102539, 4236.410156, 4235.384277, 4219.487305, 4200.512695, 4202.563965, 4188.717773, 4202.563965, 4238.461426, 4191.794922, 4212.307617, 4306.153809, 4215.897461, 3551.000000, 8232.000000, 8218.000000, 0.000000, 0.000000, 0.000000, -20191.000000, 201.025635, 4.000000, 4.000000, 4.000000, 4.000000, 4.000000, 4.000000, 4.000000, 4.000000, 0.000000, 4.000000, 4.000000, 4.000000, 4.000000, 4.000000, 4.000000, 4.000000
76.000000, 0.000000, 4273.846191, 4446.666504, 4236.922852, 4245.641113, 4216.410156, 4187.692383, 4184.615234, 4183.076660, 4202.563965, 4247.692383, 4200.000000, 4221.025391, 4310.769043, 4221.538574, 3520.000000, 8232.000000, 8218.000000, 0.000000, 0.000000, 0.000000, -20191.000000, 209.230759, 4.000000, 4.000000, 4.000000, 4.000000, 4.000000, 4.000000, 4.000000, 4.000000, 0.000000, 4.000000, 4.000000, 4.000000, 4.000000, 4.000000, 4.000000, 4.000000
77.000000, 0.000000, 4269.743652, 4448.205078, 4229.230469, 4242.051270, 4220.000000, 4185.127930, 4182.051270, 4175.897461, 4202.563965, 4246.153809, 4203.076660, 4216.922852, 4310.769043, 4221.538574, 3455.000000, 8224.000000, 8216.000000, 0.000000, 0.000000, 0.000000, -20191.000000, 216.923065, 4.000000, 4.000000, 4.000000, 4.000000, 4.000000, 4.000000, 4.000000, 4.000000, 0.000000, 4.000000, 4.000000, 4.000000, 4.000000, 4.000000, 4.000000, 4.000000
78.000000, 0.000000, 4263.076660, 4440.512695, 4218.974121, 4230.256348, 4221.538574, 4200.512695, 4191.281738, 4197.436035, 4202.563965, 4234.358887, 4200.512695, 4207.179199, 4313.333008, 4217.436035, 3568.000000, 8224.000000, 8216.000000, 0.000000, 0.000000, 0.000000, -20191.000000, 224.615372, 4.000000, 4.000000, 4.000000, 4.000000, 4.000000, 4.000000, 4.000000, 4.000000, 0.000000, 4.000000, 4.000000, 4.000000, 4.000000, 4.000000, 4.000000, 4.000000
79.000000, 0.000000, 4250.769043, 4429.230469, 4210.256348, 4220.512695, 4214.358887, 4201.025391, 4191.281738, 4196.410156, 4202.563965, 4227.179199, 4191.281738, 4197.948730, 4313.846191, 4207.692383, 3551.000000, 8218.000000, 8208.000000, 0.000000, 0.000000, 0.000000, -20191.000000, 232.820511, 4.000000, 4.000000, 4.000000, 4.000000, 4.000000, 4.000000, 4.000000, 4.000000, 0.000000, 4.000000, 4.000000, 4.000000, 4.000000, 4.000000, 4.000000, 4.000000
80.000000, 0.000000, 4234.871582, 4419.487305, 4201.538574, 4213.333008, 4200.000000, 4186.153809, 4185.641113, 4163.076660, 4203.076660, 4218.974121, 4175.384277, 4180.000000, 4307.692383, 4192.820313, 3520.000000, 8218.000000, 8208.000000, 0.000000, 0.000000, 0.000000, -20191.000000, 240.512817, 4.000000, 4.000000, 4.000000, 4.000000, 4.000000, 4.000000, 4.000000, 4.000000, 0.000000, 4.000000, 4.000000, 4.000000, 4.000000, 4.000000, 4.000000, 4.000000
81.000000, 0.000000, 4230.256348, 4410.769043, 4196.410156, 4202.051270, 4197.948730, 4185.641113, 4189.743652, 4168.205078, 4203.076660, 4215.384277, 4166.666504, 4166.666504, 4296.922852, 4183.589844, 3455.000000, 8211.000000, 8190.000000, 0.000000, 0.000000, 0.000000, -20191.000000, 248.717941, 4.000000, 4.000000, 4.000000, 4.000000, 4.000000, 4.000000, 4.000000, 4.000000, 0.000000, 4.000000, 4.000000, 4.000000, 4.000000, 4.000000, 4.000000, 4.000000
82.000000, 0.000000, 4230.256348, 4403.076660, 4198.974121, 4197.436035, 4205.641113, 4191.794922, 4196.922852, 4198.461426, 4203.076660, 4221.538574, 4168.205078, 4172.307617, 4290.256348, 4182.563965, 3568.000000, 8211.000000, 8190.000000, 0.000000, 0.000000, 0.000000, -20191.000000, 256.410248, 4.000000, 4.000000, 4.000000, 4.000000, 4.000000, 4.000000, 4.000000, 4.000000, 0.000000, 4.000000, 4.000000, 4.000000, 4.000000, 4.000000, 4.000000, 4.000000
83.000000, 0.000000, 4236.922852, 4403.589844, 4200.512695, 4208.717773, 4207.692383, 4187.692383, 4193.333008, 4194.871582, 4203.076660, 4229.743652, 4171.281738, 4182.051270, 4301.025391, 4187.692383, 3551.000000, 8206.000000, 8177.000000, 0.000000, 0.000000, 0.000000, -20191.000000, 264.102570, 4.000000, 4.000000, 4.000000, 4.000000, 4.000000, 4.000000, 4.000000, 4.000000, 0.000000, 4.000000, 4.000000, 4.000000, 4.000000, 4.000000, 4.000000, 4.000000
84.000000, 0.000000, 4248.205078, 4408.717773, 4201.538574, 4219.487305, 4211.794922, 4186.153809, 4185.641113, 4181.025391, 4203.076660, 4233.333008, 4177.948730, 4186.666504, 4317.436035, 4191.794922, 3520.000000, 8206.000000, 8177.000000, 0.000000, 0.000000, 0.000000, -20191.000000, 272.307678, 4.000000, 4.000000, 4.000000, 4.000000, 4.000000, 4.000000, 4.000000, 4.000000, 0.000000, 4.000000, 4.000000, 4.000000, 4.000000, 4.000000, 4.000000, 4.000000
85.000000, 0.000000, 4244.102539, 4403.076660, 4203.076660, 4218.974121, 4214.358887, 4185.641113, 4184.615234, 4174.871582, 4203.076660, 4223.076660, 4177.948730, 4184.615234, 4310.769043, 4188.205078, 3455.000000, 8213.000000, 8163.000000, 0.000000, 0.000000, 0.000000, -20191.000000, 280.000000, 4.000000, 4.000000, 4.000000, 4.000000, 4.000000, 4.000000, 4.000000, 4.000000, 0.000000, 4.000000, 4.000000, 4.000000, 4.000000, 4.000000, 4.000000, 4.000000
86.000000, 0.000000, 4231.794922, 4392.307617, 4202.563965, 4215.897461, 4204.102539, 4181.538574, 4188.205078, 4170.769043, 4203.076660, 4202.563965, 4168.717773, 4180.512695, 4296.410156, 4185.641113, 3568.000000, 8213.000000, 8163.000000, 0.000000, 0.000000, 0.000000, -20191.000000, 288.205109, 4.000000, 4.000000, 4.000000, 4.000000, 4.000000, 4.000000, 4.000000, 4.000000, 0.000000, 4.000000, 4.000000, 4.000000, 4.000000, 4.000000, 4.000000, 4.000000
87.000000, 0.000000, 4230.769043, 4390.769043, 4202.051270, 4215.897461, 4201.025391, 4182.563965, 4187.692383, 4168.717773, 4202.563965, 4195.897461, 4167.692383, 4184.102539, 4292.307617, 4182.563965, 3551.000000, 8212.000000, 8163.000000, 0.000000, 0.000000, 0.000000, -20191.000000, 295.897430, 4.000000, 4.000000, 4.000000, 4.000000, 4.000000, 4.000000, 4.000000, 4.000000, 0.000000, 4.000000, 4.000000, 4.000000, 4.000000, 4.000000, 4.000000, 4.000000
88.000000, 0.000000, 4233.846191, 4397.948730, 4203.589844, 4214.871582, 4205.641113, 4186.153809, 4181.025391, 4151.794922, 4203.076660, 4202.051270, 4167.692383, 4183.076660, 4288.205078, 4177.948730, 3520.000000, 8212.000000, 8163.000000, 0.000000, 0.000000, 0.000000, -20191.000000, 304.102570, 4.000000, 4.000000, 4.000000, 4.000000, 4.000000, 4.000000, 4.000000, 4.000000, 0.000000, 4.000000, 4.000000, 4.000000, 4.000000, 4.000000, 4.000000, 4.000000
89.000000, 0.000000, 4231.281738, 4395.897461, 4206.153809, 4215.897461, 4197.948730, 4183.589844, 4176.922852, 4148.717773, 4203.076660, 4201.025391, 4155.384277, 4172.307617, 4261.025391, 4173.333008, 3455.000000, 8216.000000, 8167.000000, 0.000000, 0.000000, 0.000000, -20191.000000, 311.794861, 4.000000, 4.000000, 4.000000, 4.000000, 4.000000, 4.000000, 4.000000, 4.000000, 0.000000, 4.000000, 4.000000, 4.000000, 4.000000, 4.000000, 4.000000, 4.000000
90.000000, 0.000000, 4227.179199, 4385.127930, 4212.307617, 4217.948730, 4198.974121, 4185.641113, 4183.589844, 4181.025391, 4202.051270, 4206.153809, 4147.692383, 4173.333008, 4228.717773, 4167.179199, 3568.000000, 8216.000000, 8167.000000, 0.000000, 0.000000, 0.000000, -20191.000000, 320.000000, 4.000000, 4.000000, 4.000000, 4.000000, 4.000000, 4.000000, 4.000000, 4.000000, 0.000000, 4.000000, 4.000000, 4.000000, 4.000000, 4.000000, 4.000000, 4.000000
91.000000, 0.000000, 4232.307617, 4386.153809, 4217.436035, 4220.512695, 4215.897461, 4195.384277, 4188.205078, 4184.102539, 4202.563965, 4225.641113, 4163.589844, 4184.615234, 4235.384277, 4174.358887, 3551.000000, 8232.000000, 8184.000000, 0.000000, 0.000000, 0.000000, -20191.000000, 327.692291, 4.000000, 4.000000, 4.000000, 4.000000, 4.000000, 4.000000, 4.000000, 4.000000, 0.000000, 4.000000, 4.000000, 4.000000, 4.000000, 4.000000, 4.000000, 4.000000
92.000000, 0.000000, 4246.153809, 4398.461426, 4212.307617, 4221.538574, 4222.051270, 4198.974121, 4180.000000, 4157.436035, 4204.102539, 4236.410156, 4183.076660, 4186.666504, 4263.589844, 4192.307617, 3520.000000, 8232.000000, 8184.000000, 0.000000, 0.000000, 0.000000, -20191.000000, 335.384613, 4.000000, 4.000000, 4.000000, 4.000000, 4.000000, 4.000000, 4.000000, 4.000000, 0.000000, 4.000000, 4.000000, 4.000000, 4.000000, 4.000000, 4.000000, 4.000000
93.000000, 0.000000, 4248.205078, 4396.410156, 4202.051270, 4218.974121, 4217.436035, 4199.487305, 4182.051270, 4174.871582, 4203.589844, 4232.307617, 4186.153809, 4182.051270, 4267.179199, 4193.333008, 3455.000000, 8229.000000, 8192.000000, 0.000000, 0.000000, 0.000000, -20191.000000, 343.589722, 4.000000, 4.000000, 4.000000, 4.000000, 4.000000, 4.000000, 4.000000, 4.000000, 0.000000, 4.000000, 4.000000, 4.000000, 4.000000, 4.000000, 4.000000, 4.000000
94.000000, 0.000000, 4243.589844, 4386.153809, 4205.641113, 4224.102539, 4222.563965, 4204.102539, 4196.410156, 4194.358887, 4202.563965, 4227.692383, 4184.615234, 4184.615234, 4259.487305, 4189.230469, 3568.000000, 8229.000000, 8192.000000, 0.000000, 0.000000, 0.000000, -20191.000000, 351.282043, 4.000000, 4.000000, 4.000000, 4.000000, 4.000000, 4.000000, 4.000000, 4.000000, 0.000000, 4.000000, 4.000000, 4.000000, 4.000000, 4.000000, 4.000000, 4.000000
95.000000, 0.000000, 4251.281738, 4388.205078, 4218.461426, 4233.333008, 4230.769043, 4205.641113, 4195.897461, 4179.487305, 4203.076660, 4224.102539, 4188.717773, 4192.307617, 4265.127930, 4201.538574, 3551.000000, 8229.000000, 8188.000000, 0.000000, 0.000000, 0.000000, -20191.000000, 358.974365, 4.000000, 4.000000, 4.000000, 4.000000, 4.000000, 4.000000, 4.000000, 4.000000, 0.000000, 4.000000, 4.000000, 4.000000, 4.000000, 4.000000, 4.000000, 4.000000
96.000000, 0.000000, 4261.025391, 4391.794922, 4220.512695, 4234.871582, 4230.769043, 4197.948730, 4183.589844, 4177.436035, 4203.076660, 4214.358887, 4191.794922, 4199.487305, 4268.717773, 4208.205078, 3520.000000, 8229.000000, 8188.000000, 0.000000, 0.000000, 0.000000, -20191.000000, 367.179474, 4.000000, 4.000000, 4.000000, 4.000000, 4.000000, 4.000000, 4.000000, 4.000000, 0.000000, 4.000000, 4.000000, 4.000000, 4.000000, 4.000000, 4.000000, 4.000000
97.000000, 0.000000, 4261.538574, 4386.666504, 4217.948730, 4235.897461, 4229.230469, 4198.461426, 4189.230469, 4189.743652, 4203.076660, 4205.641113, 4189.230469, 4205.641113, 4265.127930, 4206.666504, 3455.000000, 8229.000000, 8187.000000, 0.000000, 0.000000, 0.000000, -20191.000000, 374.871796, 4.000000, 4.000000, 4.000000, 4.000000, 4.000000, 4.000000, 4.000000, 4.000000, 0.000000, 4.000000, 4.000000, 4.000000, 4.000000, 4.000000, 4.000000, 4.000000
98.000000, 0.000000, 4253.333008, 4379.487305, 4218.974121, 4234.871582, 4223.589844, 4204.615234, 4205.641113, 4198.461426, 4203.076660, 4195.897461, 4181.025391, 4197.948730, 4254.358887, 4206.153809, 3568.000000, 8229.000000, 8187.000000, 0.000000, 0.000000, 0.000000, -20191.000000, 382.564087, 4.000000, 4.000000, 4.000000, 4.000000, 4.000000, 4.000000, 4.000000, 4.000000, 0.000000, 4.000000, 4.000000, 4.000000, 4.000000, 4.000000, 4.000000, 4.000000
99.000000, 0.000000, 4237.948730, 4368.717773, 4208.717773, 4223.076660, 4212.307617, 4196.922852, 4198.974121, 4191.281738, 4203.076660, 4177.948730, 4163.589844, 4174.871582, 4234.358887, 4188.717773, 3551.000000, 8225.000000, 8180.000000, 0.000000, 0.000000, 0.000000, -20191.000000, 390.769226, 4.000000, 4.000000, 4.000000, 4.000000, 4.000000, 4.000000, 4.000000, 4.000000, 0.000000, 4.000000, 4.000000, 4.000000, 4.000000, 4.000000, 4.000000, 4.000000
100.000000, 0.000000, 4228.717773, 4363.076660, 4193.333008, 4214.358887, 4212.820313, 4192.307617, 4185.127930, 4171.281738, 4203.076660, 4169.230469, 4150.769043, 4163.076660, 4225.127930, 4169.743652, 3520.000000, 8225.000000, 8180.000000, 0.000000, 0.000000, 0.000000, -20191.000000, 398.974335, 4.000000, 4.000000, 4.000000, 4.000000, 4.000000, 4.000000, 4.000000, 4.000000, 0.000000, 4.000000, 4.000000, 4.000000, 4.000000, 4.000000, 4.000000, 4.000000
101.000000, 0.000000, 4230.769043, 4366.153809, 4191.794922, 4218.461426, 4225.641113, 4200.512695, 4183.589844, 4167.179199, 4203.076660, 4181.025391, 4156.410156, 4166.666504, 4232.307617, 4171.794922, 3455.000000, 8221.000000, 8168.000000, 0.000000, 0.000000, 0.000000, -20191.000000, 406.666656, 4.000000, 4.000000, 4.000000, 4.000000, 4.000000, 4.000000, 4.000000, 4.000000, 0.000000, 4.000000, 4.000000, 4.000000, 4.000000, 4.000000, 4.000000, 4.000000
102.000000, 0.000000, 4233.333008, 4368.717773, 4197.948730, 4218.974121, 4228.205078, 4202.563965, 4184.615234, 4185.127930, 4203.076660, 4195.897461, 4169.743652, 4167.179199, 4239.487305, 4177.948730, 3568.000000, 8221.000000, 8168.000000, 0.000000, 0.000000, 0.000000, -20191.000000, 414.358978, 4.000000, 4.000000, 4.000000, 4.000000, 4.000000, 4.000000, 4.000000, 4.000000, 0.000000, 4.000000, 4.000000, 4.000000, 4.000000, 4.000000, 4.000000, 4.000000
103.000000, 0.000000, 4237.948730, 4367.692383, 4202.051270, 4219.487305, 4224.102539, 4198.461426, 4188.717773, 4195.897461, 4203.589844, 4205.127930, 4179.487305, 4173.333008, 4247.692383, 4182.051270, 3551.000000, 8219.000000, 8165.000000, 0.000000, 0.000000, 0.000000, -20191.000000, 422.051270, 4.000000, 4.000000, 4.000000, 4.000000, 4.000000, 4.000000, 4.000000, 4.000000, 0.000000, 4.000000, 4.000000, 4.000000, 4.000000, 4.000000, 4.000000, 4.000000
104.000000, 0.000000, 4248.205078, 4361.538574, 4204.102539, 4227.179199, 4231.281738, 4203.589844, 4200.512695, 4202.563965, 4204.102539, 4216.922852, 4186.153809, 4188.717773, 4261.538574, 4195.384277, 3520.000000, 8219.000000, 8165.000000, 0.000000, 0.000000, 0.000000, -20191.000000, 430.256409, 4.000000, 4.000000, 4.000000, 4.000000, 4.000000, 4.000000, 4.000000, 4.000000, 0.000000, 4.000000, 4.000000, 4.000000, 4.000000, 4.000000, 4.000000, 4.000000
105.000000, 0.000000, 4248.205078, 4358.461426, 4203.589844, 4225.127930, 4230.769043, 4208.717773, 4204.615234, 4206.666504, 4203.589844, 4215.384277, 4187.692383, 4190.769043, 4262.051270, 4201.538574, 3455.000000, 8216.000000, 8161.000000, 0.000000, 0.000000, 0.000000, -20191.000000, 438.461517, 4.000000, 4.000000, 4.000000, 4.000000, 4.000000, 4.000000, 4.000000, 4.000000, 0.000000, 4.000000, 4.000000, 4.000000, 4.000000, 4.000000, 4.000000, 4.000000
106.000000, 0.000000, 4237.436035, 4361.025391, 4200.000000, 4213.333008, 4213.333008, 4202.051270, 4192.307617, 4188.717773, 4202.051270, 4200.000000, 4180.512695, 4183.076660, 4248.717773, 4191.794922, 3568.000000, 8216.000000, 8161.000000, 0.000000, 0.000000, 0.000000, -20191.000000, 446.153839, 4.000000, 4.000000, 4.000000, 4.000000, 4.000000, 4.000000, 4.000000, 4.000000, 0.000000, 4.000000, 4.000000, 4.000000, 4.000000, 4.000000, 4.000000, 4.000000
107.000000, 0.000000, 4232.307617, 4361.025391, 4197.436035, 4213.846191, 4211.281738, 4199.487305, 4192.307617, 4189.743652, 4202.051270, 4196.410156, 4178.974121, 4185.641113, 4248.717773, 4190.769043, 3551.000000, 8213.000000, 8164.000000, 0.000000, 0.000000, 0.000000, -20191.000000, 453.846130, 4.000000, 4.000000, 4.000000, 4.000000, 4.000000, 4.000000, 4.000000, 4.000000, 0.000000, 4.000000, 4.000000, 4.000000, 4.000000, 4.000000, 4.000000, 4.000000
108.000000, 0.000000, 4241.025391, 4358.461426, 4202.051270, 4220.000000, 4228.205078, 4205.641113, 4207.692383, 4219.487305, 4203.589844, 4201.538574, 4185.641113, 4190.256348, 4261.025391, 4198.974121, 3520.000000, 8213.000000, 8164.000000, 0.000000, 0.000000, 0.000000, -20191.000000, 462.051270, 4.000000, 4.000000, 4.000000, 4.000000, 4.000000, 4.000000, 4.000000, 4.000000, 0.000000, 4.000000, 4.000000, 4.000000, 4.000000, 4.000000, 4.000000, 4.000000
109.000000, 0.000000, 4248.205078, 4358.974121, 4207.692383, 4218.461426, 4232.820313, 4206.666504, 4212.307617, 4231.794922, 4203.589844, 4203.076660, 4187.179199, 4185.127930, 4261.538574, 4198.461426, 3455.000000, 8214.000000, 8175.000000, 0.000000, 0.000000, 0.000000, -20191.000000, 469.743591, 4.000000, 4.000000, 4.000000, 4.000000, 4.000000, 4.000000, 4.000000, 4.000000, 0.000000, 4.000000, 4.000000, 4.000000, 4.000000, 4.000000, 4.000000, 4.000000
110.000000, 0.000000, 4241.538574, 4359.487305, 4204.615234, 4216.410156, 4227.692383, 4201.025391, 4201.538574, 4210.769043, 4203.076660, 4203.589844, 4185.127930, 4178.461426, 4259.487305, 4193.846191, 3568.000000, 8214.000000, 8175.000000, 0.000000, 0.000000, 0.000000, -20191.000000, 477.435883, 4.000000, 4.000000, 4.000000, 4.000000, 4.000000, 4.000000, 4.000000, 4.000000, 0.000000, 4.000000, 4.000000, 4.000000, 4.000000, 4.000000, 4.000000, 4.000000
111.000000, 0.000000, 4231.794922, 4355.897461, 4197.948730, 4211.794922, 4229.230469, 4202.051270, 4195.897461, 4201.025391, 4203.589844, 4202.051270, 4187.179199, 4175.897461, 4263.076660, 4192.307617, 3551.000000, 8208.000000, 8178.000000, 0.000000, 0.000000, 0.000000, -20191.000000, 485.128204, 4.000000, 4.000000, 4.000000, 4.000000, 4.000000, 4.000000, 4.000000, 4.000000, 0.000000, 4.000000, 4.000000, 4.000000, 4.000000, 4.000000, 4.000000, 4.000000
112.000000, 0.000000, 4231.281738, 4355.897461, 4192.820313, 4206.153809, 4230.769043, 4207.179199, 4204.615234, 4210.256348, 4203.589844, 4202.051270, 4188.717773, 4177.436035, 4256.922852, 4186.666504, 3520.000000, 8208.000000, 8178.000000, 0.000000, 0.000000, 0.000000, -20191.000000, 493.333313, 4.000000, 4.000000, 4.000000, 4.000000, 4.000000, 4.000000, 4.000000, 4.000000, 0.000000, 4.000000, 4.000000, 4.000000, 4.000000, 4.000000, 4.000000, 4.000000
113.000000, 0.000000, 4234.358887, 4360.512695, 4194.358887, 4208.717773, 4233.333008, 4205.127930, 4207.692383, 4210.769043, 4203.589844, 4209.230469, 4186.666504, 4181.025391, 4250.769043, 4186.153809, 3455.000000, 8204.000000, 8175.000000, 0.000000, 0.000000, 0.000000, -20191.000000, 501.025635, 4.000000, 4.000000, 4.000000, 4.000000, 4.000000, 4.000000, 4.000000, 4.000000, 0.000000, 4.000000, 4.000000, 4.000000, 4.000000, 4.000000, 4.000000, 4.000000
114.000000, 0.000000, 4232.820313, 4354.358887, 4197.948730, 4212.307617, 4229.230469, 4199.487305, 4197.436035, 4209.230469, 4203.589844, 4209.230469, 4186.153809, 4183.589844, 4250.769043, 4194.871582, 3568.000000, 8204.000000, 8175.000000, 0.000000, 0.000000, 0.000000, -20191.000000, 508.717926, 4.000000, 4.000000, 4.000000, 4.000000, 4.000000, 4.000000, 4.000000, 4.000000, 0.000000, 4.000000, 4.000000, 4.000000, 4.000000, 4.000000, 4.000000, 4.000000
115.000000, 0.000000, 4234.358887, 4350.256348, 4201.538574, 4211.281738, 4217.948730, 4200.512695, 4195.897461, 4204.615234, 4203.589844, 4205.127930, 4191.281738, 4183.589844, 4254.358887, 4197.948730, 3551.000000, 8196.000000, 8167.000000, 0.000000, 0.000000, 0.000000, -20191.000000, 516.923035, 4.000000, 4.000000, 4.000000, 4.000000, 4.000000, 4.000000, 4.000000, 4.000000, 0.000000, 4.000000, 4.000000, 4.000000, 4.000000, 4.000000, 4.000000, 4.000000
116.000000, 0.000000, 4245.641113, 4362.051270, 4206.666504, 4214.358887, 4228.205078, 4205.641113, 4202.563965, 4205.127930, 4203.589844, 4213.846191, 4201.538574, 4186.666504, 4266.153809, 4200.512695, 3520.000000, 8196.000000, 8167.000000, 0.000000, 0.000000, 0.000000, -20191.000000, 524.615356, 4.000000, 4.000000, 4.000000, 4.000000, 4.000000, 4.000000, 4.000000, 4.000000, 0.000000, 4.000000, 4.000000, 4.000000, 4.000000, 4.000000, 4.000000, 4.000000
117.000000, 0.000000, 4252.820313, 4370.256348, 4208.717773, 4217.436035, 4245.641113, 4205.127930, 4193.846191, 4214.358887, 4203.589844, 4221.025391, 4206.153809, 4190.256348, 4277.436035, 4206.153809, 3455.000000, 8191.000000, 8168.000000, 0.000000, 0.000000, 0.000000, -20191.000000, 532.307678, 4.000000, 4.000000, 4.000000, 4.000000, 4.000000, 4.000000, 4.000000, 4.000000, 0.000000, 4.000000, 4.000000, 4.000000, 4.000000, 4.000000, 4.000000, 4.000000
118.000000, 0.000000, 4250.256348, 4363.076660, 4203.076660, 4214.358887, 4238.974121, 4200.000000, 4179.487305, 4204.615234, 4203.589844, 4212.820313, 4201.538574, 4189.230469, 4277.436035, 4204.615234, 3568.000000, 8191.000000, 8168.000000, 0.000000, 0.000000, 0.000000, -20191.000000, 540.512817, 4.000000, 4.000000, 4.000000, 4.000000, 4.000000, 4.000000, 4.000000, 4.000000, 0.000000, 4.000000, 4.000000, 4.000000, 4.000000, 4.000000, 4.000000, 4.000000
119.000000, 0.000000, 4248.205078, 4355.897461, 4200.512695, 4213.846191, 4228.205078, 4197.436035, 4182.563965, 4179.487305, 4203.589844, 4209.230469, 4198.974121, 4191.281738, 4275.384277, 4199.487305, 3551.000000, 8182.000000, 8151.000000, 0.000000, 0.000000, 0.000000, -20191.000000, 548.205139, 4.000000, 4.000000, 4.000000, 4.000000, 4.000000, 4.000000, 4.000000, 4.000000, 0.000000, 4.000000, 4.000000, 4.000000, 4.000000, 4.000000, 4.000000, 4.000000
120.000000, 0.000000, 4249.230469, 4354.358887, 4204.615234, 4216.410156, 4234.871582, 4199.487305, 4185.641113, 4181.538574, 4203.589844, 4216.410156, 4205.127930, 4197.436035, 4280.000000, 4200.512695, 3520.000000, 8182.000000, 8151.000000, 0.000000, 0.000000, 0.000000, -20191.000000, 555.897400, 4.000000, 4.000000, 4.000000, 4.000000, 4.000000, 4.000000, 4.000000, 4.000000, 0.000000, 4.000000, 4.000000, 4.000000, 4.000000, 4.000000, 4.000000, 4.000000
121.000000, 0.000000, 4247.179199, 4358.461426, 4204.102539, 4216.410156, 4243.589844, 4200.512695, 4179.487305, 4211.281738, 4203.589844, 4220.000000, 4212.307617, 4200.512695, 4282.051270, 4203.076660, 3455.000000, 8180.000000, 8143.000000, 0.000000, 0.000000, 0.000000, -20191.000000, 564.102539, 4.000000, 4.000000, 4.000000, 4.000000, 4.000000, 4.000000, 4.000000, 4.000000, 0.000000, 4.000000, 4.000000, 4.000000, 4.000000, 4.000000, 4.000000, 4.000000
122.000000, 0.000000, 4250.256348, 4365.127930, 4201.538574, 4216.410156, 4244.102539, 4199.487305, 4184.615234, 4215.897461, 4203.589844, 4217.948730, 4209.230469, 4201.025391, 4280.000000, 4203.076660, 3568.000000, 8180.000000, 8143.000000, 0.000000, 0.000000, 0.000000, -20191.000000, 571.794861, 4.000000, 4.000000, 4.000000, 4.000000, 4.000000, 4.000000, 4.000000, 4.000000, 0.000000, 4.000000, 4.000000, 4.000000, 4.000000, 4.000000, 4.000000, 4.000000
123.000000, 0.000000, 4261.025391, 4367.692383, 4205.641113, 4220.000000, 4247.692383, 4201.538574, 4188.717773, 4200.000000, 4203.589844, 4217.436035, 4203.076660, 4202.563965, 4276.922852, 4202.563965, 3551.000000, 8172.000000, 8131.000000, 0.000000, 0.000000, 0.000000, -20191.000000, 579.487183, 4.000000, 4.000000, 4.000000, 4.000000, 4.000000, 4.000000, 4.000000, 4.000000, 0.000000, 4.000000, 4.000000, 4.000000, 4.000000, 4.000000, 4.000000, 4.000000
124.000000, 0.000000, 4260.000000, 4367.179199, 4205.127930, 4220.000000, 4248.205078, 4205.127930, 4188.717773, 4204.102539, 4203.589844, 4219.487305, 4204.102539, 4201.025391, 4279.487305, 4203.076660, 3520.000000, 8172.000000, 8131.000000, 0.000000, 0.000000, 0.000000, -20191.000000, 587.692322, 4.000000, 4.000000, 4.000000, 4.000000, 4.000000, 4.000000, 4.000000, 4.000000, 0.000000, 4.000000, 4.000000, 4.000000, 4.000000, 4.000000, 4.000000, 4.000000
125.000000, 0.000000, 4248.717773, 4365.127930, 4198.974121, 4211.794922, 4240.000000, 4204.615234, 4195.897461, 4218.461426, 4203.589844, 4217.436035, 4205.127930, 4190.769043, 4285.127930, 4203.589844, 3455.000000, 8162.000000, 8117.000000, 0.000000, 0.000000, 0.000000, -20191.000000, 595.384583, 4.000000, 4.000000, 4.000000, 4.000000, 4.000000, 4.000000, 4.000000, 4.000000, 0.000000, 4.000000, 4.000000, 4.000000, 4.000000, 4.000000, 4.000000, 4.000000
126.000000, 0.000000, 4249.743652, 4362.051270, 4198.974121, 4208.717773, 4236.410156, 4201.025391, 4193.333008, 4206.666504, 4203.589844, 4214.871582, 4204.102539, 4184.102539, 4284.102539, 4200.000000, 3568.000000, 8162.000000, 8117.000000, 0.000000, 0.000000, 0.000000, -20191.000000, 603.076904, 4.000000, 4.000000, 4.000000, 4.000000, 4.000000, 4.000000, 4.000000, 4.000000, 0.000000, 4.000000, 4.000000, 4.000000, 4.000000, 4.000000, 4.000000, 4.000000
127.000000, 0.000000, 4263.589844, 4366.153809, 4203.076660, 4216.410156, 4247.692383, 4198.974121, 4182.563965, 4196.410156, 4203.589844, 4220.512695, 4213.333008, 4187.692383, 4295.897461, 4202.563965, 56.000000, 8149.000000, 8108.000000, 0.000000, 0.000000, 0.000000, -20191.000000, 611.282043, 4.000000, 4.000000, 4.000000, 4.000000, 4.000000, 4.000000, 4.000000, 4.000000, 0.000000, 4.000000, 4.000000, 4.000000, 4.000000, 4.000000, 4.000000, 4.000000
0.000000, 0.000000, 4266.153809, 4377.948730, 4201.538574, 4220.512695, 4250.769043, 4198.974121, 4184.102539, 4208.717773, 4203.589844, 4221.025391, 4215.897461, 4188.717773, 4306.153809, 4204.102539, 3184.000000, 8149.000000, 8108.000000, 0.000000, 0.000000, 0.000000, -20191.000000, 618.974365, 4.000000, 4.000000, 4.000000, 4.000000, 4.000000, 4.000000, 4.000000, 4.000000, 0.000000, 4.000000, 4.000000, 4.000000, 4.000000, 4.000000, 4.000000, 4.000000
1.000000, 0.000000, 4250.256348, 4374.871582, 4195.897461, 4207.692383, 4236.922852, 4196.410156, 4183.076660, 4195.384277, 4203.589844, 4203.589844, 4198.974121, 4184.615234, 4285.127930, 4189.743652, 3543.000000, 8144.000000, 8087.000000, 0.000000, 0.000000, 0.000000, -20191.000000, 627.179443, 4.000000, 4.000000, 4.000000, 4.000000, 4.000000, 4.000000, 4.000000, 4.000000, 0.000000, 4.000000, 4.000000, 4.000000, 4.000000, 4.000000, 4.000000, 4.000000
2.000000, 0.000000, 4242.051270, 4358.974121, 4192.307617, 4196.922852, 4230.769043, 4195.384277, 4176.410156, 4172.820313, 4204.102539, 4195.897461, 4195.897461, 4188.717773, 4277.436035, 4184.615234, 3552.000000, 8144.000000, 8087.000000, 0.000000, 0.000000, 0.000000, -20191.000000, 634.871765, 4.000000, 4.000000, 4.000000, 4.000000, 4.000000, 4.000000, 4.000000, 4.000000, 0.000000, 4.000000, 4.000000, 4.000000, 4.000000, 4.000000, 4.000000, 4.000000
3.000000, 0.000000, 4260.000000, 4368.717773, 4196.410156, 4211.794922, 4240.000000, 4192.307617, 4180.000000, 4179.487305, 4203.076660, 4207.692383, 4211.281738, 4196.922852, 4312.307617, 4206.153809, 2501.000000, 8141.000000, 8074.000000, 0.000000, 0.000000, 0.000000, -20191.000000, 642.564087, 4.000000, 4.000000, 4.000000, 4.000000, 4.000000, 4.000000, 4.000000, 4.000000, 0.000000, 4.000000, 4.000000, 4.000000, 4.000000, 4.000000, 4.000000, 4.000000
4.000000, 0.000000, 4280.000000, 4390.256348, 4207.179199, 4229.230469, 4242.051270, 4187.179199, 4178.974121, 4188.717773, 4201.025391, 4214.358887, 4220.000000, 4203.589844, 4341.025391, 4226.666504, 3548.000000, 8141.000000, 8074.000000, 0.000000, 0.000000, 0.000000, -20191.000000, 650.769226, 4.000000, 4.000000, 4.000000, 4.000000, 4.000000, 4.000000, 4.000000, 4.000000, 0.000000, 4.000000, 4.000000, 4.000000, 4.000000, 4.000000, 4.000000, 4.000000
5.000000, 0.000000, 4285.127930, 4388.717773, 4214.871582, 4218.974121, 4233.846191, 4192.307617, 4174.871582, 4193.846191, 4202.563965, 4214.871582, 4227.179199, 4212.820313, 4344.615234, 4232.307617, 3577.000000, 8142.000000, 8067.000000, 0.000000, 0.000000, 0.000000, -20191.000000, 658.461548, 4.000000, 4.000000, 4.000000, 4.000000, 4.000000, 4.000000, 4.000000, 4.000000, 0.000000, 4.000000, 4.000000, 4.000000, 4.000000, 4.000000, 4.000000, 4.000000
6.000000, 0.000000, 4287.692383, 4381.025391, 4214.871582, 4211.281738, 4237.948730, 4204.102539, 4192.820313, 4211.794922, 4204.615234, 4219.487305, 4234.871582, 4215.897461, 4355.897461, 4235.384277, 3360.000000, 8142.000000, 8067.000000, 0.000000, 0.000000, 0.000000, -20191.000000, 666.153809, 4.000000, 4.000000, 4.000000, 4.000000, 4.000000, 4.000000, 4.000000, 4.000000, 0.000000, 4.000000, 4.000000, 4.000000, 4.000000, 4.000000, 4.000000, 4.000000
7.000000, 0.000000, 4291.281738, 4382.051270, 4215.897461, 4231.794922, 4246.153809, 4204.615234, 4204.615234, 4224.615234, 4203.589844, 4223.076660, 4233.333008, 4208.717773, 4371.794922, 4232.820313, 3487.000000, 8141.000000, 8065.000000, 0.000000, 0.000000, 0.000000, -20191.000000, 673.846130, 4.000000, 4.000000, 4.000000, 4.000000, 4.000000, 4.000000, 4.000000, 4.000000, 0.000000, 4.000000, 4.000000, 4.000000, 4.000000, 4.000000, 4.000000, 4.000000
8.000000, 0.000000, 4277.948730, 4376.410156, 4213.846191, 4226.153809, 4233.846191, 4194.871582, 4195.384277, 4214.871582, 4202.563965, 4221.025391, 4229.230469, 4203.076660, 4366.153809, 4221.025391, 0.000000, 8141.000000, 8065.000000, 0.000000, 0.000000, 0.000000, -20191.000000, 682.051270, 4.000000, 4.000000, 4.000000, 4.000000, 4.000000, 4.000000, 4.000000, 4.000000, 0.000000, 4.000000, 4.000000, 4.000000, 4.000000, 4.000000, 4.000000, 4.000000
9.000000, 0.000000, 4268.717773, 4381.025391, 4205.127930, 4200.512695, 4228.717773, 4198.974121, 4198.974121, 4213.846191, 4203.076660, 4220.000000, 4231.794922, 4205.641113, 4357.948730, 4213.333008, 2993.000000, 8141.000000, 8065.000000, 0.000000, 0.000000, 0.000000, -20191.000000, 690.256409, 4.000000, 4.000000, 4.000000, 4.000000, 4.000000, 4.000000, 4.000000, 4.000000, 0.000000, 4.000000, 4.000000, 4.000000, 4.000000, 4.000000, 4.000000, 4.000000
10.000000, 0.000000, 4274.358887, 4390.256348, 4201.025391, 4203.076660, 4250.256348, 4212.820313, 4207.692383, 4231.281738, 4203.589844, 4227.179199, 4233.333008, 4214.358887, 4364.615234, 4215.897461, 3575.000000, 8141.000000, 8065.000000, 0.000000, 0.000000, 0.000000, -20191.000000, 697.948730, 4.000000, 4.000000, 4.000000, 4.000000, 4.000000, 4.000000, 4.000000, 4.000000, 0.000000, 4.000000, 4.000000, 4.000000, 4.000000, 4.000000, 4.000000, 4.000000
11.000000, 0.000000, 4271.281738, 4381.025391, 4204.102539, 4207.692383, 4250.256348, 4213.333008, 4202.563965, 4235.897461, 4202.051270, 4235.897461, 4234.358887, 4217.436035, 4374.871582, 4217.436035, 3551.000000, 8147.000000, 8062.000000, 0.000000, 0.000000, 0.000000, -20191.000000, 705.640991, 4.000000, 4.000000, 4.000000, 4.000000, 4.000000, 4.000000, 4.000000, 4.000000, 0.000000, 4.000000, 4.000000, 4.000000, 4.000000, 4.000000, 4.000000, 4.000000
12.000000, 0.000000, 4268.717773, 4388.205078, 4208.205078, 4208.205078, 4228.717773, 4202.563965, 4204.615234, 4233.333008, 4200.512695, 4232.307617, 4232.307617, 4211.794922, 4379.487305, 4216.410156, 3517.000000, 8147.000000, 8062.000000, 0.000000, 0.000000, 0.000000, -20191.000000, 713.846130, 4.000000, 4.000000, 4.000000, 4.000000, 4.000000, 4.000000, 4.000000, 4.000000, 0.000000, 4.000000, 4.000000, 4.000000, 4.000000, 4.000000, 4.000000, 4.000000
13.000000, 0.000000, 4278.461426, 4413.846191, 4214.358887, 4220.512695, 4237.436035, 4203.076660, 4214.358887, 4245.127930, 4202.563965, 4225.641113, 4231.281738, 4216.410156, 4386.153809, 4221.538574, 3455.000000, 8149.000000, 8064.000000, 0.000000, 0.000000, 0.000000, -20191.000000, 721.538452, 4.000000, 4.000000, 4.000000, 4.000000, 4.000000, 4.000000, 4.000000, 4.000000, 0.000000, 4.000000, 4.000000, 4.000000, 4.000000, 4.000000, 4.000000, 4.000000
14.000000, 0.000000, 4282.563965, 4414.358887, 4218.461426, 4216.922852, 4263.076660, 4215.897461, 4208.205078, 4258.974121, 4204.615234, 4234.358887, 4244.615234, 4229.743652, 4409.230469, 4226.666504, 3575.000000, 8149.000000, 8064.000000, 0.000000, 0.000000, 0.000000, -20191.000000, 729.743591, 4.000000, 4.000000, 4.000000, 4.000000, 4.000000, 4.000000, 4.000000, 4.000000, 0.000000, 4.000000, 4.000000, 4.000000, 4.000000, 4.000000, 4.000000, 4.000000
15.000000, 0.000000, 4275.897461, 4409.230469, 4212.307617, 4202.563965, 4263.589844, 4216.922852, 4196.922852, 4242.563965, 4204.102539, 4235.897461, 4246.666504, 4227.179199, 4436.410156, 4220.000000, 3551.000000, 8146.000000, 8061.000000, 0.000000, 0.000000, 0.000000, -20191.000000, 737.435852, 4.000000, 4.000000, 4.000000, 4.000000, 4.000000, 4.000000, 4.000000, 4.000000, 0.000000, 4.000000, 4.000000, 4.000000, 4.000000, 4.000000, 4.000000, 4.000000
16.000000, 0.000000, 4273.846191, 4417.435547, 4207.179199, 4208.205078, 4249.230469, 4209.743652, 4198.974121, 4227.692383, 4202.563965, 4220.512695, 4232.820313, 4217.436035, 4445.127930, 4213.846191, 0.000000, 8146.000000, 8061.000000, 0.000000, 0.000000, 0.000000, -20191.000000, 745.128174, 4.000000, 4.000000, 4.000000, 4.000000, 4.000000, 4.000000, 4.000000, 4.000000, 0.000000, 4.000000, 4.000000, 4.000000, 4.000000, 4.000000, 4.000000, 4.000000
17.000000, 0.000000, 4277.948730, 4427.692383, 4206.153809, 4210.256348, 4246.153809, 4213.333008, 4203.589844, 4231.281738, 4203.076660, 4213.846191, 4227.692383, 4217.948730, 4445.641113, 4215.897461, 0.000000, 8152.000000, 8065.000000, 0.000000, 0.000000, 0.000000, -20191.000000, 753.333313, 4.000000, 4.000000, 4.000000, 4.000000, 4.000000, 4.000000, 4.000000, 4.000000, 0.000000, 4.000000, 4.000000, 4.000000, 4.000000, 4.000000, 4.000000, 4.000000
18.000000, 0.000000, 4279.487305, 4444.102539, 4205.641113, 4202.051270, 4247.692383, 4217.436035, 4202.563965, 4224.102539, 4203.076660, 4215.384277, 4225.127930, 4218.974121, 4455.384277, 4213.846191, 0.000000, 8152.000000, 8065.000000, 0.000000, 0.000000, 0.000000, -20191.000000, 761.025635, 4.000000, 4.000000, 4.000000, 4.000000, 4.000000, 4.000000, 4.000000, 4.000000, 0.000000, 4.000000, 4.000000, 4.000000, 4.000000, 4.000000, 4.000000, 4.000000
19.000000, 0.000000, 4276.410156, 4447.179199, 4206.153809, 4202.051270, 4244.615234, 4207.692383, 4201.025391, 4216.922852, 4202.563965, 4211.794922, 4214.871582, 4216.410156, 4466.666504, 4209.230469, 0.000000, 8149.000000, 8070.000000, 0.000000, 0.000000, 0.000000, -20191.000000, 768.717957, 4.000000, 4.000000, 4.000000, 4.000000, 4.000000, 4.000000, 4.000000, 4.000000, 0.000000, 4.000000, 4.000000, 4.000000, 4.000000, 4.000000, 4.000000, 4.000000
20.000000, 0.000000, 4275.384277, 4432.820313, 4205.127930, 4199.487305, 4244.102539, 4201.025391, 4197.948730, 4238.461426, 4202.563965, 4213.846191, 4215.384277, 4218.974121, 4482.051270, 4211.794922, 0.000000, 8149.000000, 8070.000000, 0.000000, 0.000000, 0.000000, -20191.000000, 776.410217, 4.000000, 4.000000, 4.000000, 4.000000, 4.000000, 4.000000, 4.000000, 4.000000, 0.000000, 4.000000, 4.000000, 4.000000, 4.000000, 4.000000, 4.000000, 4.000000
21.000000, 0.000000, 4274.358887, 4435.897461, 4203.589844, 4196.922852, 4247.692383, 4210.769043, 4206.153809, 4257.948730, 4202.563965, 4218.461426, 4220.512695, 4221.025391, 4505.127930, 4209.230469, 0.000000, 8148.000000, 8080.000000, 0.000000, 0.000000, 0.000000, -20191.000000, 784.615356, 4.000000, 4.000000, 4.000000, 4.000000, 4.000000, 4.000000, 4.000000, 4.000000, 0.000000, 4.000000, 4.000000, 4.000000, 4.000000, 4.000000, 4.000000, 4.000000
22.000000, 0.000000, 4266.666504, 4447.692383, 4199.487305, 4196.922852, 4250.769043, 4213.333008, 4209.743652, 4236.922852, 4203.076660, 4209.230469, 4209.743652, 4215.384277, 4517.435547, 4201.538574, 0.000000, 8148.000000, 8080.000000, 0.000000, 0.000000, 0.000000, -20191.000000, 792.307678, 4.000000, 4.000000, 4.000000, 4.000000, 4.000000, 4.000000, 4.000000, 4.000000, 0.000000, 4.000000, 4.000000, 4.000000, 4.000000, 4.000000, 4.000000, 4.000000
23.000000, 0.000000, 4264.615234, 4441.538574, 4200.512695, 4192.820313, 4246.666504, 4207.179199, 4204.102539, 4235.384277, 4202.563965, 4209.743652, 4208.205078, 4213.333008, 4529.230469, 4203.076660, 0.000000, 8151.000000, 8080.000000, 0.000000, 0.000000, 0.000000, -20191.000000, 800.000000, 4.000000, 4.000000, 4.000000, 4.000000, 4.000000, 4.000000, 4.000000, 4.000000, 0.000000, 4.000000, 4.000000, 4.000000, 4.000000, 4.000000, 4.000000, 4.000000
24.000000, 0.000000, 4276.922852, 4443.076660, 4209.743652, 4196.922852, 4242.563965, 4212.820313, 4213.846191, 4267.179199, 4203.076660, 4229.230469, 4225.127930, 4222.051270, 4556.922852, 4215.897461, 0.000000, 8151.000000, 8080.000000, 0.000000, 0.000000, 0.000000, -20191.000000, 808.205078, 4.000000, 4.000000, 4.000000, 4.000000, 4.000000, 4.000000, 4.000000, 4.000000, 0.000000, 4.000000, 4.000000, 4.000000, 4.000000, 4.000000, 4.000000, 4.000000
25.000000, 0.000000, 4293.846191, 4457.435547, 4221.538574, 4213.846191, 4252.820313, 4221.025391, 4221.025391, 4268.205078, 4204.615234, 4235.897461, 4240.000000, 4235.897461, 4585.127930, 4228.205078, 0.000000, 8151.000000, 8082.000000, 0.000000, 0.000000, 0.000000, -20191.000000, 815.897400, 4.000000, 4.000000, 4.000000, 4.000000, 4.000000, 4.000000, 4.000000, 4.000000, 0.000000, 4.000000, 4.000000, 4.000000, 4.000000, 4.000000, 4.000000, 4.000000
26.000000, 0.000000, 4294.358887, 4458.974121, 4224.615234, 4221.025391, 4261.538574, 4212.307617, 4208.717773, 4247.692383, 4204.102539, 4233.333008, 4238.974121, 4235.897461, 4592.820313, 4228.205078, 0.000000, 8151.000000, 8082.000000, 0.000000, 0.000000, 0.000000, -20191.000000, 824.102539, 4.000000, 4.000000, 4.000000, 4.000000, 4.000000, 4.000000, 4.000000, 4.000000, 0.000000, 4.000000, 4.000000, 4.000000, 4.000000, 4.000000, 4.000000, 4.000000
27.000000, 0.000000, 4275.897461, 4447.179199, 4209.743652, 4207.692383, 4253.333008, 4203.076660, 4204.615234, 4240.512695, 4203.076660, 4230.769043, 4224.102539, 4218.461426, 4577.948730, 4209.743652, 0.000000, 8154.000000, 8073.000000, 0.000000, 0.000000, 0.000000, -20191.000000, 831.794861, 4.000000, 4.000000, 4.000000, 4.000000, 4.000000, 4.000000, 4.000000, 4.000000, 0.000000, 4.000000, 4.000000, 4.000000, 4.000000, 4.000000, 4.000000, 4.000000
28.000000, 0.000000, 4269.743652, 4444.615234, 4200.512695, 4202.563965, 4252.307617, 4201.025391, 4199.487305, 4223.076660, 4202.051270, 4223.076660, 4215.384277, 4209.230469, 4574.358887, 4199.487305, 0.000000, 8154.000000, 8073.000000, 0.000000, 0.000000, 0.000000, -20191.000000, 840.000000, 4.000000, 4.000000, 4.000000, 4.000000, 4.000000, 4.000000, 4.000000, 4.000000, 0.000000, 4.000000, 4.000000, 4.000000, 4.000000, 4.000000, 4.000000, 4.000000
29.000000, 0.000000, 4283.076660, 4450.769043, 4209.230469, 4214.358887, 4260.512695, 4191.281738, 4183.076660, 4196.922852, 4201.538574, 4215.897461, 4220.512695, 4213.333008, 4588.205078, 4208.717773, 0.000000, 8160.000000, 8070.000000, 0.000000, 0.000000, 0.000000, -20191.000000, 847.692261, 4.000000, 4.000000, 4.000000, 4.000000, 4.000000, 4.000000, 4.000000, 4.000000, 0.000000, 4.000000, 4.000000, 4.000000, 4.000000, 4.000000, 4.000000, 4.000000
30.000000, 0.000000, 4285.127930, 4446.153809, 4216.922852, 4216.410156, 4254.871582, 4186.153809, 4190.769043, 4206.153809, 4201.025391, 4212.307617, 4218.461426, 4212.307617, 4581.025391, 4207.692383, 0.000000, 8160.000000, 8070.000000, 0.000000, 0.000000, 0.000000, -20191.000000, 855.384583, 4.000000, 4.000000, 4.000000, 4.000000, 4.000000, 4.000000, 4.000000, 4.000000, 0.000000, 4.000000, 4.000000, 4.000000, 4.000000, 4.000000, 4.000000, 4.000000
31.000000, 0.000000, 4283.076660, 4442.051270, 4216.410156, 4212.307617, 4249.230469, 4189.743652, 4201.025391, 4217.948730, 4201.025391, 4210.769043, 4212.820313, 4209.743652, 4565.127930, 4204.102539, 0.000000, 8171.000000, 8088.000000, 0.000000, 0.000000, 0.000000, -20191.000000, 863.589722, 4.000000, 4.000000, 4.000000, 4.000000, 4.000000, 4.000000, 4.000000, 4.000000, 0.000000, 4.000000, 4.000000, 4.000000, 4.000000, 4.000000, 4.000000, 4.000000
32.000000, 0.000000, 4294.871582, 4453.333008, 4217.436035, 4224.102539, 4261.538574, 4186.666504, 4182.563965, 4203.076660, 4201.025391, 4216.410156, 4225.641113, 4217.948730, 4573.333008, 4214.871582, 0.000000, 8171.000000, 8088.000000, 0.000000, 0.000000, 0.000000, -20191.000000, 871.282043, 4.000000, 4.000000, 4.000000, 4.000000, 4.000000, 4.000000, 4.000000, 4.000000, 0.000000, 4.000000, 4.000000, 4.000000, 4.000000, 4.000000, 4.000000, 4.000000
33.000000, 0.000000, 4297.948730, 4455.897461, 4218.974121, 4234.871582, 4267.692383, 4189.743652, 4174.358887, 4201.025391, 4201.025391, 4222.051270, 4232.820313, 4220.512695, 4575.384277, 4215.384277, 0.000000, 8179.000000, 8085.000000, 0.000000, 0.000000, 0.000000, -20191.000000, 879.487183, 4.000000, 4.000000, 4.000000, 4.000000, 4.000000, 4.000000, 4.000000, 4.000000, 0.000000, 4.000000, 4.000000, 4.000000, 4.000000, 4.000000, 4.000000, 4.000000
34.000000, 0.000000, 4290.256348, 4442.051270, 4221.025391, 4229.743652, 4260.512695, 4200.000000, 4188.717773, 4214.871582, 4201.025391, 4227.692383, 4228.717773, 4219.487305, 4565.641113, 4209.230469, 0.000000, 8179.000000, 8085.000000, 0.000000, 0.000000, 0.000000, -20191.000000, 887.179443, 4.000000, 4.000000, 4.000000, 4.000000, 4.000000, 4.000000, 4.000000, 4.000000, 0.000000, 4.000000, 4.000000, 4.000000, 4.000000, 4.000000, 4.000000, 4.000000
35.000000, 0.000000, 4295.384277, 4443.076660, 4230.769043, 4230.256348, 4263.589844, 4196.922852, 4186.153809, 4209.230469, 4201.538574, 4245.127930, 4242.563965, 4231.794922, 4574.358887, 4219.487305, 0.000000, 8191.000000, 8077.000000, 0.000000, 0.000000, 0.000000, -20191.000000, 894.871765, 4.000000, 4.000000, 4.000000, 4.000000, 4.000000, 4.000000, 4.000000, 4.000000, 0.000000, 4.000000, 4.000000, 4.000000, 4.000000, 4.000000, 4.000000, 4.000000
36.000000, 0.000000, 4300.512695, 4454.358887, 4234.871582, 4237.948730, 4276.410156, 4190.769043, 4169.230469, 4189.230469, 4201.025391, 4245.641113, 4245.127930, 4232.307617, 4569.743652, 4223.076660, 0.000000, 8191.000000, 8077.000000, 0.000000, 0.000000, 0.000000, -20191.000000, 903.076904, 4.000000, 4.000000, 4.000000, 4.000000, 4.000000, 4.000000, 4.000000, 4.000000, 0.000000, 4.000000, 4.000000, 4.000000, 4.000000, 4.000000, 4.000000, 4.000000
37.000000, 0.000000, 4287.179199, 4446.666504, 4222.051270, 4232.307617, 4282.051270, 4198.461426, 4168.205078, 4191.794922, 4201.025391, 4218.461426, 4216.922852, 4209.743652, 4537.435547, 4202.563965, 0.000000, 8195.000000, 8082.000000, 0.000000, 0.000000, 0.000000, -20191.000000, 910.769226, 4.000000, 4.000000, 4.000000, 4.000000, 4.000000, 4.000000, 4.000000, 4.000000, 0.000000, 4.000000, 4.000000, 4.000000, 4.000000, 4.000000, 4.000000, 4.000000
38.000000, 0.000000, 4273.846191, 4431.794922, 4212.820313, 4218.974121, 4277.436035, 4204.615234, 4184.615234, 4197.436035, 4202.051270, 4202.051270, 4197.948730, 4195.897461, 4510.769043, 4185.127930, 0.000000, 8195.000000, 8082.000000, 0.000000, 0.000000, 0.000000, -20191.000000, 918.974365, 4.000000, 4.000000, 4.000000, 4.000000, 4.000000, 4.000000, 4.000000, 4.000000, 0.000000, 4.000000, 4.000000, 4.000000, 4.000000, 4.000000, 4.000000, 4.000000
39.000000, 0.000000, 4273.846191, 4424.615234, 4214.871582, 4213.846191, 4272.307617, 4205.641113, 4197.948730, 4200.000000, 4204.102539, 4203.589844, 4200.000000, 4203.076660, 4496.922852, 4183.589844, 0.000000, 8196.000000, 8086.000000, 0.000000, 0.000000, 0.000000, -20191.000000, 926.666626, 4.000000, 4.000000, 4.000000, 4.000000, 4.000000, 4.000000, 4.000000, 4.000000, 0.000000, 4.000000, 4.000000, 4.000000, 4.000000, 4.000000, 4.000000, 4.000000
40.000000, 0.000000, 4279.487305, 4431.794922, 4217.948730, 4215.384277, 4272.820313, 4205.641113, 4192.307617, 4215.384277, 4203.589844, 4209.230469, 4205.127930, 4211.794922, 4495.384277, 4190.256348, 0.000000, 8196.000000, 8086.000000, 0.000000, 0.000000, 0.000000, -20191.000000, 934.871765, 4.000000, 4.000000, 4.000000, 4.000000, 4.000000, 4.000000, 4.000000, 4.000000, 0.000000, 4.000000, 4.000000, 4.000000, 4.000000, 4.000000, 4.000000, 4.000000
41.000000, 0.000000, 4281.025391, 4445.641113, 4217.436035, 4219.487305, 4275.897461, 4205.641113, 4193.333008, 4213.846191, 4202.563965, 4214.358887, 4212.307617, 4211.281738, 4503.076660, 4198.461426, 0.000000, 8197.000000, 8085.000000, 0.000000, 0.000000, 0.000000, -20191.000000, 942.564087, 4.000000, 4.000000, 4.000000, 4.000000, 4.000000, 4.000000, 4.000000, 4.000000, 0.000000, 4.000000, 4.000000, 4.000000, 4.000000, 4.000000, 4.000000, 4.000000
42.000000, 0.000000, 4280.000000, 4442.563965, 4216.922852, 4222.051270, 4280.000000, 4205.641113, 4201.025391, 4196.410156, 4203.076660, 4215.897461, 4217.948730, 4207.179199, 4503.076660, 4199.487305, 0.000000, 8197.000000, 8085.000000, 0.000000, 0.000000, 0.000000, -20191.000000, 950.256409, 4.000000, 4.000000, 4.000000, 4.000000, 4.000000, 4.000000, 4.000000, 4.000000, 0.000000, 4.000000, 4.000000, 4.000000, 4.000000, 4.000000, 4.000000, 4.000000
43.000000, 0.000000, 4280.000000, 4423.589844, 4217.436035, 4220.000000, 4276.410156, 4204.102539, 4194.871582, 4195.897461, 4203.076660, 4216.410156, 4216.410156, 4202.563965, 4492.820313, 4191.281738, 0.000000, 8199.000000, 8074.000000, 0.000000, 0.000000, 0.000000, -20191.000000, 958.461487, 4.000000, 4.000000, 4.000000, 4.000000, 4.000000, 4.000000, 4.000000, 4.000000, 0.000000, 4.000000, 4.000000, 4.000000, 4.000000, 4.000000, 4.000000, 4.000000
44.000000, 0.000000, 4280.000000, 4432.820313, 4215.897461, 4222.563965, 4274.358887, 4199.487305, 4183.076660, 4201.538574, 4203.076660, 4224.102539, 4215.384277, 4199.487305, 4491.794922, 4187.692383, 0.000000, 8199.000000, 8074.000000, 0.000000, 0.000000, 0.000000, -20191.000000, 966.153809, 4.000000, 4.000000, 4.000000, 4.000000, 4.000000, 4.000000, 4.000000, 4.000000, 0.000000, 4.000000, 4.000000, 4.000000, 4.000000, 4.000000, 4.000000, 4.000000
45.000000, 0.000000, 4289.230469, 4449.230469, 4221.025391, 4232.307617, 4284.615234, 4201.538574, 4182.563965, 4200.000000, 4203.076660, 4234.358887, 4223.589844, 4206.153809, 4502.563965, 4200.512695, 0.000000, 8209.000000, 8058.000000, 0.000000, 0.000000, 0.000000, -20191.000000, 974.358948, 4.000000, 4.000000, 4.000000, 4.000000, 4.000000, 4.000000, 4.000000, 4.000000, 0.000000, 4.000000, 4.000000, 4.000000, 4.000000, 4.000000, 4.000000, 4.000000
46.000000, 0.000000, 4318.974121, 4410.256348, 4234.871582, 4236.410156, 4287.692383, 4205.127930, 4193.846191, 4211.794922, 4203.076660, 4236.410156, 4230.769043, 4218.461426, 4505.127930, 4214.871582, 0.000000, 8209.000000, 8058.000000, 0.000000, 0.000000, 0.000000, -20191.000000, 982.051270, 4.000000, 4.000000, 4.000000, 4.000000, 4.000000, 4.000000, 4.000000, 4.000000, 0.000000, 4.000000, 4.000000, 4.000000, 4.000000, 4.000000, 4.000000, 4.000000
47.000000, 0.000000, 4323.589844, 4393.846191, 4234.871582, 4236.922852, 4277.436035, 4200.512695, 4194.358887, 4210.769043, 4203.076660, 4228.717773, 4224.102539, 4218.461426, 4491.281738, 4212.307617, 0.000000, 8211.000000, 8051.000000, 0.000000, 0.000000, 0.000000, -20191.000000, 989.743591, 4.000000, 4.000000, 4.000000, 4.000000, 4.000000, 4.000000, 4.000000, 4.000000, 0.000000, 4.000000, 4.000000, 4.000000, 4.000000, 4.000000, 4.000000, 4.000000
48.000000, 0.000000, 4286.153809, 4433.846191, 4219.487305, 4231.794922, 4273.846191, 4198.461426, 4188.717773, 4191.281738, 4203.076660, 4222.051270, 4218.461426, 4212.307617, 4472.820313, 4205.641113, 0.000000, 8211.000000, 8051.000000, 0.000000, 0.000000, 0.000000, -20191.000000, 997.948669, 4.000000, 4.000000, 4.000000, 4.000000, 4.000000, 4.000000, 4.000000, 4.000000, 0.000000, 4.000000, 4.000000, 4.000000, 4.000000, 4.000000, 4.000000, 4.000000
49.000000, 0.000000, 4269.743652, 4440.000000, 4215.384277, 4218.461426, 4280.000000, 4198.461426, 4190.256348, 4202.563965, 4203.076660, 4230.256348, 4229.743652, 4218.461426, 4465.641113, 4210.256348, 0.000000, 8228.000000, 8023.000000, 0.000000, 0.000000, 0.000000, -20190.000000, 5.641026, 4.000000, 4.000000, 4.000000, 4.000000, 4.000000, 4.000000, 4.000000, 4.000000, 0.000000, 4.000000, 4.000000, 4.000000, 4.000000, 4.000000, 4.000000, 4.000000
50.000000, 0.000000, 4286.666504, 4412.820313, 4222.051270, 4215.897461, 4281.025391, 4197.948730, 4194.871582, 4224.615234, 4202.051270, 4233.846191, 4233.333008, 4222.563965, 4456.410156, 4210.769043, 0.000000, 8228.000000, 8023.000000, 0.000000, 0.000000, 0.000000, -20190.000000, 13.846153, 4.000000, 4.000000, 4.000000, 4.000000, 4.000000, 4.000000, 4.000000, 4.000000, 0.000000, 4.000000, 4.000000, 4.000000, 4.000000, 4.000000, 4.000000, 4.000000
51.000000, 0.000000, 4282.563965, 4421.025391, 4217.948730, 4221.025391, 4273.333008, 4202.051270, 4200.512695, 4213.846191, 4201.538574, 4220.000000, 4217.436035, 4213.333008, 4434.871582, 4195.384277, 0.000000, 8242.000000, 7996.000000, 0.000000, 0.000000, 0.000000, -20190.000000, 21.538462, 4.000000, 4.000000, 4.000000, 4.000000, 4.000000, 4.000000, 4.000000, 4.000000, 0.000000, 4.000000, 4.000000, 4.000000, 4.000000, 4.000000, 4.000000, 4.000000
52.000000, 0.000000, 4269.230469, 4437.435547, 4211.794922, 4216.410156, 4265.641113, 4199.487305, 4192.820313, 4185.641113, 4202.051270, 4219.487305, 4216.922852, 4211.281738, 4427.692383, 4190.256348, 0.000000, 8242.000000, 7996.000000, 0.000000, 0.000000, 0.000000, -20190.000000, 29.230768, 4.000000, 4.000000, 4.000000, 4.000000, 4.000000, 4.000000, 4.000000, 4.000000, 0.000000, 4.000000, 4.000000, 4.000000, 4.000000, 4.000000, 4.000000, 4.000000
53.000000, 0.000000, 4277.436035, 4438.461426, 4215.897461, 4213.333008, 4264.615234, 4191.794922, 4182.051270, 4194.871582, 4203.076660, 4236.410156, 4234.358887, 4219.487305, 4432.820313, 4203.589844, 0.000000, 8246.000000, 7986.000000, 0.000000, 0.000000, 0.000000, -20190.000000, 37.435898, 4.000000, 4.000000, 4.000000, 4.000000, 4.000000, 4.000000, 4.000000, 4.000000, 0.000000, 4.000000, 4.000000, 4.000000, 4.000000, 4.000000, 4.000000, 4.000000
54.000000, 0.000000, 4283.076660, 4454.358887, 4218.461426, 4218.461426, 4267.179199, 4194.358887, 4189.230469, 4223.589844, 4203.589844, 4234.871582, 4235.897461, 4220.000000, 4422.563965, 4210.769043, 0.000000, 8246.000000, 7986.000000, 0.000000, 0.000000, 0.000000, -20190.000000, 45.128204, 4.000000, 4.000000, 4.000000, 4.000000, 4.000000, 4.000000, 4.000000, 4.000000, 0.000000, 4.000000, 4.000000, 4.000000, 4.000000, 4.000000, 4.000000, 4.000000
55.000000, 0.000000, 4278.461426, 4458.974121, 4213.846191, 4217.948730, 4265.641113, 4200.000000, 4201.025391, 4224.615234, 4204.102539, 4228.717773, 4231.794922, 4218.461426, 4405.641113, 4207.692383, 0.000000, 8261.000000, 7993.000000, 0.000000, 0.000000, 0.000000, -20190.000000, 52.820511, 4.000000, 4.000000, 4.000000, 4.000000, 4.000000, 4.000000, 4.000000, 4.000000, 0.000000, 4.000000, 4.000000, 4.000000, 4.000000, 4.000000, 4.000000, 4.000000
56.000000, 0.000000, 4279.487305, 4458.974121, 4215.384277, 4216.410156, 4265.127930, 4196.410156, 4191.281738, 4215.897461, 4204.102539, 4242.563965, 4242.563965, 4227.692383, 4395.897461, 4207.179199, 0.000000, 8261.000000, 7993.000000, 0.000000, 0.000000, 0.000000, -20190.000000, 61.025639, 4.000000, 4.000000, 4.000000, 4.000000, 4.000000, 4.000000, 4.000000, 4.000000, 0.000000, 4.000000, 4.000000, 4.000000, 4.000000, 4.000000, 4.000000, 4.000000
57.000000, 0.000000, 4281.538574, 4475.897461, 4219.487305, 4221.025391, 4266.153809, 4193.846191, 4184.102539, 4225.127930, 4204.102539, 4243.076660, 4243.076660, 4224.615234, 4375.384277, 4209.230469, 0.000000, 8265.000000, 8010.000000, 0.000000, 0.000000, 0.000000, -20190.000000, 68.717949, 4.000000, 4.000000, 4.000000, 4.000000, 4.000000, 4.000000, 4.000000, 4.000000, 0.000000, 4.000000, 4.000000, 4.000000, 4.000000, 4.000000, 4.000000, 4.000000
58.000000, 0.000000, 4279.487305, 4478.974121, 4214.358887, 4222.051270, 4265.641113, 4200.512695, 4193.333008, 4230.769043, 4204.102539, 4222.563965, 4221.025391, 4205.641113, 4343.589844, 4199.487305, 0.000000, 8265.000000, 8010.000000, 0.000000, 0.000000, 0.000000, -20190.000000, 76.923073, 4.000000, 4.000000, 4.000000, 4.000000, 4.000000, 4.000000, 4.000000, 4.000000, 0.000000, 4.000000, 4.000000, 4.000000, 4.000000, 4.000000, 4.000000, 4.000000
59.000000, 0.000000, 4277.948730, 4465.127930, 4211.281738, 4218.974121, 4266.153809, 4202.051270, 4190.256348, 4211.794922, 4204.102539, 4212.307617, 4209.230469, 4198.974121, 4324.102539, 4187.179199, 0.000000, 8273.000000, 8035.000000, 0.000000, 0.000000, 0.000000, -20190.000000, 84.615379, 4.000000, 4.000000, 4.000000, 4.000000, 4.000000, 4.000000, 4.000000, 4.000000, 0.000000, 4.000000, 4.000000, 4.000000, 4.000000, 4.000000, 4.000000, 4.000000
60.000000, 0.000000, 4283.076660, 4462.051270, 4212.307617, 4220.512695, 4268.205078, 4200.000000, 4190.256348, 4207.692383, 4204.102539, 4214.358887, 4215.897461, 4204.102539, 4319.487305, 4190.769043, 0.000000, 8273.000000, 8035.000000, 0.000000, 0.000000, 0.000000, -20190.000000, 92.307693, 4.000000, 4.000000, 4.000000, 4.000000, 4.000000, 4.000000, 4.000000, 4.000000, 0.000000, 4.000000, 4.000000, 4.000000, 4.000000, 4.000000, 4.000000, 4.000000
61.000000, 0.000000, 4284.615234, 4463.589844, 4206.666504, 4222.563965, 4266.666504, 4203.589844, 4202.563965, 4225.127930, 4203.589844, 4216.922852, 4215.897461, 4204.615234, 4310.769043, 4191.794922, 0.000000, 8270.000000, 8052.000000, 0.000000, 0.000000, 0.000000, -20190.000000, 100.512817, 4.000000, 4.000000, 4.000000, 4.000000, 4.000000, 4.000000, 4.000000, 4.000000, 0.000000, 4.000000, 4.000000, 4.000000, 4.000000, 4.000000, 4.000000, 4.000000
62.000000, 0.000000, 4270.769043, 4437.435547, 4197.948730, 4215.384277, 4262.563965, 4204.615234, 4202.051270, 4224.102539, 4202.563965, 4212.820313, 4204.102539, 4195.897461, 4289.230469, 4174.871582, 0.000000, 8270.000000, 8052.000000, 0.000000, 0.000000, 0.000000, -20190.000000, 108.205124, 4.000000, 4.000000, 4.000000, 4.000000, 4.000000, 4.000000, 4.000000, 4.000000, 0.000000, 4.000000, 4.000000, 4.000000, 4.000000, 4.000000, 4.000000, 4.000000
63.000000, 0.000000, 4257.948730, 4415.384277, 4195.897461, 4206.666504, 4261.025391, 4202.051270, 4200.512695, 4211.794922, 4202.051270, 4200.000000, 4191.794922, 4185.127930, 4270.256348, 4160.512695, 0.000000, 8268.000000, 8065.000000, 0.000000, 0.000000, 0.000000, -20190.000000, 115.897430, 4.000000, 4.000000, 4.000000, 4.000000, 4.000000, 4.000000, 4.000000, 4.000000, 0.000000, 4.000000, 4.000000, 4.000000, 4.000000, 4.000000, 4.000000, 4.000000
64.000000, 0.000000, 4270.256348, 4427.179199, 4201.025391, 4209.743652, 4263.076660, 4205.127930, 4210.769043, 4224.102539, 4201.538574, 4196.922852, 4193.846191, 4185.127930, 4273.846191, 4166.666504, 3180.000000, 8268.000000, 8065.000000, 0.000000, 0.000000, 0.000000, -20190.000000, 124.102562, 4.000000, 4.000000, 4.000000, 4.000000, 4.000000, 4.000000, 4.000000, 4.000000, 0.000000, 4.000000, 4.000000, 4.000000, 4.000000, 4.000000, 4.000000, 4.000000
65.000000, 0.000000, 4282.563965, 4434.358887, 4204.615234, 4213.846191, 4269.743652, 4210.769043, 4208.717773, 4237.436035, 4202.051270, 4208.717773, 4200.000000, 4193.846191, 4274.871582, 4172.307617, 3542.000000, 8256.000000, 8069.000000, 0.000000, 0.000000, 0.000000, -20190.000000, 131.794876, 4.000000, 4.000000, 4.000000, 4.000000, 4.000000, 4.000000, 4.000000, 4.000000, 0.000000, 4.000000, 4.000000, 4.000000, 4.000000, 4.000000, 4.000000, 4.000000
66.000000, 0.000000, 4266.666504, 4417.948730, 4200.512695, 4209.230469, 4276.410156, 4214.871582, 4199.487305, 4218.461426, 4202.563965, 4199.487305, 4185.641113, 4188.205078, 4250.256348, 4158.461426, 3555.000000, 8256.000000, 8069.000000, 0.000000, 0.000000, 0.000000, -20190.000000, 139.487183, 4.000000, 4.000000, 4.000000, 4.000000, 4.000000, 4.000000, 4.000000, 4.000000, 0.000000, 4.000000, 4.000000, 4.000000, 4.000000, 4.000000, 4.000000, 4.000000
67.000000, 0.000000, 4262.051270, 4407.692383, 4197.948730, 4210.769043, 4279.487305, 4215.384277, 4207.179199, 4218.461426, 4203.076660, 4187.692383, 4177.436035, 4182.051270, 4244.615234, 4154.358887, 2489.000000, 8256.000000, 8063.000000, 0.000000, 0.000000, 0.000000, -20190.000000, 147.179489, 4.000000, 4.000000, 4.000000, 4.000000, 4.000000, 4.000000, 4.000000, 4.000000, 0.000000, 4.000000, 4.000000, 4.000000, 4.000000, 4.000000, 4.000000, 4.000000
68.000000, 0.000000, 4278.974121, 4412.307617, 4203.589844, 4214.871582, 4277.436035, 4206.666504, 4207.692383, 4237.948730, 4203.589844, 4200.000000, 4195.897461, 4198.974121, 4262.051270, 4169.743652, 3545.000000, 8256.000000, 8063.000000, 0.000000, 0.000000, 0.000000, -20190.000000, 155.384613, 4.000000, 4.000000, 4.000000, 4.000000, 4.000000, 4.000000, 4.000000, 4.000000, 0.000000, 4.000000, 4.000000, 4.000000, 4.000000, 4.000000, 4.000000, 4.000000
69.000000, 0.000000, 4272.820313, 4408.205078, 4201.538574, 4206.153809, 4268.717773, 4202.563965, 4204.615234, 4232.307617, 4204.102539, 4204.615234, 4201.025391, 4197.436035, 4254.871582, 4172.820313, 3582.000000, 8244.000000, 8066.000000, 0.000000, 0.000000, 0.000000, -20190.000000, 163.589737, 4.000000, 4.000000, 4.000000, 4.000000, 4.000000, 4.000000, 4.000000, 4.000000, 0.000000, 4.000000, 4.000000, 4.000000, 4.000000, 4.000000, 4.000000, 4.000000
70.000000, 0.000000, 4263.076660, 4401.538574, 4193.846191, 4203.589844, 4263.076660, 4212.307617, 4213.333008, 4222.563965, 4203.076660, 4201.025391, 4191.794922, 4160.000000, 4238.974121, 4167.179199, 3424.000000, 8244.000000, 8066.000000, 0.000000, 0.000000, 0.000000, -20190.000000, 171.282043, 4.000000, 4.000000, 4.000000, 4.000000, 4.000000, 4.000000, 4.000000, 4.000000, 0.000000, 4.000000, 4.000000, 4.000000, 4.000000, 4.000000, 4.000000, 4.000000
71.000000, 0.000000, 4278.974121, 4401.025391, 4205.127930, 4215.897461, 4265.641113, 4212.307617, 4211.281738, 4231.281738, 4202.563965, 4212.307617, 4205.127930, 4134.871582, 4244.102539, 4175.897461, 3494.000000, 8241.000000, 8062.000000, 0.000000, 0.000000, 0.000000, -20190.000000, 178.974350, 4.000000, 4.000000, 4.000000, 4.000000, 4.000000, 4.000000, 4.000000, 4.000000, 0.000000, 4.000000, 4.000000, 4.000000, 4.000000, 4.000000, 4.000000, 4.000000
72.000000, 0.000000, 4287.179199, 4395.384277, 4217.948730, 4217.948730, 4265.641113, 4200.000000, 4203.076660, 4237.436035, 4203.076660, 4223.076660, 4220.000000, 4136.410156, 4247.179199, 4180.000000, 0.000000, 8241.000000, 8062.000000, 0.000000, 0.000000, 0.000000, -20190.000000, 187.179489, 4.000000, 4.000000, 4.000000, 4.000000, 4.000000, 4.000000, 4.000000, 4.000000, 0.000000, 4.000000, 4.000000, 4.000000, 4.000000, 4.000000, 4.000000, 4.000000
73.000000, 0.000000, 4276.410156, 4387.692383, 4207.692383, 4205.641113, 4261.538574, 4196.922852, 4205.127930, 4225.641113, 4203.076660, 4212.820313, 4206.153809, 4128.717773, 4227.692383, 4169.230469, 2994.000000, 8241.000000, 8084.000000, 0.000000, 0.000000, 0.000000, -20190.000000, 194.871796, 4.000000, 4.000000, 4.000000, 4.000000, 4.000000, 4.000000, 4.000000, 4.000000, 0.000000, 4.000000, 4.000000, 4.000000, 4.000000, 4.000000, 4.000000, 4.000000
74.000000, 0.000000, 4273.846191, 4388.717773, 4196.922852, 4202.051270, 4262.563965, 4199.487305, 4201.538574, 4218.974121, 4202.051270, 4198.461426, 4193.333008, 4116.410156, 4209.743652, 4167.179199, 3572.000000, 8241.000000, 8084.000000, 0.000000, 0.000000, 0.000000, -20190.000000, 202.564102, 4.000000, 4.000000, 4.000000, 4.000000, 4.000000, 4.000000, 4.000000, 4.000000, 0.000000, 4.000000, 4.000000, 4.000000, 4.000000, 4.000000, 4.000000, 4.000000
75.000000, 0.000000, 4276.922852, 4388.205078, 4198.461426, 4203.589844, 4264.102539, 4200.000000, 4202.051270, 4228.205078, 4201.538574, 4206.666504, 4206.153809, 4128.717773, 4213.333008, 4177.436035, 3552.000000, 8233.000000, 8082.000000, 0.000000, 0.000000, 0.000000, -20190.000000, 210.769226, 4.000000, 4.000000, 4.000000, 4.000000, 4.000000, 4.000000, 4.000000, 4.000000, 0.000000, 4.000000, 4.000000, 4.000000, 4.000000, 4.000000, 4.000000, 4.000000
76.000000, 0.000000, 4275.897461, 4386.153809, 4198.974121, 4203.076660, 4260.512695, 4199.487305, 4215.897461, 4239.487305, 4202.563965, 4220.000000, 4217.436035, 4141.538574, 4217.948730, 4180.512695, 3516.000000, 8233.000000, 8082.000000, 0.000000, 0.000000, 0.000000, -20190.000000, 218.974350, 4.000000, 4.000000, 4.000000, 4.000000, 4.000000, 4.000000, 4.000000, 4.000000, 0.000000, 4.000000, 4.000000, 4.000000, 4.000000, 4.000000, 4.000000, 4.000000
77.000000, 0.000000, 4276.922852, 4386.666504, 4202.051270, 4206.666504, 4259.487305, 4196.922852, 4209.230469, 4233.333008, 4204.102539, 4220.000000, 4214.871582, 4137.436035, 4206.153809, 4177.948730, 3461.000000, 8225.000000, 8086.000000, 0.000000, 0.000000, 0.000000, -20190.000000, 226.666656, 4.000000, 4.000000, 4.000000, 4.000000, 4.000000, 4.000000, 4.000000, 4.000000, 0.000000, 4.000000, 4.000000, 4.000000, 4.000000, 4.000000, 4.000000, 4.000000
78.000000, 0.000000, 4277.948730, 4382.051270, 4212.307617, 4212.307617, 4261.025391, 4197.948730, 4197.436035, 4220.512695, 4203.589844, 4223.589844, 4214.871582, 4134.871582, 4197.436035, 4181.538574, 3572.000000, 8225.000000, 8086.000000, 0.000000, 0.000000, 0.000000, -20190.000000, 234.358963, 4.000000, 4.000000, 4.000000, 4.000000, 4.000000, 4.000000, 4.000000, 4.000000, 0.000000, 4.000000, 4.000000, 4.000000, 4.000000, 4.000000, 4.000000, 4.000000
79.000000, 0.000000, 4279.487305, 4381.025391, 4218.461426, 4214.871582, 4260.512695, 4201.025391, 4210.769043, 4225.641113, 4203.076660, 4228.205078, 4214.871582, 4140.000000, 4195.897461, 4184.615234, 3552.000000, 8225.000000, 8091.000000, 0.000000, 0.000000, 0.000000, -20190.000000, 242.051270, 4.000000, 4.000000, 4.000000, 4.000000, 4.000000, 4.000000, 4.000000, 4.000000, 0.000000, 4.000000, 4.000000, 4.000000, 4.000000, 4.000000, 4.000000, 4.000000
80.000000, 0.000000, 4284.615234, 4386.153809, 4214.871582, 4216.922852, 4260.512695, 4193.333008, 4216.410156, 4227.692383, 4203.589844, 4223.076660, 4215.897461, 4145.127930, 4191.794922, 4183.589844, 3516.000000, 8225.000000, 8091.000000, 0.000000, 0.000000, 0.000000, -20190.000000, 250.256409, 4.000000, 4.000000, 4.000000, 4.000000, 4.000000, 4.000000, 4.000000, 4.000000, 0.000000, 4.000000, 4.000000, 4.000000, 4.000000, 4.000000, 4.000000, 4.000000
81.000000, 0.000000, 4290.256348, 4382.563965, 4207.179199, 4218.461426, 4264.615234, 4185.127930, 4207.692383, 4210.769043, 4202.563965, 4231.281738, 4225.641113, 4150.769043, 4198.461426, 4191.794922, 3461.000000, 8220.000000, 8101.000000, 0.000000, 0.000000, 0.000000, -20190.000000, 258.461517, 4.000000, 4.000000, 4.000000, 4.000000, 4.000000, 4.000000, 4.000000, 4.000000, 0.000000, 4.000000, 4.000000, 4.000000, 4.000000, 4.000000, 4.000000, 4.000000
82.000000, 0.000000, 4292.307617, 4375.384277, 4208.205078, 4217.948730, 4265.127930, 4195.384277, 4213.333008, 4220.512695, 4203.076660, 4249.743652, 4236.922852, 4157.436035, 4211.794922, 4204.102539, 3572.000000, 8220.000000, 8101.000000, 0.000000, 0.000000, 0.000000, -20190.000000, 266.153839, 4.000000, 4.000000, 4.000000, 4.000000, 4.000000, 4.000000, 4.000000, 4.000000, 0.000000, 4.000000, 4.000000, 4.000000, 4.000000, 4.000000, 4.000000, 4.000000
83.000000, 0.000000, 4289.230469, 4372.820313, 4213.333008, 4217.436035, 4262.563965, 4203.589844, 4223.589844, 4258.974121, 4205.641113, 4250.769043, 4232.820313, 4157.948730, 4206.153809, 4199.487305, 3552.000000, 8211.000000, 8102.000000, 0.000000, 0.000000, 0.000000, -20190.000000, 273.846161, 4.000000, 4.000000, 4.000000, 4.000000, 4.000000, 4.000000, 4.000000, 4.000000, 0.000000, 4.000000, 4.000000, 4.000000, 4.000000, 4.000000, 4.000000, 4.000000
84.000000, 0.000000, 4284.102539, 4366.153809, 4207.692383, 4217.436035, 4262.563965, 4193.333008, 4211.794922, 4242.563965, 4204.615234, 4241.538574, 4226.666504, 4155.897461, 4194.871582, 4191.794922, 3516.000000, 8211.000000, 8102.000000, 0.000000, 0.000000, 0.000000, -20190.000000, 282.051270, 4.000000, 4.000000, 4.000000, 4.000000, 4.000000, 4.000000, 4.000000, 4.000000, 0.000000, 4.000000, 4.000000, 4.000000, 4.000000, 4.000000, 4.000000, 4.000000
85.000000, 0.000000, 4281.538574, 4361.025391, 4201.538574, 4217.948730, 4263.076660, 4184.102539, 4196.922852, 4196.410156, 4201.538574, 4238.974121, 4230.769043, 4155.384277, 4194.358887, 4195.384277, 3461.000000, 8211.000000, 8110.000000, 0.000000, 0.000000, 0.000000, -20190.000000, 289.743591, 4.000000, 4.000000, 4.000000, 4.000000, 4.000000, 4.000000, 4.000000, 4.000000, 0.000000, 4.000000, 4.000000, 4.000000, 4.000000, 4.000000, 4.000000, 4.000000
86.000000, 0.000000, 4279.487305, 4355.897461, 4202.051270, 4217.948730, 4259.487305, 4185.641113, 4198.461426, 4208.205078, 4202.051270, 4232.820313, 4225.641113, 4152.820313, 4188.717773, 4195.897461, 3572.000000, 8211.000000, 8110.000000, 0.000000, 0.000000, 0.000000, -20190.000000, 297.435883, 4.000000, 4.000000, 4.000000, 4.000000, 4.000000, 4.000000, 4.000000, 4.000000, 0.000000, 4.000000, 4.000000, 4.000000, 4.000000, 4.000000, 4.000000, 4.000000
87.000000, 0.000000, 4278.974121, 4348.205078, 4201.538574, 4214.358887, 4256.410156, 4182.051270, 4198.974121, 4228.205078, 4204.615234, 4231.794922, 4219.487305, 4150.769043, 4184.102539, 4193.333008, 3552.000000, 8208.000000, 8111.000000, 0.000000, 0.000000, 0.000000, -20190.000000, 305.128204, 4.000000, 4.000000, 4.000000, 4.000000, 4.000000, 4.000000, 4.000000, 4.000000, 0.000000, 4.000000, 4.000000, 4.000000, 4.000000, 4.000000, 4.000000, 4.000000
88.000000, 0.000000, 4282.563965, 4343.076660, 4200.512695, 4214.358887, 4259.487305, 4176.410156, 4187.692383, 4210.769043, 4204.615234, 4245.127930, 4231.794922, 4153.846191, 4188.717773, 4202.051270, 3516.000000, 8208.000000, 8111.000000, 0.000000, 0.000000, 0.000000, -20190.000000, 313.333313, 4.000000, 4.000000, 4.000000, 4.000000, 4.000000, 4.000000, 4.000000, 4.000000, 0.000000, 4.000000, 4.000000, 4.000000, 4.000000, 4.000000, 4.000000, 4.000000
89.000000, 0.000000, 4281.025391, 4340.000000, 4202.051270, 4217.436035, 4263.076660, 4174.871582, 4184.102539, 4209.743652, 4203.076660, 4247.179199, 4234.871582, 4157.948730, 4184.102539, 4203.589844, 3461.000000, 8203.000000, 8134.000000, 0.000000, 0.000000, 0.000000, -20190.000000, 321.538452, 4.000000, 4.000000, 4.000000, 4.000000, 4.000000, 4.000000, 4.000000, 4.000000, 0.000000, 4.000000, 4.000000, 4.000000, 4.000000, 4.000000, 4.000000, 4.000000
90.000000, 0.000000, 4269.743652, 4334.358887, 4200.000000, 4211.281738, 4261.025391, 4173.846191, 4193.333008, 4224.615234, 4202.563965, 4232.820313, 4218.974121, 4155.897461, 4167.692383, 4190.256348, 3572.000000, 8203.000000, 8134.000000, 0.000000, 0.000000, 0.000000, -20190.000000, 329.230774, 4.000000, 4.000000, 4.000000, 4.000000, 4.000000, 4.000000, 4.000000, 4.000000, 0.000000, 4.000000, 4.000000, 4.000000, 4.000000, 4.000000, 4.000000, 4.000000
91.000000, 0.000000, 4265.641113, 4333.333008, 4201.025391, 4206.666504, 4257.948730, 4170.769043, 4190.256348, 4218.974121, 4203.076660, 4231.281738, 4219.487305, 4155.384277, 4166.153809, 4188.717773, 3552.000000, 8208.000000, 8141.000000, 0.000000, 0.000000, 0.000000, -20190.000000, 336.923065, 4.000000, 4.000000, 4.000000, 4.000000, 4.000000, 4.000000, 4.000000, 4.000000, 0.000000, 4.000000, 4.000000, 4.000000, 4.000000, 4.000000, 4.000000, 4.000000
92.000000, 0.000000, 4267.692383, 4332.820313, 4203.076660, 4211.281738, 4255.384277, 4172.307617, 4183.589844, 4221.538574, 4203.076660, 4245.127930, 4231.794922, 4154.871582, 4178.461426, 4196.922852, 3516.000000, 8208.000000, 8141.000000, 0.000000, 0.000000, 0.000000, -20190.000000, 344.615387, 4.000000, 4.000000, 4.000000, 4.000000, 4.000000, 4.000000, 4.000000, 4.000000, 0.000000, 4.000000, 4.000000, 4.000000, 4.000000, 4.000000, 4.000000, 4.000000
93.000000, 0.000000, 4262.563965, 4325.127930, 4197.948730, 4213.846191, 4249.230469, 4177.948730, 4193.846191, 4228.717773, 4203.076660, 4238.974121, 4221.538574, 4142.563965, 4170.256348, 4188.205078, 3461.000000, 8202.000000, 8169.000000, 0.000000, 0.000000, 0.000000, -20190.000000, 352.820496, 4.000000, 4.000000, 4.000000, 4.000000, 4.000000, 4.000000, 4.000000, 4.000000, 0.000000, 4.000000, 4.000000, 4.000000, 4.000000, 4.000000, 4.000000, 4.000000
94.000000, 0.000000, 4263.589844, 4319.487305, 4200.000000, 4211.794922, 4250.256348, 4183.589844, 4202.563965, 4219.487305, 4203.076660, 4223.589844, 4209.230469, 4134.358887, 4156.410156, 4180.512695, 3572.000000, 8202.000000, 8169.000000, 0.000000, 0.000000, 0.000000, -20190.000000, 360.512817, 4.000000, 4.000000, 4.000000, 4.000000, 4.000000, 4.000000, 4.000000, 4.000000, 0.000000, 4.000000, 4.000000, 4.000000, 4.000000, 4.000000, 4.000000, 4.000000
95.000000, 0.000000, 4263.076660, 4312.820313, 4198.974121, 4206.666504, 4257.948730, 4185.127930, 4201.025391, 4212.307617, 4203.076660, 4232.307617, 4214.358887, 4139.487305, 4157.948730, 4184.615234, 3552.000000, 8199.000000, 8178.000000, 0.000000, 0.000000, 0.000000, -20190.000000, 368.205109, 4.000000, 4.000000, 4.000000, 4.000000, 4.000000, 4.000000, 4.000000, 4.000000, 0.000000, 4.000000, 4.000000, 4.000000, 4.000000, 4.000000, 4.000000, 4.000000
96.000000, 0.000000, 4249.743652, 4303.589844, 4187.692383, 4200.512695, 4254.871582, 4184.102539, 4201.538574, 4218.974121, 4203.076660, 4242.563965, 4218.461426, 4145.641113, 4159.487305, 4183.589844, 3516.000000, 8199.000000, 8178.000000, 0.000000, 0.000000, 0.000000, -20190.000000, 376.410248, 4.000000, 4.000000, 4.000000, 4.000000, 4.000000, 4.000000, 4.000000, 4.000000, 0.000000, 4.000000, 4.000000, 4.000000, 4.000000, 4.000000, 4.000000, 4.000000
97.000000, 0.000000, 4244.615234, 4307.692383, 4188.717773, 4197.948730, 4249.230469, 4185.641113, 4202.563965, 4226.153809, 4203.076660, 4235.384277, 4216.922852, 4152.307617, 4153.333008, 4181.025391, 3461.000000, 8196.000000, 8195.000000, 0.000000, 0.000000, 0.000000, -20190.000000, 384.102570, 4.000000, 4.000000, 4.000000, 4.000000, 4.000000, 4.000000, 4.000000, 4.000000, 0.000000, 4.000000, 4.000000, 4.000000, 4.000000, 4.000000, 4.000000, 4.000000
98.000000, 0.000000, 4249.230469, 4307.179199, 4201.025391, 4202.563965, 4249.230469, 4182.563965, 4200.512695, 4224.102539, 4202.563965, 4228.717773, 4216.410156, 4162.051270, 4152.820313, 4187.179199, 3572.000000, 8196.000000, 8195.000000, 0.000000, 0.000000, 0.000000, -20190.000000, 391.794861, 4.000000, 4.000000, 4.000000, 4.000000, 4.000000, 4.000000, 4.000000, 4.000000, 0.000000, 4.000000, 4.000000, 4.000000, 4.000000, 4.000000, 4.000000, 4.000000
99.000000, 0.000000, 4252.307617, 4297.948730, 4203.589844, 4208.717773, 4248.717773, 4173.846191, 4199.487305, 4214.871582, 4201.538574, 4231.794922, 4215.384277, 4163.589844, 4155.897461, 4189.743652, 3552.000000, 8189.000000, 8200.000000, 0.000000, 0.000000, 0.000000, -20190.000000, 399.487183, 4.000000, 4.000000, 4.000000, 4.000000, 4.000000, 4.000000, 4.000000, 4.000000, 0.000000, 4.000000, 4.000000, 4.000000, 4.000000, 4.000000, 4.000000, 4.000000
100.000000, 0.000000, 4250.256348, 4300.000000, 4199.487305, 4210.769043, 4247.692383, 4175.384277, 4195.897461, 4216.410156, 4201.025391, 4231.794922, 4213.333008, 4155.384277, 4151.794922, 4186.666504, 3516.000000, 8189.000000, 8200.000000, 0.000000, 0.000000, 0.000000, -20190.000000, 407.692291, 4.000000, 4.000000, 4.000000, 4.000000, 4.000000, 4.000000, 4.000000, 4.000000, 0.000000, 4.000000, 4.000000, 4.000000, 4.000000, 4.000000, 4.000000, 4.000000
101.000000, 0.000000, 4248.205078, 4302.563965, 4199.487305, 4208.717773, 4248.205078, 4183.589844, 4194.871582, 4229.743652, 4201.025391, 4226.666504, 4212.820313, 4153.333008, 4151.281738, 4189.230469, 3461.000000, 8186.000000, 8206.000000, 0.000000, 0.000000, 0.000000, -20190.000000, 415.897430, 4.000000, 4.000000, 4.000000, 4.000000, 4.000000, 4.000000, 4.000000, 4.000000, 0.000000, 4.000000, 4.000000, 4.000000, 4.000000, 4.000000, 4.000000, 4.000000
102.000000, 0.000000, 4254.358887, 4298.974121, 4201.538574, 4211.281738, 4249.230469, 4184.102539, 4193.846191, 4222.051270, 4201.025391, 4226.153809, 4215.384277, 4163.589844, 4158.974121, 4198.461426, 3572.000000, 8186.000000, 8206.000000, 0.000000, 0.000000, 0.000000, -20190.000000, 423.589722, 4.000000, 4.000000, 4.000000, 4.000000, 4.000000, 4.000000, 4.000000, 4.000000, 0.000000, 4.000000, 4.000000, 4.000000, 4.000000, 4.000000, 4.000000, 4.000000
103.000000, 0.000000, 4264.615234, 4302.563965, 4201.538574, 4215.384277, 4250.769043, 4185.641113, 4193.846191, 4213.846191, 4202.051270, 4227.692383, 4217.948730, 4169.743652, 4163.076660, 4202.563965, 3552.000000, 8182.000000, 8207.000000, 0.000000, 0.000000, 0.000000, -20190.000000, 431.282043, 4.000000, 4.000000, 4.000000, 4.000000, 4.000000, 4.000000, 4.000000, 4.000000, 0.000000, 4.000000, 4.000000, 4.000000, 4.000000, 4.000000, 4.000000, 4.000000
104.000000, 0.000000, 4265.641113, 4306.153809, 4204.102539, 4214.358887, 4251.794922, 4197.948730, 4199.487305, 4230.769043, 4203.076660, 4229.743652, 4218.461426, 4169.743652, 4164.102539, 4202.051270, 3516.000000, 8182.000000, 8207.000000, 0.000000, 0.000000, 0.000000, -20190.000000, 438.974335, 4.000000, 4.000000, 4.000000, 4.000000, 4.000000, 4.000000, 4.000000, 4.000000, 0.000000, 4.000000, 4.000000, 4.000000, 4.000000, 4.000000, 4.000000, 4.000000
105.000000, 0.000000, 4258.461426, 4294.871582, 4206.153809, 4211.794922, 4249.230469, 4202.563965, 4201.025391, 4230.769043, 4202.563965, 4231.281738, 4217.948730, 4167.179199, 4167.692383, 4202.051270, 3461.000000, 8178.000000, 8205.000000, 0.000000, 0.000000, 0.000000, -20190.000000, 447.179474, 4.000000, 4.000000, 4.000000, 4.000000, 4.000000, 4.000000, 4.000000, 4.000000, 0.000000, 4.000000, 4.000000, 4.000000, 4.000000, 4.000000, 4.000000, 4.000000
106.000000, 0.000000, 4258.461426, 4290.256348, 4204.102539, 4213.333008, 4247.692383, 4195.384277, 4194.358887, 4210.256348, 4202.051270, 4231.281738, 4217.436035, 4160.000000, 4170.769043, 4201.538574, 3572.000000, 8178.000000, 8205.000000, 0.000000, 0.000000, 0.000000, -20190.000000, 454.871796, 4.000000, 4.000000, 4.000000, 4.000000, 4.000000, 4.000000, 4.000000, 4.000000, 0.000000, 4.000000, 4.000000, 4.000000, 4.000000, 4.000000, 4.000000, 4.000000
107.000000, 0.000000, 4258.974121, 4298.461426, 4199.487305, 4213.333008, 4248.205078, 4197.436035, 4199.487305, 4211.794922, 4201.538574, 4231.794922, 4213.333008, 4158.974121, 4169.743652, 4197.948730, 3552.000000, 8170.000000, 8220.000000, 0.000000, 0.000000, 0.000000, -20190.000000, 462.564087, 4.000000, 4.000000, 4.000000, 4.000000, 4.000000, 4.000000, 4.000000, 4.000000, 0.000000, 4.000000, 4.000000, 4.000000, 4.000000, 4.000000, 4.000000, 4.000000
108.000000, 0.000000, 4252.307617, 4297.436035, 4197.948730, 4211.281738, 4249.230469, 4203.589844, 4210.769043, 4223.589844, 4202.051270, 4225.127930, 4209.230469, 4167.179199, 4168.205078, 4194.871582, 3516.000000, 8170.000000, 8220.000000, 0.000000, 0.000000, 0.000000, -20190.000000, 470.769226, 4.000000, 4.000000, 4.000000, 4.000000, 4.000000, 4.000000, 4.000000, 4.000000, 0.000000, 4.000000, 4.000000, 4.000000, 4.000000, 4.000000, 4.000000, 4.000000
109.000000, 0.000000, 4251.794922, 4286.153809, 4201.538574, 4212.307617, 4244.615234, 4195.384277, 4205.641113, 4214.358887, 4203.589844, 4221.538574, 4212.307617, 4171.794922, 4167.692383, 4196.410156, 3461.000000, 8174.000000, 8225.000000, 0.000000, 0.000000, 0.000000, -20190.000000, 478.461517, 4.000000, 4.000000, 4.000000, 4.000000, 4.000000, 4.000000, 4.000000, 4.000000, 0.000000, 4.000000, 4.000000, 4.000000, 4.000000, 4.000000, 4.000000, 4.000000
110.000000, 0.000000, 4259.487305, 4278.974121, 4210.256348, 4218.461426, 4242.563965, 4191.281738, 4196.922852, 4212.820313, 4204.102539, 4229.743652, 4215.384277, 4173.846191, 4170.769043, 4201.025391, 3572.000000, 8174.000000, 8225.000000, 0.000000, 0.000000, 0.000000, -20190.000000, 486.666656, 4.000000, 4.000000, 4.000000, 4.000000, 4.000000, 4.000000, 4.000000, 4.000000, 0.000000, 4.000000, 4.000000, 4.000000, 4.000000, 4.000000, 4.000000, 4.000000
111.000000, 0.000000, 4257.948730, 4281.025391, 4211.794922, 4215.897461, 4248.205078, 4200.512695, 4199.487305, 4222.563965, 4203.076660, 4230.256348, 4208.717773, 4170.769043, 4168.205078, 4196.410156, 3552.000000, 8169.000000, 8227.000000, 0.000000, 0.000000, 0.000000, -20190.000000, 494.358948, 4.000000, 4.000000, 4.000000, 4.000000, 4.000000, 4.000000, 4.000000, 4.000000, 0.000000, 4.000000, 4.000000, 4.000000, 4.000000, 4.000000, 4.000000, 4.000000
112.000000, 0.000000, 4240.512695, 4275.897461, 4203.076660, 4202.051270, 4251.794922, 4198.974121, 4202.051270, 4205.641113, 4202.563965, 4215.384277, 4195.384277, 4156.410156, 4152.820313, 4181.025391, 3516.000000, 8169.000000, 8227.000000, 0.000000, 0.000000, 0.000000, -20190.000000, 502.564087, 4.000000, 4.000000, 4.000000, 4.000000, 4.000000, 4.000000, 4.000000, 4.000000, 0.000000, 4.000000, 4.000000, 4.000000, 4.000000, 4.000000, 4.000000, 4.000000
113.000000, 0.000000, 4232.307617, 4264.615234, 4197.948730, 4196.410156, 4245.641113, 4190.769043, 4200.512695, 4190.769043, 4203.076660, 4208.205078, 4186.153809, 4148.205078, 4140.512695, 4170.256348, 3461.000000, 8168.000000, 8234.000000, 0.000000, 0.000000, 0.000000, -20190.000000, 510.256409, 4.000000, 4.000000, 4.000000, 4.000000, 4.000000, 4.000000, 4.000000, 4.000000, 0.000000, 4.000000, 4.000000, 4.000000, 4.000000, 4.000000, 4.000000, 4.000000
114.000000, 0.000000, 4234.871582, 4262.051270, 4195.897461, 4201.538574, 4236.922852, 4196.410156, 4201.025391, 4214.871582, 4203.076660, 4216.922852, 4187.692383, 4153.846191, 4141.025391, 4170.769043, 3572.000000, 8168.000000, 8234.000000, 0.000000, 0.000000, 0.000000, -20190.000000, 517.948730, 4.000000, 4.000000, 4.000000, 4.000000, 4.000000, 4.000000, 4.000000, 4.000000, 0.000000, 4.000000, 4.000000, 4.000000, 4.000000, 4.000000, 4.000000, 4.000000
115.000000, 0.000000, 4232.307617, 4266.666504, 4188.717773, 4200.512695, 4232.820313, 4202.563965, 4203.076660, 4231.794922, 4203.076660, 4221.538574, 4191.794922, 4154.358887, 4147.179199, 4172.307617, 3552.000000, 8177.000000, 8229.000000, 0.000000, 0.000000, 0.000000, -20190.000000, 526.153809, 4.000000, 4.000000, 4.000000, 4.000000, 4.000000, 4.000000, 4.000000, 4.000000, 0.000000, 4.000000, 4.000000, 4.000000, 4.000000, 4.000000, 4.000000, 4.000000
116.000000, 0.000000, 4229.230469, 4263.076660, 4182.051270, 4196.922852, 4229.743652, 4198.974121, 4202.563965, 4207.179199, 4203.076660, 4218.461426, 4192.307617, 4150.256348, 4151.794922, 4170.769043, 3516.000000, 8177.000000, 8229.000000, 0.000000, 0.000000, 0.000000, -20190.000000, 533.846130, 4.000000, 4.000000, 4.000000, 4.000000, 4.000000, 4.000000, 4.000000, 4.000000, 0.000000, 4.000000, 4.000000, 4.000000, 4.000000, 4.000000, 4.000000, 4.000000
