title:winkRight8, recorded:21.05.18 17.24.13, timestamp started:2018-05-12T20:28:52.032863+02:00            , sampling:128, subject:Noé, labels:COUNTER INTERPOLATED AF3 F7 F3 FC5 T7 P7 O1 O2 P8 T8 FC6 F4 F8 AF4 RAW_CQ GYROX GYROY MARKER MARKER_HARDWARE SYNC TIME_STAMP_s TIME_STAMP_ms CQ_AF3 CQ_F7 CQ_F3 CQ_FC5 CQ_T7 CQ_P7 CQ_O1 CQ_O2 CQ_P8 CQ_T8 CQ_FC6 CQ_F4 CQ_F8 CQ_AF4 CQ_CMS CQ_DRL, chan:40, samples:2296, units:emotiv
41.000000, 0.000000, 4203.076660, 4190.769043, 4210.769043, 4201.538574, 4190.256348, 4202.051270, 4197.948730, 4213.846191, 4203.076660, 4207.692383, 4234.871582, 4218.461426, 4199.487305, 4230.769043, 0.000000, 8253.000000, 8035.000000, 0.000000, 0.000000, 0.000000, -19910.000000, 357.435883, 4.000000, 4.000000, 4.000000, 4.000000, 4.000000, 4.000000, 4.000000, 4.000000, 0.000000, 4.000000, 4.000000, 4.000000, 4.000000, 4.000000, 4.000000, 4.000000
42.000000, 0.000000, 4196.410156, 4182.563965, 4203.076660, 4192.820313, 4190.256348, 4204.615234, 4208.205078, 4211.281738, 4203.076660, 4196.922852, 4224.615234, 4205.641113, 4186.153809, 4218.974121, 0.000000, 8253.000000, 8035.000000, 0.000000, 0.000000, 0.000000, -19910.000000, 365.641022, 4.000000, 4.000000, 4.000000, 4.000000, 4.000000, 4.000000, 4.000000, 4.000000, 0.000000, 4.000000, 4.000000, 4.000000, 4.000000, 4.000000, 4.000000, 4.000000
43.000000, 0.000000, 4201.025391, 4182.051270, 4200.000000, 4188.717773, 4185.641113, 4202.563965, 4215.897461, 4216.410156, 4202.563965, 4201.025391, 4229.230469, 4201.025391, 4190.256348, 4216.922852, 0.000000, 8231.000000, 8029.000000, 0.000000, 0.000000, 0.000000, -19910.000000, 373.333313, 4.000000, 4.000000, 4.000000, 4.000000, 4.000000, 4.000000, 4.000000, 4.000000, 0.000000, 4.000000, 4.000000, 4.000000, 4.000000, 4.000000, 4.000000, 4.000000
44.000000, 0.000000, 4200.000000, 4171.794922, 4202.563965, 4190.769043, 4188.205078, 4207.692383, 4214.871582, 4217.948730, 4201.025391, 4216.410156, 4234.871582, 4204.102539, 4206.153809, 4220.512695, 0.000000, 8231.000000, 8029.000000, 0.000000, 0.000000, 0.000000, -19910.000000, 381.538452, 4.000000, 4.000000, 4.000000, 4.000000, 4.000000, 4.000000, 4.000000, 4.000000, 0.000000, 4.000000, 4.000000, 4.000000, 4.000000, 4.000000, 4.000000, 4.000000
45.000000, 0.000000, 4186.666504, 4153.846191, 4197.436035, 4182.051270, 4188.717773, 4214.358887, 4221.025391, 4219.487305, 4201.025391, 4215.384277, 4224.615234, 4196.410156, 4201.538574, 4213.333008, 0.000000, 8214.000000, 8015.000000, 0.000000, 0.000000, 0.000000, -19910.000000, 389.230774, 4.000000, 4.000000, 4.000000, 4.000000, 4.000000, 4.000000, 4.000000, 4.000000, 0.000000, 4.000000, 4.000000, 4.000000, 4.000000, 4.000000, 4.000000, 4.000000
46.000000, 0.000000, 4180.000000, 4149.230469, 4193.333008, 4174.358887, 4181.538574, 4212.820313, 4228.717773, 4220.000000, 4201.025391, 4203.076660, 4213.333008, 4189.743652, 4192.820313, 4208.205078, 0.000000, 8214.000000, 8015.000000, 0.000000, 0.000000, 0.000000, -19910.000000, 397.435883, 4.000000, 4.000000, 4.000000, 4.000000, 4.000000, 4.000000, 4.000000, 4.000000, 0.000000, 4.000000, 4.000000, 4.000000, 4.000000, 4.000000, 4.000000, 4.000000
47.000000, 0.000000, 4190.256348, 4155.384277, 4201.025391, 4183.589844, 4181.025391, 4204.102539, 4221.025391, 4205.127930, 4201.025391, 4205.641113, 4215.897461, 4196.410156, 4203.589844, 4216.922852, 0.000000, 8217.000000, 7977.000000, 0.000000, 0.000000, 0.000000, -19910.000000, 405.128204, 4.000000, 4.000000, 4.000000, 4.000000, 4.000000, 4.000000, 4.000000, 4.000000, 0.000000, 4.000000, 4.000000, 4.000000, 4.000000, 4.000000, 4.000000, 4.000000
48.000000, 0.000000, 4195.384277, 4150.769043, 4207.179199, 4190.769043, 4186.153809, 4203.076660, 4211.281738, 4198.461426, 4202.051270, 4212.307617, 4214.871582, 4201.538574, 4201.025391, 4216.410156, 0.000000, 8217.000000, 7977.000000, 0.000000, 0.000000, 0.000000, -19910.000000, 413.333313, 4.000000, 4.000000, 4.000000, 4.000000, 4.000000, 4.000000, 4.000000, 4.000000, 0.000000, 4.000000, 4.000000, 4.000000, 4.000000, 4.000000, 4.000000, 4.000000
49.000000, 0.000000, 4184.102539, 4136.922852, 4201.538574, 4179.487305, 4184.102539, 4213.333008, 4227.179199, 4215.384277, 4204.102539, 4211.794922, 4206.153809, 4201.538574, 4188.205078, 4200.000000, 0.000000, 8225.000000, 7967.000000, 0.000000, 0.000000, 0.000000, -19910.000000, 421.025635, 4.000000, 4.000000, 4.000000, 4.000000, 4.000000, 4.000000, 4.000000, 4.000000, 0.000000, 4.000000, 4.000000, 4.000000, 4.000000, 4.000000, 4.000000, 4.000000
50.000000, 0.000000, 4186.666504, 4138.461426, 4197.948730, 4175.384277, 4181.025391, 4214.871582, 4235.384277, 4224.102539, 4203.589844, 4217.436035, 4211.281738, 4199.487305, 4206.666504, 4197.436035, 0.000000, 8225.000000, 7967.000000, 0.000000, 0.000000, 0.000000, -19910.000000, 429.230774, 4.000000, 4.000000, 4.000000, 4.000000, 4.000000, 4.000000, 4.000000, 4.000000, 0.000000, 4.000000, 4.000000, 4.000000, 4.000000, 4.000000, 4.000000, 4.000000
51.000000, 0.000000, 4198.461426, 4150.256348, 4196.922852, 4184.615234, 4180.000000, 4210.256348, 4223.589844, 4210.256348, 4203.076660, 4230.769043, 4217.948730, 4190.256348, 4236.410156, 4209.230469, 0.000000, 8247.000000, 7948.000000, 0.000000, 0.000000, 0.000000, -19910.000000, 436.923065, 4.000000, 4.000000, 4.000000, 4.000000, 4.000000, 4.000000, 4.000000, 4.000000, 0.000000, 4.000000, 4.000000, 4.000000, 4.000000, 4.000000, 4.000000, 4.000000
52.000000, 0.000000, 4197.948730, 4144.615234, 4192.307617, 4185.641113, 4176.410156, 4211.794922, 4221.025391, 4200.512695, 4203.076660, 4241.025391, 4216.410156, 4186.666504, 4244.102539, 4212.820313, 0.000000, 8247.000000, 7948.000000, 0.000000, 0.000000, 0.000000, -19910.000000, 445.128204, 4.000000, 4.000000, 4.000000, 4.000000, 4.000000, 4.000000, 4.000000, 4.000000, 0.000000, 4.000000, 4.000000, 4.000000, 4.000000, 4.000000, 4.000000, 4.000000
53.000000, 0.000000, 4195.897461, 4134.358887, 4192.820313, 4182.051270, 4168.205078, 4209.230469, 4224.615234, 4200.512695, 4203.076660, 4243.589844, 4222.051270, 4200.000000, 4252.820313, 4215.384277, 0.000000, 8264.000000, 7935.000000, 0.000000, 0.000000, 0.000000, -19910.000000, 453.333313, 4.000000, 4.000000, 4.000000, 4.000000, 4.000000, 4.000000, 4.000000, 4.000000, 0.000000, 4.000000, 4.000000, 4.000000, 4.000000, 4.000000, 4.000000, 4.000000
54.000000, 0.000000, 4204.615234, 4141.025391, 4198.461426, 4187.692383, 4167.692383, 4197.948730, 4218.461426, 4201.538574, 4202.563965, 4241.538574, 4228.205078, 4208.717773, 4268.205078, 4222.051270, 0.000000, 8264.000000, 7935.000000, 0.000000, 0.000000, 0.000000, -19910.000000, 461.025635, 4.000000, 4.000000, 4.000000, 4.000000, 4.000000, 4.000000, 4.000000, 4.000000, 0.000000, 4.000000, 4.000000, 4.000000, 4.000000, 4.000000, 4.000000, 4.000000
55.000000, 0.000000, 4201.025391, 4140.512695, 4193.846191, 4186.666504, 4177.436035, 4202.051270, 4213.333008, 4206.666504, 4202.563965, 4233.846191, 4216.922852, 4197.436035, 4264.615234, 4219.487305, 0.000000, 8284.000000, 7939.000000, 0.000000, 0.000000, 0.000000, -19910.000000, 469.230743, 4.000000, 4.000000, 4.000000, 4.000000, 4.000000, 4.000000, 4.000000, 4.000000, 0.000000, 4.000000, 4.000000, 4.000000, 4.000000, 4.000000, 4.000000, 4.000000
56.000000, 0.000000, 4183.076660, 4123.589844, 4182.051270, 4170.256348, 4178.461426, 4218.461426, 4220.000000, 4211.794922, 4202.563965, 4230.769043, 4208.717773, 4187.179199, 4260.000000, 4209.743652, 0.000000, 8284.000000, 7939.000000, 0.000000, 0.000000, 0.000000, -19910.000000, 476.923065, 4.000000, 4.000000, 4.000000, 4.000000, 4.000000, 4.000000, 4.000000, 4.000000, 0.000000, 4.000000, 4.000000, 4.000000, 4.000000, 4.000000, 4.000000, 4.000000
57.000000, 0.000000, 4184.615234, 4117.436035, 4183.589844, 4167.692383, 4171.794922, 4221.025391, 4220.512695, 4226.153809, 4203.076660, 4248.717773, 4223.589844, 4194.871582, 4275.897461, 4212.820313, 0.000000, 8321.000000, 7976.000000, 0.000000, 0.000000, 0.000000, -19910.000000, 485.128204, 4.000000, 4.000000, 4.000000, 4.000000, 4.000000, 4.000000, 4.000000, 4.000000, 0.000000, 4.000000, 4.000000, 4.000000, 4.000000, 4.000000, 4.000000, 4.000000
58.000000, 0.000000, 4204.615234, 4128.205078, 4195.897461, 4181.538574, 4171.794922, 4215.384277, 4217.948730, 4236.410156, 4203.076660, 4272.820313, 4237.436035, 4206.153809, 4292.820313, 4230.256348, 0.000000, 8321.000000, 7976.000000, 0.000000, 0.000000, 0.000000, -19910.000000, 492.820496, 4.000000, 4.000000, 4.000000, 4.000000, 4.000000, 4.000000, 4.000000, 4.000000, 0.000000, 4.000000, 4.000000, 4.000000, 4.000000, 4.000000, 4.000000, 4.000000
59.000000, 0.000000, 4216.410156, 4131.281738, 4200.000000, 4187.692383, 4174.358887, 4212.820313, 4222.051270, 4215.384277, 4203.076660, 4270.769043, 4233.846191, 4204.615234, 4296.922852, 4236.410156, 0.000000, 8338.000000, 7992.000000, 0.000000, 0.000000, 0.000000, -19910.000000, 501.025635, 4.000000, 4.000000, 4.000000, 4.000000, 4.000000, 4.000000, 4.000000, 4.000000, 0.000000, 4.000000, 4.000000, 4.000000, 4.000000, 4.000000, 4.000000, 4.000000
60.000000, 0.000000, 4216.410156, 4129.743652, 4202.563965, 4190.769043, 4176.922852, 4212.820313, 4214.871582, 4200.512695, 4203.076660, 4263.076660, 4234.358887, 4204.615234, 4294.871582, 4234.871582, 0.000000, 8338.000000, 7992.000000, 0.000000, 0.000000, 0.000000, -19910.000000, 508.717926, 4.000000, 4.000000, 4.000000, 4.000000, 4.000000, 4.000000, 4.000000, 4.000000, 0.000000, 4.000000, 4.000000, 4.000000, 4.000000, 4.000000, 4.000000, 4.000000
61.000000, 0.000000, 4216.410156, 4131.794922, 4208.205078, 4198.461426, 4183.076660, 4214.871582, 4211.794922, 4217.436035, 4203.589844, 4273.846191, 4246.153809, 4215.384277, 4295.384277, 4243.076660, 0.000000, 8381.000000, 8022.000000, 0.000000, 0.000000, 0.000000, -19910.000000, 516.923035, 4.000000, 4.000000, 4.000000, 4.000000, 4.000000, 4.000000, 4.000000, 4.000000, 0.000000, 4.000000, 4.000000, 4.000000, 4.000000, 4.000000, 4.000000, 4.000000
62.000000, 0.000000, 4217.436035, 4125.127930, 4209.230469, 4204.102539, 4184.102539, 4220.000000, 4229.230469, 4218.974121, 4203.589844, 4273.333008, 4246.153809, 4218.461426, 4295.384277, 4247.179199, 0.000000, 8381.000000, 8022.000000, 0.000000, 0.000000, 0.000000, -19910.000000, 524.615356, 4.000000, 4.000000, 4.000000, 4.000000, 4.000000, 4.000000, 4.000000, 4.000000, 0.000000, 4.000000, 4.000000, 4.000000, 4.000000, 4.000000, 4.000000, 4.000000
63.000000, 0.000000, 4218.974121, 4120.000000, 4204.615234, 4202.051270, 4182.563965, 4220.512695, 4235.384277, 4204.615234, 4203.589844, 4259.487305, 4236.410156, 4215.384277, 4296.410156, 4239.487305, 0.000000, 8419.000000, 8054.000000, 0.000000, 0.000000, 0.000000, -19910.000000, 532.820496, 4.000000, 4.000000, 4.000000, 4.000000, 4.000000, 4.000000, 4.000000, 4.000000, 0.000000, 4.000000, 4.000000, 4.000000, 4.000000, 4.000000, 4.000000, 4.000000
64.000000, 0.000000, 4214.871582, 4118.461426, 4200.512695, 4196.410156, 4183.076660, 4215.384277, 4216.410156, 4212.820313, 4203.589844, 4264.615234, 4234.871582, 4215.384277, 4296.922852, 4233.846191, 3185.000000, 8419.000000, 8054.000000, 0.000000, 0.000000, 0.000000, -19910.000000, 541.025635, 4.000000, 4.000000, 4.000000, 4.000000, 4.000000, 4.000000, 4.000000, 4.000000, 0.000000, 4.000000, 4.000000, 4.000000, 4.000000, 4.000000, 4.000000, 4.000000
65.000000, 0.000000, 4207.692383, 4115.897461, 4204.102539, 4194.871582, 4176.922852, 4213.846191, 4208.717773, 4211.794922, 4203.076660, 4277.436035, 4233.333008, 4213.333008, 4295.897461, 4233.846191, 3557.000000, 8489.000000, 8081.000000, 0.000000, 0.000000, 0.000000, -19910.000000, 548.717957, 4.000000, 4.000000, 4.000000, 4.000000, 4.000000, 4.000000, 4.000000, 4.000000, 0.000000, 4.000000, 4.000000, 4.000000, 4.000000, 4.000000, 4.000000, 4.000000
66.000000, 0.000000, 4212.820313, 4117.436035, 4209.230469, 4201.025391, 4174.871582, 4215.897461, 4216.410156, 4189.230469, 4203.076660, 4278.461426, 4229.743652, 4209.230469, 4300.000000, 4232.307617, 3568.000000, 8489.000000, 8081.000000, 0.000000, 0.000000, 0.000000, -19910.000000, 556.923035, 4.000000, 4.000000, 4.000000, 4.000000, 4.000000, 4.000000, 4.000000, 4.000000, 0.000000, 4.000000, 4.000000, 4.000000, 4.000000, 4.000000, 4.000000, 4.000000
67.000000, 0.000000, 4216.410156, 4119.487305, 4210.256348, 4204.615234, 4185.641113, 4216.410156, 4216.922852, 4189.743652, 4203.076660, 4280.512695, 4231.281738, 4204.615234, 4308.205078, 4231.281738, 2747.000000, 8534.000000, 8080.000000, 0.000000, 0.000000, 0.000000, -19910.000000, 564.615356, 4.000000, 4.000000, 4.000000, 4.000000, 4.000000, 4.000000, 4.000000, 4.000000, 0.000000, 4.000000, 4.000000, 4.000000, 4.000000, 4.000000, 4.000000, 4.000000
68.000000, 0.000000, 4206.153809, 4111.281738, 4207.692383, 4200.000000, 4186.153809, 4216.922852, 4216.410156, 4202.051270, 4202.051270, 4283.076660, 4232.307617, 4201.538574, 4310.769043, 4230.256348, 3555.000000, 8534.000000, 8080.000000, 0.000000, 0.000000, 0.000000, -19910.000000, 572.820496, 4.000000, 4.000000, 4.000000, 4.000000, 4.000000, 4.000000, 4.000000, 4.000000, 0.000000, 4.000000, 4.000000, 4.000000, 4.000000, 4.000000, 4.000000, 4.000000
69.000000, 0.000000, 4201.538574, 4096.922852, 4205.641113, 4197.436035, 4165.127930, 4213.333008, 4217.436035, 4202.563965, 4202.051270, 4279.487305, 4229.743652, 4208.717773, 4305.127930, 4233.333008, 3586.000000, 8579.000000, 8101.000000, 0.000000, 0.000000, 0.000000, -19910.000000, 580.512817, 4.000000, 4.000000, 4.000000, 4.000000, 4.000000, 4.000000, 4.000000, 4.000000, 0.000000, 4.000000, 4.000000, 4.000000, 4.000000, 4.000000, 4.000000, 4.000000
70.000000, 0.000000, 4204.615234, 4091.281982, 4206.153809, 4194.871582, 4151.794922, 4205.641113, 4214.358887, 4207.179199, 4202.563965, 4275.897461, 4229.230469, 4220.000000, 4298.974121, 4232.820313, 3444.000000, 8579.000000, 8101.000000, 0.000000, 0.000000, 0.000000, -19910.000000, 588.717957, 4.000000, 4.000000, 4.000000, 4.000000, 4.000000, 4.000000, 4.000000, 4.000000, 0.000000, 4.000000, 4.000000, 4.000000, 4.000000, 4.000000, 4.000000, 4.000000
71.000000, 0.000000, 4199.487305, 4086.666504, 4203.589844, 4188.717773, 4161.538574, 4202.563965, 4215.384277, 4214.358887, 4203.076660, 4279.487305, 4224.615234, 4213.846191, 4294.358887, 4221.025391, 3513.000000, 8690.000000, 8105.000000, 0.000000, 0.000000, 0.000000, -19910.000000, 596.410217, 4.000000, 4.000000, 4.000000, 4.000000, 4.000000, 4.000000, 4.000000, 4.000000, 0.000000, 4.000000, 4.000000, 4.000000, 4.000000, 4.000000, 4.000000, 4.000000
72.000000, 0.000000, 4197.948730, 4083.589600, 4197.948730, 4187.179199, 4170.256348, 4204.102539, 4217.436035, 4206.153809, 4203.589844, 4280.512695, 4218.461426, 4201.025391, 4283.589844, 4213.846191, 0.000000, 8690.000000, 8105.000000, 0.000000, 0.000000, 0.000000, -19910.000000, 604.615356, 4.000000, 4.000000, 4.000000, 4.000000, 4.000000, 4.000000, 4.000000, 4.000000, 0.000000, 4.000000, 4.000000, 4.000000, 4.000000, 4.000000, 4.000000, 4.000000
73.000000, 0.000000, 4198.974121, 4085.640869, 4190.256348, 4185.641113, 4163.076660, 4202.563965, 4215.897461, 4194.358887, 4204.615234, 4276.410156, 4216.922852, 4194.358887, 4268.205078, 4211.281738, 2942.000000, 8740.000000, 8085.000000, 0.000000, 0.000000, 0.000000, -19910.000000, 612.820496, 4.000000, 4.000000, 4.000000, 4.000000, 4.000000, 4.000000, 4.000000, 4.000000, 0.000000, 4.000000, 4.000000, 4.000000, 4.000000, 4.000000, 4.000000, 4.000000
74.000000, 0.000000, 4190.769043, 4089.230713, 4184.102539, 4184.615234, 4157.948730, 4200.000000, 4214.358887, 4203.589844, 4203.589844, 4283.589844, 4217.436035, 4190.256348, 4258.974121, 4205.641113, 3584.000000, 8740.000000, 8085.000000, 0.000000, 0.000000, 0.000000, -19910.000000, 620.512817, 4.000000, 4.000000, 4.000000, 4.000000, 4.000000, 4.000000, 4.000000, 4.000000, 0.000000, 4.000000, 4.000000, 4.000000, 4.000000, 4.000000, 4.000000, 4.000000
75.000000, 0.000000, 4185.127930, 4093.333252, 4186.153809, 4187.692383, 4161.025391, 4201.025391, 4219.487305, 4212.307617, 4202.563965, 4295.897461, 4217.436035, 4187.692383, 4258.974121, 4202.051270, 3551.000000, 8834.000000, 8063.000000, 0.000000, 0.000000, 0.000000, -19910.000000, 628.717957, 4.000000, 4.000000, 4.000000, 4.000000, 4.000000, 4.000000, 4.000000, 4.000000, 0.000000, 4.000000, 4.000000, 4.000000, 4.000000, 4.000000, 4.000000, 4.000000
76.000000, 0.000000, 4187.179199, 4093.333252, 4190.769043, 4188.205078, 4159.487305, 4203.589844, 4221.538574, 4203.589844, 4204.102539, 4296.410156, 4217.948730, 4188.205078, 4254.871582, 4202.051270, 3517.000000, 8834.000000, 8063.000000, 0.000000, 0.000000, 0.000000, -19910.000000, 636.410217, 4.000000, 4.000000, 4.000000, 4.000000, 4.000000, 4.000000, 4.000000, 4.000000, 0.000000, 4.000000, 4.000000, 4.000000, 4.000000, 4.000000, 4.000000, 4.000000
77.000000, 0.000000, 4188.717773, 4093.845947, 4194.358887, 4187.692383, 4157.948730, 4204.102539, 4214.358887, 4205.641113, 4205.127930, 4297.436035, 4217.948730, 4188.205078, 4247.692383, 4202.051270, 3473.000000, 8872.000000, 8061.000000, 0.000000, 0.000000, 0.000000, -19910.000000, 644.615356, 4.000000, 4.000000, 4.000000, 4.000000, 4.000000, 4.000000, 4.000000, 4.000000, 0.000000, 4.000000, 4.000000, 4.000000, 4.000000, 4.000000, 4.000000, 4.000000
78.000000, 0.000000, 4187.692383, 4093.333252, 4197.436035, 4192.820313, 4151.794922, 4203.076660, 4207.692383, 4212.820313, 4204.615234, 4308.205078, 4216.922852, 4189.230469, 4246.153809, 4202.563965, 3584.000000, 8872.000000, 8061.000000, 0.000000, 0.000000, 0.000000, -19910.000000, 652.307678, 4.000000, 4.000000, 4.000000, 4.000000, 4.000000, 4.000000, 4.000000, 4.000000, 0.000000, 4.000000, 4.000000, 4.000000, 4.000000, 4.000000, 4.000000, 4.000000
79.000000, 0.000000, 4184.615234, 4090.256348, 4193.846191, 4191.281738, 4140.512695, 4198.974121, 4200.512695, 4196.922852, 4203.589844, 4312.820313, 4211.794922, 4189.743652, 4244.615234, 4204.615234, 3551.000000, 8888.000000, 8041.000000, 0.000000, 0.000000, 0.000000, -19910.000000, 660.512817, 4.000000, 4.000000, 4.000000, 4.000000, 4.000000, 4.000000, 4.000000, 4.000000, 0.000000, 4.000000, 4.000000, 4.000000, 4.000000, 4.000000, 4.000000, 4.000000
80.000000, 1.000000, 4185.127930, 4093.845947, 4194.871582, 4191.794922, 4142.051270, 4202.051270, 4206.153809, 4204.615234, 4203.589844, 4316.410156, 4217.436035, 4192.307617, 4250.256348, 4206.153809, 3538.000000, 8888.000000, 8041.000000, 0.000000, 0.000000, 0.000000, -19910.000000, 668.205139, 4.000000, 4.000000, 4.000000, 4.000000, 4.000000, 4.000000, 4.000000, 4.000000, 0.000000, 4.000000, 4.000000, 4.000000, 4.000000, 4.000000, 4.000000, 4.000000
81.000000, 1.000000, 4185.641113, 4097.436035, 4195.897461, 4192.307617, 4143.076660, 4205.127930, 4211.281738, 4212.307617, 4203.589844, 4319.487305, 4223.076660, 4194.871582, 4255.897461, 4208.205078, 3525.000000, 8888.000000, 8041.000000, 0.000000, 0.000000, 0.000000, -19910.000000, 676.410217, 4.000000, 4.000000, 4.000000, 4.000000, 4.000000, 4.000000, 4.000000, 4.000000, 0.000000, 4.000000, 4.000000, 4.000000, 4.000000, 4.000000, 4.000000, 4.000000
82.000000, 1.000000, 4186.153809, 4101.025391, 4197.436035, 4192.820313, 4144.102539, 4208.205078, 4216.922852, 4220.000000, 4203.589844, 4323.076660, 4228.717773, 4197.436035, 4261.538574, 4209.743652, 3512.000000, 8888.000000, 8041.000000, 0.000000, 0.000000, 0.000000, -19910.000000, 684.102539, 4.000000, 4.000000, 4.000000, 4.000000, 4.000000, 4.000000, 4.000000, 4.000000, 0.000000, 4.000000, 4.000000, 4.000000, 4.000000, 4.000000, 4.000000, 4.000000
83.000000, 1.000000, 4186.666504, 4104.615234, 4198.461426, 4193.333008, 4145.127930, 4211.281738, 4222.051270, 4227.179199, 4203.589844, 4326.666504, 4233.846191, 4200.000000, 4266.666504, 4211.794922, 3499.000000, 8888.000000, 8041.000000, 0.000000, 0.000000, 0.000000, -19910.000000, 691.794861, 4.000000, 4.000000, 4.000000, 4.000000, 4.000000, 4.000000, 4.000000, 4.000000, 0.000000, 4.000000, 4.000000, 4.000000, 4.000000, 4.000000, 4.000000, 4.000000
84.000000, 1.000000, 4187.179199, 4108.205078, 4199.487305, 4193.846191, 4146.666504, 4214.358887, 4227.692383, 4234.871582, 4203.589844, 4330.256348, 4239.487305, 4202.563965, 4272.307617, 4213.333008, 3486.000000, 8888.000000, 8041.000000, 0.000000, 0.000000, 0.000000, -19910.000000, 700.000000, 4.000000, 4.000000, 4.000000, 4.000000, 4.000000, 4.000000, 4.000000, 4.000000, 0.000000, 4.000000, 4.000000, 4.000000, 4.000000, 4.000000, 4.000000, 4.000000
85.000000, 0.000000, 4188.205078, 4111.794922, 4201.025391, 4194.358887, 4147.692383, 4217.948730, 4233.846191, 4243.076660, 4204.102539, 4333.846191, 4245.641113, 4205.127930, 4278.461426, 4215.384277, 3473.000000, 8888.000000, 8041.000000, 0.000000, 0.000000, 0.000000, -19910.000000, 707.692261, 4.000000, 4.000000, 4.000000, 4.000000, 4.000000, 4.000000, 4.000000, 4.000000, 0.000000, 4.000000, 4.000000, 4.000000, 4.000000, 4.000000, 4.000000, 4.000000
86.000000, 0.000000, 4184.615234, 4107.692383, 4199.487305, 4187.179199, 4132.820313, 4217.948730, 4230.769043, 4224.615234, 4203.589844, 4323.589844, 4237.948730, 4203.076660, 4273.846191, 4210.769043, 3584.000000, 8888.000000, 8041.000000, 0.000000, 0.000000, 0.000000, -19910.000000, 715.897400, 4.000000, 4.000000, 4.000000, 4.000000, 4.000000, 4.000000, 4.000000, 4.000000, 0.000000, 4.000000, 4.000000, 4.000000, 4.000000, 4.000000, 4.000000, 4.000000
87.000000, 0.000000, 4187.179199, 4106.666504, 4197.436035, 4184.102539, 4147.692383, 4218.974121, 4218.461426, 4191.794922, 4202.051270, 4317.948730, 4231.281738, 4201.538574, 4276.922852, 4210.769043, 3551.000000, 8605.000000, 7935.000000, 0.000000, 0.000000, 0.000000, -19910.000000, 723.589722, 4.000000, 4.000000, 4.000000, 4.000000, 4.000000, 4.000000, 4.000000, 4.000000, 0.000000, 4.000000, 4.000000, 4.000000, 4.000000, 4.000000, 4.000000, 4.000000
88.000000, 0.000000, 4188.717773, 4109.743652, 4200.512695, 4188.717773, 4156.410156, 4217.948730, 4218.461426, 4200.512695, 4202.051270, 4310.769043, 4234.871582, 4204.615234, 4273.333008, 4212.820313, 3517.000000, 8605.000000, 7935.000000, 0.000000, 0.000000, 0.000000, -19910.000000, 731.282043, 4.000000, 4.000000, 4.000000, 4.000000, 4.000000, 4.000000, 4.000000, 4.000000, 0.000000, 4.000000, 4.000000, 4.000000, 4.000000, 4.000000, 4.000000, 4.000000
89.000000, 0.000000, 4183.589844, 4107.179199, 4197.948730, 4187.692383, 4145.127930, 4207.692383, 4217.948730, 4205.127930, 4202.563965, 4306.666504, 4231.794922, 4203.076660, 4259.487305, 4208.205078, 3473.000000, 8530.000000, 7951.000000, 0.000000, 0.000000, 0.000000, -19910.000000, 739.487183, 4.000000, 4.000000, 4.000000, 4.000000, 4.000000, 4.000000, 4.000000, 4.000000, 0.000000, 4.000000, 4.000000, 4.000000, 4.000000, 4.000000, 4.000000, 4.000000
90.000000, 0.000000, 4186.153809, 4103.589844, 4196.410156, 4183.589844, 4137.436035, 4201.025391, 4211.794922, 4184.102539, 4202.051270, 4307.179199, 4226.153809, 4197.948730, 4258.974121, 4205.641113, 3584.000000, 8530.000000, 7951.000000, 0.000000, 0.000000, 0.000000, -19910.000000, 747.179443, 4.000000, 4.000000, 4.000000, 4.000000, 4.000000, 4.000000, 4.000000, 4.000000, 0.000000, 4.000000, 4.000000, 4.000000, 4.000000, 4.000000, 4.000000, 4.000000
91.000000, 0.000000, 4197.948730, 4107.179199, 4206.153809, 4189.743652, 4135.897461, 4204.615234, 4215.384277, 4187.179199, 4200.512695, 4310.256348, 4230.769043, 4203.589844, 4272.820313, 4212.307617, 3551.000000, 8391.000000, 7956.000000, 0.000000, 0.000000, 0.000000, -19910.000000, 754.871765, 4.000000, 4.000000, 4.000000, 4.000000, 4.000000, 4.000000, 4.000000, 4.000000, 0.000000, 4.000000, 4.000000, 4.000000, 4.000000, 4.000000, 4.000000, 4.000000
92.000000, 0.000000, 4205.127930, 4108.205078, 4217.436035, 4203.076660, 4138.974121, 4211.281738, 4219.487305, 4209.230469, 4201.025391, 4324.615234, 4236.922852, 4216.922852, 4280.000000, 4218.974121, 3517.000000, 8391.000000, 7956.000000, 0.000000, 0.000000, 0.000000, -19910.000000, 763.076904, 4.000000, 4.000000, 4.000000, 4.000000, 4.000000, 4.000000, 4.000000, 4.000000, 0.000000, 4.000000, 4.000000, 4.000000, 4.000000, 4.000000, 4.000000, 4.000000
93.000000, 0.000000, 4198.974121, 4091.794678, 4215.897461, 4202.051270, 4135.897461, 4209.230469, 4216.922852, 4213.333008, 4202.563965, 4337.436035, 4235.897461, 4216.922852, 4279.487305, 4214.871582, 3473.000000, 8332.000000, 7965.000000, 0.000000, 0.000000, 0.000000, -19910.000000, 770.769226, 4.000000, 4.000000, 4.000000, 4.000000, 4.000000, 4.000000, 4.000000, 4.000000, 0.000000, 4.000000, 4.000000, 4.000000, 4.000000, 4.000000, 4.000000, 4.000000
94.000000, 0.000000, 4185.641113, 4070.256348, 4203.589844, 4188.205078, 4115.897461, 4202.051270, 4224.102539, 4198.461426, 4204.102539, 4334.871582, 4230.256348, 4202.563965, 4276.410156, 4200.512695, 3584.000000, 8332.000000, 7965.000000, 0.000000, 0.000000, 0.000000, -19910.000000, 778.461548, 4.000000, 4.000000, 4.000000, 4.000000, 4.000000, 4.000000, 4.000000, 4.000000, 0.000000, 4.000000, 4.000000, 4.000000, 4.000000, 4.000000, 4.000000, 4.000000
95.000000, 0.000000, 4181.538574, 4066.666504, 4194.358887, 4183.076660, 4105.641113, 4200.512695, 4231.794922, 4197.948730, 4203.589844, 4334.358887, 4227.179199, 4195.897461, 4275.897461, 4187.179199, 3551.000000, 8238.000000, 7977.000000, 0.000000, 0.000000, 0.000000, -19910.000000, 786.153809, 4.000000, 4.000000, 4.000000, 4.000000, 4.000000, 4.000000, 4.000000, 4.000000, 0.000000, 4.000000, 4.000000, 4.000000, 4.000000, 4.000000, 4.000000, 4.000000
96.000000, 0.000000, 4183.076660, 4074.871582, 4194.358887, 4186.153809, 4120.512695, 4202.563965, 4222.051270, 4217.436035, 4202.563965, 4341.538574, 4228.205078, 4201.538574, 4280.512695, 4188.717773, 3517.000000, 8238.000000, 7977.000000, 0.000000, 0.000000, 0.000000, -19910.000000, 793.846130, 4.000000, 4.000000, 4.000000, 4.000000, 4.000000, 4.000000, 4.000000, 4.000000, 0.000000, 4.000000, 4.000000, 4.000000, 4.000000, 4.000000, 4.000000, 4.000000
97.000000, 0.000000, 4184.615234, 4071.281982, 4197.948730, 4185.127930, 4124.615234, 4200.512695, 4213.846191, 4214.871582, 4203.076660, 4346.153809, 4228.717773, 4203.076660, 4288.717773, 4198.461426, 3473.000000, 8203.000000, 7978.000000, 0.000000, 0.000000, 0.000000, -19910.000000, 802.051270, 4.000000, 4.000000, 4.000000, 4.000000, 4.000000, 4.000000, 4.000000, 4.000000, 0.000000, 4.000000, 4.000000, 4.000000, 4.000000, 4.000000, 4.000000, 4.000000
98.000000, 0.000000, 4190.256348, 4061.538330, 4203.076660, 4185.127930, 4111.281738, 4200.000000, 4225.127930, 4203.076660, 4203.076660, 4355.384277, 4229.230469, 4202.563965, 4298.461426, 4200.512695, 3584.000000, 8203.000000, 7978.000000, 0.000000, 0.000000, 0.000000, -19910.000000, 809.743591, 4.000000, 4.000000, 4.000000, 4.000000, 4.000000, 4.000000, 4.000000, 4.000000, 0.000000, 4.000000, 4.000000, 4.000000, 4.000000, 4.000000, 4.000000, 4.000000
99.000000, 0.000000, 4198.461426, 4066.666504, 4204.615234, 4192.820313, 4110.256348, 4205.641113, 4234.358887, 4220.000000, 4203.076660, 4374.358887, 4237.948730, 4210.769043, 4314.871582, 4208.717773, 3551.000000, 8147.000000, 8003.000000, 0.000000, 0.000000, 0.000000, -19910.000000, 817.435852, 4.000000, 4.000000, 4.000000, 4.000000, 4.000000, 4.000000, 4.000000, 4.000000, 0.000000, 4.000000, 4.000000, 4.000000, 4.000000, 4.000000, 4.000000, 4.000000
100.000000, 0.000000, 4201.538574, 4076.923096, 4205.127930, 4200.000000, 4116.410156, 4205.127930, 4235.897461, 4239.487305, 4203.076660, 4392.307617, 4247.692383, 4222.563965, 4333.846191, 4220.000000, 3517.000000, 8147.000000, 8003.000000, 0.000000, 0.000000, 0.000000, -19910.000000, 825.128174, 4.000000, 4.000000, 4.000000, 4.000000, 4.000000, 4.000000, 4.000000, 4.000000, 0.000000, 4.000000, 4.000000, 4.000000, 4.000000, 4.000000, 4.000000, 4.000000
101.000000, 0.000000, 4203.076660, 4078.461426, 4211.794922, 4202.563965, 4115.384277, 4207.692383, 4246.153809, 4229.230469, 4203.076660, 4403.589844, 4249.743652, 4227.179199, 4345.127930, 4222.051270, 3473.000000, 8131.000000, 8014.000000, 0.000000, 0.000000, 0.000000, -19910.000000, 832.820496, 4.000000, 4.000000, 4.000000, 4.000000, 4.000000, 4.000000, 4.000000, 4.000000, 0.000000, 4.000000, 4.000000, 4.000000, 4.000000, 4.000000, 4.000000, 4.000000
102.000000, 0.000000, 4207.179199, 4076.410156, 4214.358887, 4204.102539, 4112.307617, 4216.410156, 4254.871582, 4233.846191, 4203.589844, 4416.410156, 4247.692383, 4225.641113, 4344.615234, 4218.461426, 3584.000000, 8131.000000, 8014.000000, 0.000000, 0.000000, 0.000000, -19910.000000, 840.512817, 4.000000, 4.000000, 4.000000, 4.000000, 4.000000, 4.000000, 4.000000, 4.000000, 0.000000, 4.000000, 4.000000, 4.000000, 4.000000, 4.000000, 4.000000, 4.000000
103.000000, 0.000000, 4204.615234, 4076.410156, 4205.641113, 4203.076660, 4108.717773, 4212.307617, 4249.743652, 4253.333008, 4202.563965, 4427.179199, 4240.512695, 4220.000000, 4334.358887, 4211.281738, 3551.000000, 8123.000000, 8021.000000, 0.000000, 0.000000, 0.000000, -19910.000000, 848.717957, 4.000000, 4.000000, 4.000000, 4.000000, 4.000000, 4.000000, 4.000000, 4.000000, 0.000000, 4.000000, 4.000000, 4.000000, 4.000000, 4.000000, 4.000000, 4.000000
104.000000, 0.000000, 4199.487305, 4081.025635, 4198.461426, 4199.487305, 4107.179199, 4204.615234, 4244.615234, 4236.922852, 4203.076660, 4426.666504, 4230.769043, 4211.794922, 4324.102539, 4202.051270, 3517.000000, 8123.000000, 8021.000000, 0.000000, 0.000000, 0.000000, -19910.000000, 856.410217, 4.000000, 4.000000, 4.000000, 4.000000, 4.000000, 4.000000, 4.000000, 4.000000, 0.000000, 4.000000, 4.000000, 4.000000, 4.000000, 4.000000, 4.000000, 4.000000
105.000000, 0.000000, 4199.487305, 4086.153809, 4201.538574, 4198.461426, 4108.717773, 4212.307617, 4246.153809, 4213.846191, 4205.641113, 4429.230469, 4230.769043, 4209.743652, 4329.230469, 4202.563965, 3473.000000, 8114.000000, 8013.000000, 0.000000, 0.000000, 0.000000, -19910.000000, 864.102539, 4.000000, 4.000000, 4.000000, 4.000000, 4.000000, 4.000000, 4.000000, 4.000000, 0.000000, 4.000000, 4.000000, 4.000000, 4.000000, 4.000000, 4.000000, 4.000000
106.000000, 0.000000, 4201.538574, 4092.820313, 4203.589844, 4200.512695, 4108.717773, 4214.871582, 4238.974121, 4208.717773, 4205.127930, 4440.000000, 4235.384277, 4209.743652, 4342.051270, 4207.179199, 3584.000000, 8114.000000, 8013.000000, 0.000000, 0.000000, 0.000000, -19910.000000, 871.794861, 4.000000, 4.000000, 4.000000, 4.000000, 4.000000, 4.000000, 4.000000, 4.000000, 0.000000, 4.000000, 4.000000, 4.000000, 4.000000, 4.000000, 4.000000, 4.000000
107.000000, 0.000000, 4201.025391, 4101.538574, 4203.589844, 4198.461426, 4107.179199, 4201.538574, 4230.256348, 4209.743652, 4202.051270, 4447.692383, 4234.358887, 4208.717773, 4346.153809, 4204.102539, 3551.000000, 8118.000000, 8019.000000, 0.000000, 0.000000, 0.000000, -19910.000000, 879.487183, 4.000000, 4.000000, 4.000000, 4.000000, 4.000000, 4.000000, 4.000000, 4.000000, 0.000000, 4.000000, 4.000000, 4.000000, 4.000000, 4.000000, 4.000000, 4.000000
108.000000, 0.000000, 4201.538574, 4108.205078, 4209.743652, 4197.948730, 4106.153809, 4197.948730, 4235.384277, 4211.281738, 4202.563965, 4448.205078, 4231.281738, 4210.256348, 4342.051270, 4201.025391, 3517.000000, 8118.000000, 8019.000000, 0.000000, 0.000000, 0.000000, -19910.000000, 887.692261, 4.000000, 4.000000, 4.000000, 4.000000, 4.000000, 4.000000, 4.000000, 4.000000, 0.000000, 4.000000, 4.000000, 4.000000, 4.000000, 4.000000, 4.000000, 4.000000
109.000000, 0.000000, 4205.641113, 4111.281738, 4213.333008, 4202.051270, 4102.563965, 4203.589844, 4237.948730, 4216.410156, 4204.615234, 4444.615234, 4230.769043, 4213.846191, 4342.563965, 4203.589844, 3473.000000, 8133.000000, 8046.000000, 0.000000, 0.000000, 0.000000, -19910.000000, 895.384583, 4.000000, 4.000000, 4.000000, 4.000000, 4.000000, 4.000000, 4.000000, 4.000000, 0.000000, 4.000000, 4.000000, 4.000000, 4.000000, 4.000000, 4.000000, 4.000000
110.000000, 0.000000, 4204.102539, 4107.692383, 4214.871582, 4198.461426, 4093.845947, 4198.461426, 4228.205078, 4226.153809, 4202.563965, 4450.256348, 4231.794922, 4216.922852, 4345.641113, 4203.076660, 3584.000000, 8133.000000, 8046.000000, 0.000000, 0.000000, 0.000000, -19910.000000, 903.076904, 4.000000, 4.000000, 4.000000, 4.000000, 4.000000, 4.000000, 4.000000, 4.000000, 0.000000, 4.000000, 4.000000, 4.000000, 4.000000, 4.000000, 4.000000, 4.000000
111.000000, 0.000000, 4198.974121, 4105.641113, 4216.922852, 4191.281738, 4092.307617, 4196.922852, 4235.384277, 4227.179199, 4202.563965, 4460.512695, 4232.820313, 4218.974121, 4341.025391, 4200.512695, 3551.000000, 8154.000000, 8061.000000, 0.000000, 0.000000, 0.000000, -19910.000000, 910.769226, 4.000000, 4.000000, 4.000000, 4.000000, 4.000000, 4.000000, 4.000000, 4.000000, 0.000000, 4.000000, 4.000000, 4.000000, 4.000000, 4.000000, 4.000000, 4.000000
112.000000, 0.000000, 4207.179199, 4122.051270, 4217.948730, 4197.948730, 4102.051270, 4202.563965, 4249.230469, 4225.127930, 4204.102539, 4465.127930, 4230.256348, 4220.000000, 4336.410156, 4201.025391, 3517.000000, 8154.000000, 8061.000000, 0.000000, 0.000000, 0.000000, -19910.000000, 918.461487, 4.000000, 4.000000, 4.000000, 4.000000, 4.000000, 4.000000, 4.000000, 4.000000, 0.000000, 4.000000, 4.000000, 4.000000, 4.000000, 4.000000, 4.000000, 4.000000
113.000000, 0.000000, 4220.512695, 4149.230469, 4216.922852, 4213.333008, 4107.692383, 4195.897461, 4235.384277, 4217.948730, 4201.025391, 4468.205078, 4224.102539, 4221.025391, 4336.410156, 4206.153809, 3473.000000, 8181.000000, 8074.000000, 0.000000, 0.000000, 0.000000, -19910.000000, 926.153809, 4.000000, 4.000000, 4.000000, 4.000000, 4.000000, 4.000000, 4.000000, 4.000000, 0.000000, 4.000000, 4.000000, 4.000000, 4.000000, 4.000000, 4.000000, 4.000000
114.000000, 0.000000, 4223.076660, 4163.076660, 4215.384277, 4216.410156, 4104.615234, 4185.127930, 4214.871582, 4214.358887, 4205.127930, 4473.846191, 4218.461426, 4215.897461, 4331.794922, 4201.538574, 3584.000000, 8181.000000, 8074.000000, 0.000000, 0.000000, 0.000000, -19910.000000, 934.358948, 4.000000, 4.000000, 4.000000, 4.000000, 4.000000, 4.000000, 4.000000, 4.000000, 0.000000, 4.000000, 4.000000, 4.000000, 4.000000, 4.000000, 4.000000, 4.000000
115.000000, 0.000000, 4225.127930, 4166.153809, 4215.384277, 4213.333008, 4104.102539, 4185.127930, 4213.333008, 4219.487305, 4215.897461, 4476.922852, 4211.281738, 4205.127930, 4325.641113, 4188.205078, 3551.000000, 8222.000000, 8075.000000, 0.000000, 0.000000, 0.000000, -19910.000000, 942.051270, 4.000000, 4.000000, 4.000000, 4.000000, 4.000000, 4.000000, 4.000000, 4.000000, 0.000000, 4.000000, 4.000000, 4.000000, 4.000000, 4.000000, 4.000000, 4.000000
116.000000, 0.000000, 4233.846191, 4181.538574, 4218.461426, 4222.051270, 4109.743652, 4187.179199, 4221.025391, 4213.846191, 4213.846191, 4483.076660, 4205.641113, 4203.589844, 4327.692383, 4188.205078, 3517.000000, 8222.000000, 8075.000000, 0.000000, 0.000000, 0.000000, -19910.000000, 949.743591, 4.000000, 4.000000, 4.000000, 4.000000, 4.000000, 4.000000, 4.000000, 4.000000, 0.000000, 4.000000, 4.000000, 4.000000, 4.000000, 4.000000, 4.000000, 4.000000
117.000000, 0.000000, 4236.922852, 4197.436035, 4218.974121, 4231.281738, 4108.205078, 4189.743652, 4230.256348, 4198.974121, 4205.127930, 4492.307617, 4197.436035, 4205.127930, 4322.563965, 4190.769043, 3473.000000, 8235.000000, 8071.000000, 0.000000, 0.000000, 0.000000, -19910.000000, 957.435852, 4.000000, 4.000000, 4.000000, 4.000000, 4.000000, 4.000000, 4.000000, 4.000000, 0.000000, 4.000000, 4.000000, 4.000000, 4.000000, 4.000000, 4.000000, 4.000000
118.000000, 0.000000, 4231.281738, 4205.127930, 4216.922852, 4231.794922, 4101.538574, 4197.436035, 4235.384277, 4196.922852, 4204.102539, 4496.922852, 4187.179199, 4199.487305, 4311.794922, 4177.436035, 3584.000000, 8235.000000, 8071.000000, 0.000000, 0.000000, 0.000000, -19910.000000, 965.128174, 4.000000, 4.000000, 4.000000, 4.000000, 4.000000, 4.000000, 4.000000, 4.000000, 0.000000, 4.000000, 4.000000, 4.000000, 4.000000, 4.000000, 4.000000, 4.000000
119.000000, 0.000000, 4232.307617, 4214.871582, 4218.461426, 4233.333008, 4106.666504, 4202.051270, 4228.205078, 4206.153809, 4205.641113, 4503.076660, 4186.666504, 4196.410156, 4310.769043, 4171.281738, 3551.000000, 8245.000000, 8067.000000, 0.000000, 0.000000, 0.000000, -19910.000000, 973.333313, 4.000000, 4.000000, 4.000000, 4.000000, 4.000000, 4.000000, 4.000000, 4.000000, 0.000000, 4.000000, 4.000000, 4.000000, 4.000000, 4.000000, 4.000000, 4.000000
120.000000, 0.000000, 4232.820313, 4221.538574, 4213.333008, 4234.358887, 4113.846191, 4198.974121, 4228.717773, 4201.025391, 4202.051270, 4507.179199, 4181.538574, 4190.769043, 4304.615234, 4170.769043, 3517.000000, 8245.000000, 8067.000000, 0.000000, 0.000000, 0.000000, -19910.000000, 981.025635, 4.000000, 4.000000, 4.000000, 4.000000, 4.000000, 4.000000, 4.000000, 4.000000, 0.000000, 4.000000, 4.000000, 4.000000, 4.000000, 4.000000, 4.000000, 4.000000
121.000000, 0.000000, 4230.256348, 4221.538574, 4206.153809, 4231.281738, 4109.230469, 4201.025391, 4242.051270, 4193.846191, 4201.538574, 4506.666504, 4168.717773, 4183.589844, 4291.794922, 4161.025391, 3473.000000, 8239.000000, 8067.000000, 0.000000, 0.000000, 0.000000, -19910.000000, 988.717896, 4.000000, 4.000000, 4.000000, 4.000000, 4.000000, 4.000000, 4.000000, 4.000000, 0.000000, 4.000000, 4.000000, 4.000000, 4.000000, 4.000000, 4.000000, 4.000000
122.000000, 0.000000, 4228.717773, 4223.589844, 4213.846191, 4228.205078, 4107.692383, 4201.538574, 4236.922852, 4206.666504, 4209.230469, 4511.794922, 4171.281738, 4192.820313, 4291.794922, 4162.563965, 3584.000000, 8239.000000, 8067.000000, 0.000000, 0.000000, 0.000000, -19910.000000, 996.410217, 4.000000, 4.000000, 4.000000, 4.000000, 4.000000, 4.000000, 4.000000, 4.000000, 0.000000, 4.000000, 4.000000, 4.000000, 4.000000, 4.000000, 4.000000, 4.000000
123.000000, 0.000000, 4226.666504, 4232.820313, 4217.948730, 4224.102539, 4110.769043, 4190.256348, 4218.974121, 4206.666504, 4213.333008, 4512.820313, 4182.051270, 4201.538574, 4296.922852, 4171.794922, 3551.000000, 8215.000000, 8044.000000, 0.000000, 0.000000, 0.000000, -19909.000000, 4.102564, 4.000000, 4.000000, 4.000000, 4.000000, 4.000000, 4.000000, 4.000000, 4.000000, 0.000000, 4.000000, 4.000000, 4.000000, 4.000000, 4.000000, 4.000000, 4.000000
124.000000, 0.000000, 4217.436035, 4232.307617, 4206.153809, 4215.897461, 4103.589844, 4182.051270, 4215.897461, 4190.256348, 4214.358887, 4504.102539, 4173.333008, 4189.230469, 4292.307617, 4161.538574, 3517.000000, 8215.000000, 8044.000000, 0.000000, 0.000000, 0.000000, -19909.000000, 12.307692, 4.000000, 4.000000, 4.000000, 4.000000, 4.000000, 4.000000, 4.000000, 4.000000, 0.000000, 4.000000, 4.000000, 4.000000, 4.000000, 4.000000, 4.000000, 4.000000
125.000000, 0.000000, 4211.281738, 4228.717773, 4201.538574, 4215.897461, 4102.563965, 4185.127930, 4217.436035, 4192.307617, 4212.307617, 4500.512695, 4162.051270, 4178.974121, 4287.692383, 4148.717773, 3473.000000, 8197.000000, 8027.000000, 0.000000, 0.000000, 0.000000, -19909.000000, 20.000000, 4.000000, 4.000000, 4.000000, 4.000000, 4.000000, 4.000000, 4.000000, 4.000000, 0.000000, 4.000000, 4.000000, 4.000000, 4.000000, 4.000000, 4.000000, 4.000000
126.000000, 0.000000, 4221.538574, 4237.948730, 4210.769043, 4224.615234, 4114.358887, 4185.641113, 4211.794922, 4200.000000, 4205.127930, 4504.102539, 4168.717773, 4184.615234, 4292.307617, 4153.846191, 3584.000000, 8197.000000, 8027.000000, 0.000000, 0.000000, 0.000000, -19909.000000, 27.692307, 4.000000, 4.000000, 4.000000, 4.000000, 4.000000, 4.000000, 4.000000, 4.000000, 0.000000, 4.000000, 4.000000, 4.000000, 4.000000, 4.000000, 4.000000, 4.000000
127.000000, 0.000000, 4232.307617, 4248.205078, 4217.948730, 4230.769043, 4115.384277, 4185.127930, 4211.794922, 4193.846191, 4204.615234, 4506.666504, 4178.974121, 4196.410156, 4303.076660, 4164.102539, 56.000000, 8178.000000, 7995.000000, 0.000000, 0.000000, 0.000000, -19909.000000, 35.384613, 4.000000, 4.000000, 4.000000, 4.000000, 4.000000, 4.000000, 4.000000, 4.000000, 0.000000, 4.000000, 4.000000, 4.000000, 4.000000, 4.000000, 4.000000, 4.000000
0.000000, 0.000000, 4232.820313, 4256.922852, 4221.025391, 4231.281738, 4108.717773, 4186.666504, 4212.820313, 4194.871582, 4213.333008, 4508.717773, 4185.641113, 4204.102539, 4310.769043, 4169.230469, 3186.000000, 8178.000000, 7995.000000, 0.000000, 0.000000, 0.000000, -19909.000000, 43.076923, 4.000000, 4.000000, 4.000000, 4.000000, 4.000000, 4.000000, 4.000000, 4.000000, 0.000000, 4.000000, 4.000000, 4.000000, 4.000000, 4.000000, 4.000000, 4.000000
1.000000, 0.000000, 4231.794922, 4264.615234, 4222.563965, 4229.743652, 4110.256348, 4179.487305, 4200.000000, 4202.563965, 4215.897461, 4510.256348, 4187.692383, 4204.615234, 4311.281738, 4172.307617, 3553.000000, 8144.000000, 7940.000000, 0.000000, 0.000000, 0.000000, -19909.000000, 51.282051, 4.000000, 4.000000, 4.000000, 4.000000, 4.000000, 4.000000, 4.000000, 4.000000, 0.000000, 4.000000, 4.000000, 4.000000, 4.000000, 4.000000, 4.000000, 4.000000
2.000000, 0.000000, 4231.281738, 4264.102539, 4221.538574, 4228.205078, 4104.102539, 4170.769043, 4192.820313, 4194.358887, 4211.281738, 4503.589844, 4182.051270, 4197.436035, 4310.769043, 4167.179199, 3570.000000, 8144.000000, 7940.000000, 0.000000, 0.000000, 0.000000, -19909.000000, 58.974358, 4.000000, 4.000000, 4.000000, 4.000000, 4.000000, 4.000000, 4.000000, 4.000000, 0.000000, 4.000000, 4.000000, 4.000000, 4.000000, 4.000000, 4.000000, 4.000000
3.000000, 0.000000, 4222.563965, 4261.538574, 4212.820313, 4223.076660, 4094.358887, 4176.922852, 4211.281738, 4194.358887, 4209.743652, 4491.794922, 4173.846191, 4188.205078, 4309.743652, 4156.410156, 2737.000000, 8128.000000, 7943.000000, 0.000000, 0.000000, 0.000000, -19909.000000, 66.666664, 4.000000, 4.000000, 4.000000, 4.000000, 4.000000, 4.000000, 4.000000, 4.000000, 0.000000, 4.000000, 4.000000, 4.000000, 4.000000, 4.000000, 4.000000, 4.000000
4.000000, 0.000000, 4209.230469, 4257.948730, 4201.538574, 4217.436035, 4104.102539, 4188.205078, 4230.256348, 4211.281738, 4207.179199, 4490.769043, 4170.256348, 4183.076660, 4307.692383, 4152.307617, 3561.000000, 8128.000000, 7943.000000, 0.000000, 0.000000, 0.000000, -19909.000000, 74.358971, 4.000000, 4.000000, 4.000000, 4.000000, 4.000000, 4.000000, 4.000000, 4.000000, 0.000000, 4.000000, 4.000000, 4.000000, 4.000000, 4.000000, 4.000000, 4.000000
5.000000, 0.000000, 4211.281738, 4256.410156, 4197.948730, 4215.897461, 4122.563965, 4185.127930, 4223.589844, 4215.384277, 4207.179199, 4497.435547, 4172.307617, 4184.615234, 4310.769043, 4153.846191, 3580.000000, 8101.000000, 7960.000000, 0.000000, 0.000000, 0.000000, -19909.000000, 82.051277, 4.000000, 4.000000, 4.000000, 4.000000, 4.000000, 4.000000, 4.000000, 4.000000, 0.000000, 4.000000, 4.000000, 4.000000, 4.000000, 4.000000, 4.000000, 4.000000
6.000000, 0.000000, 4213.846191, 4251.281738, 4200.000000, 4215.897461, 4118.461426, 4171.794922, 4217.948730, 4211.794922, 4212.820313, 4495.384277, 4173.846191, 4185.641113, 4307.179199, 4146.153809, 3436.000000, 8101.000000, 7960.000000, 0.000000, 0.000000, 0.000000, -19909.000000, 89.743591, 4.000000, 4.000000, 4.000000, 4.000000, 4.000000, 4.000000, 4.000000, 4.000000, 0.000000, 4.000000, 4.000000, 4.000000, 4.000000, 4.000000, 4.000000, 4.000000
7.000000, 0.000000, 4205.641113, 4235.897461, 4197.948730, 4214.871582, 4105.641113, 4171.794922, 4228.205078, 4215.384277, 4214.358887, 4489.230469, 4167.179199, 4182.563965, 4293.333008, 4134.871582, 3511.000000, 8091.000000, 7971.000000, 0.000000, 0.000000, 0.000000, -19909.000000, 97.948715, 4.000000, 4.000000, 4.000000, 4.000000, 4.000000, 4.000000, 4.000000, 4.000000, 0.000000, 4.000000, 4.000000, 4.000000, 4.000000, 4.000000, 4.000000, 4.000000
8.000000, 0.000000, 4202.051270, 4231.794922, 4198.461426, 4214.871582, 4108.205078, 4184.615234, 4236.410156, 4210.769043, 4213.846191, 4489.743652, 4157.948730, 4181.538574, 4285.641113, 4133.333008, 0.000000, 8091.000000, 7971.000000, 0.000000, 0.000000, 0.000000, -19909.000000, 105.641022, 4.000000, 4.000000, 4.000000, 4.000000, 4.000000, 4.000000, 4.000000, 4.000000, 0.000000, 4.000000, 4.000000, 4.000000, 4.000000, 4.000000, 4.000000, 4.000000
9.000000, 0.000000, 4206.666504, 4242.563965, 4202.051270, 4214.871582, 4112.307617, 4191.281738, 4237.436035, 4203.076660, 4216.410156, 4491.281738, 4157.948730, 4183.076660, 4286.153809, 4138.974121, 2928.000000, 8084.000000, 7988.000000, 0.000000, 0.000000, 0.000000, -19909.000000, 113.333328, 4.000000, 4.000000, 4.000000, 4.000000, 4.000000, 4.000000, 4.000000, 4.000000, 0.000000, 4.000000, 4.000000, 4.000000, 4.000000, 4.000000, 4.000000, 4.000000
10.000000, 0.000000, 4203.076660, 4241.538574, 4199.487305, 4205.641113, 4105.641113, 4186.153809, 4229.230469, 4211.281738, 4211.794922, 4491.281738, 4167.179199, 4189.230469, 4290.256348, 4147.179199, 3580.000000, 8084.000000, 7988.000000, 0.000000, 0.000000, 0.000000, -19909.000000, 121.025635, 4.000000, 4.000000, 4.000000, 4.000000, 4.000000, 4.000000, 4.000000, 4.000000, 0.000000, 4.000000, 4.000000, 4.000000, 4.000000, 4.000000, 4.000000, 4.000000
11.000000, 0.000000, 4197.948730, 4234.358887, 4195.897461, 4197.948730, 4103.076660, 4183.076660, 4215.384277, 4208.717773, 4202.563965, 4496.922852, 4175.384277, 4198.461426, 4300.000000, 4153.333008, 3559.000000, 8084.000000, 7995.000000, 0.000000, 0.000000, 0.000000, -19909.000000, 128.717941, 4.000000, 4.000000, 4.000000, 4.000000, 4.000000, 4.000000, 4.000000, 4.000000, 0.000000, 4.000000, 4.000000, 4.000000, 4.000000, 4.000000, 4.000000, 4.000000
12.000000, 0.000000, 4210.256348, 4243.589844, 4204.102539, 4205.127930, 4110.256348, 4189.743652, 4218.974121, 4201.538574, 4207.179199, 4510.256348, 4184.102539, 4208.717773, 4312.820313, 4160.000000, 3522.000000, 8084.000000, 7995.000000, 0.000000, 0.000000, 0.000000, -19909.000000, 136.410248, 4.000000, 4.000000, 4.000000, 4.000000, 4.000000, 4.000000, 4.000000, 4.000000, 0.000000, 4.000000, 4.000000, 4.000000, 4.000000, 4.000000, 4.000000, 4.000000
13.000000, 0.000000, 4225.641113, 4249.743652, 4216.410156, 4216.410156, 4111.281738, 4196.922852, 4231.281738, 4215.897461, 4217.948730, 4515.384277, 4191.281738, 4214.358887, 4321.025391, 4168.717773, 3474.000000, 8094.000000, 7999.000000, 0.000000, 0.000000, 0.000000, -19909.000000, 144.615387, 4.000000, 4.000000, 4.000000, 4.000000, 4.000000, 4.000000, 4.000000, 4.000000, 0.000000, 4.000000, 4.000000, 4.000000, 4.000000, 4.000000, 4.000000, 4.000000
14.000000, 0.000000, 4229.230469, 4245.127930, 4219.487305, 4219.487305, 4108.205078, 4191.794922, 4223.589844, 4218.974121, 4216.922852, 4516.410156, 4189.230469, 4212.307617, 4324.615234, 4171.794922, 3580.000000, 8094.000000, 7999.000000, 0.000000, 0.000000, 0.000000, -19909.000000, 152.307693, 4.000000, 4.000000, 4.000000, 4.000000, 4.000000, 4.000000, 4.000000, 4.000000, 0.000000, 4.000000, 4.000000, 4.000000, 4.000000, 4.000000, 4.000000, 4.000000
15.000000, 0.000000, 4227.179199, 4246.153809, 4214.358887, 4215.897461, 4108.717773, 4181.538574, 4210.769043, 4197.948730, 4211.281738, 4518.974121, 4187.179199, 4210.256348, 4325.641113, 4167.692383, 3559.000000, 8103.000000, 8013.000000, 0.000000, 0.000000, 0.000000, -19909.000000, 160.000000, 4.000000, 4.000000, 4.000000, 4.000000, 4.000000, 4.000000, 4.000000, 4.000000, 0.000000, 4.000000, 4.000000, 4.000000, 4.000000, 4.000000, 4.000000, 4.000000
16.000000, 0.000000, 4229.743652, 4247.179199, 4213.846191, 4214.871582, 4108.717773, 4183.076660, 4212.820313, 4195.384277, 4214.358887, 4517.948730, 4188.717773, 4214.871582, 4325.641113, 4166.666504, 0.000000, 8103.000000, 8013.000000, 0.000000, 0.000000, 0.000000, -19909.000000, 167.692307, 4.000000, 4.000000, 4.000000, 4.000000, 4.000000, 4.000000, 4.000000, 4.000000, 0.000000, 4.000000, 4.000000, 4.000000, 4.000000, 4.000000, 4.000000, 4.000000
17.000000, 0.000000, 4229.230469, 4248.717773, 4216.410156, 4215.384277, 4112.307617, 4187.692383, 4216.922852, 4215.384277, 4215.384277, 4515.897461, 4189.743652, 4216.410156, 4328.717773, 4170.256348, 0.000000, 8115.000000, 8028.000000, 0.000000, 0.000000, 0.000000, -19909.000000, 175.384613, 4.000000, 4.000000, 4.000000, 4.000000, 4.000000, 4.000000, 4.000000, 4.000000, 0.000000, 4.000000, 4.000000, 4.000000, 4.000000, 4.000000, 4.000000, 4.000000
18.000000, 0.000000, 4218.461426, 4250.769043, 4211.794922, 4215.384277, 4116.922852, 4183.076660, 4215.384277, 4216.922852, 4212.820313, 4513.333008, 4189.743652, 4205.127930, 4327.179199, 4165.641113, 0.000000, 8115.000000, 8028.000000, 0.000000, 0.000000, 0.000000, -19909.000000, 183.076920, 4.000000, 4.000000, 4.000000, 4.000000, 4.000000, 4.000000, 4.000000, 4.000000, 0.000000, 4.000000, 4.000000, 4.000000, 4.000000, 4.000000, 4.000000, 4.000000
19.000000, 0.000000, 4215.384277, 4243.589844, 4202.051270, 4215.897461, 4110.256348, 4180.000000, 4212.820313, 4208.205078, 4213.846191, 4509.230469, 4182.051270, 4194.871582, 4317.436035, 4155.384277, 0.000000, 8138.000000, 8050.000000, 0.000000, 0.000000, 0.000000, -19909.000000, 191.282043, 4.000000, 4.000000, 4.000000, 4.000000, 4.000000, 4.000000, 4.000000, 4.000000, 0.000000, 4.000000, 4.000000, 4.000000, 4.000000, 4.000000, 4.000000, 4.000000
20.000000, 0.000000, 4217.948730, 4245.641113, 4196.922852, 4213.846191, 4103.076660, 4180.512695, 4212.820313, 4203.589844, 4215.384277, 4506.666504, 4171.281738, 4190.256348, 4308.717773, 4149.230469, 0.000000, 8138.000000, 8050.000000, 0.000000, 0.000000, 0.000000, -19909.000000, 198.974350, 4.000000, 4.000000, 4.000000, 4.000000, 4.000000, 4.000000, 4.000000, 4.000000, 0.000000, 4.000000, 4.000000, 4.000000, 4.000000, 4.000000, 4.000000, 4.000000
21.000000, 0.000000, 4215.897461, 4261.538574, 4200.000000, 4208.717773, 4113.846191, 4182.051270, 4220.000000, 4200.000000, 4215.897461, 4507.692383, 4174.871582, 4188.205078, 4310.256348, 4152.820313, 0.000000, 8148.000000, 8063.000000, 0.000000, 0.000000, 0.000000, -19909.000000, 206.666656, 4.000000, 4.000000, 4.000000, 4.000000, 4.000000, 4.000000, 4.000000, 4.000000, 0.000000, 4.000000, 4.000000, 4.000000, 4.000000, 4.000000, 4.000000, 4.000000
22.000000, 0.000000, 4213.846191, 4263.076660, 4201.025391, 4204.615234, 4125.641113, 4183.589844, 4229.743652, 4201.538574, 4214.358887, 4511.281738, 4185.127930, 4191.281738, 4319.487305, 4153.333008, 0.000000, 8148.000000, 8063.000000, 0.000000, 0.000000, 0.000000, -19909.000000, 214.871796, 4.000000, 4.000000, 4.000000, 4.000000, 4.000000, 4.000000, 4.000000, 4.000000, 0.000000, 4.000000, 4.000000, 4.000000, 4.000000, 4.000000, 4.000000, 4.000000
23.000000, 0.000000, 4211.794922, 4251.794922, 4192.820313, 4203.076660, 4120.512695, 4184.102539, 4231.281738, 4203.589844, 4214.871582, 4508.717773, 4176.410156, 4189.230469, 4317.436035, 4146.666504, 0.000000, 8160.000000, 8074.000000, 0.000000, 0.000000, 0.000000, -19909.000000, 222.564102, 4.000000, 4.000000, 4.000000, 4.000000, 4.000000, 4.000000, 4.000000, 4.000000, 0.000000, 4.000000, 4.000000, 4.000000, 4.000000, 4.000000, 4.000000, 4.000000
24.000000, 0.000000, 4205.127930, 4254.871582, 4184.102539, 4204.102539, 4120.000000, 4187.179199, 4226.153809, 4202.051270, 4216.410156, 4493.333008, 4156.410156, 4174.871582, 4298.974121, 4137.436035, 0.000000, 8160.000000, 8074.000000, 0.000000, 0.000000, 0.000000, -19909.000000, 230.256409, 4.000000, 4.000000, 4.000000, 4.000000, 4.000000, 4.000000, 4.000000, 4.000000, 0.000000, 4.000000, 4.000000, 4.000000, 4.000000, 4.000000, 4.000000, 4.000000
25.000000, 0.000000, 4198.974121, 4258.461426, 4184.102539, 4199.487305, 4125.641113, 4191.281738, 4227.692383, 4198.974121, 4215.897461, 4483.076660, 4150.769043, 4166.153809, 4285.641113, 4127.179199, 0.000000, 8191.000000, 8090.000000, 0.000000, 0.000000, 0.000000, -19909.000000, 237.948715, 4.000000, 4.000000, 4.000000, 4.000000, 4.000000, 4.000000, 4.000000, 4.000000, 0.000000, 4.000000, 4.000000, 4.000000, 4.000000, 4.000000, 4.000000, 4.000000
26.000000, 0.000000, 4192.820313, 4249.230469, 4184.615234, 4190.256348, 4114.871582, 4190.256348, 4234.871582, 4207.179199, 4215.384277, 4494.358887, 4152.307617, 4168.717773, 4287.692383, 4122.051270, 0.000000, 8191.000000, 8090.000000, 0.000000, 0.000000, 0.000000, -19909.000000, 246.153839, 4.000000, 4.000000, 4.000000, 4.000000, 4.000000, 4.000000, 4.000000, 4.000000, 0.000000, 4.000000, 4.000000, 4.000000, 4.000000, 4.000000, 4.000000, 4.000000
27.000000, 0.000000, 4187.179199, 4242.051270, 4180.512695, 4188.717773, 4098.974121, 4184.102539, 4231.281738, 4221.025391, 4216.922852, 4506.153809, 4150.769043, 4168.205078, 4289.743652, 4126.153809, 0.000000, 8199.000000, 8094.000000, 0.000000, 0.000000, 0.000000, -19909.000000, 253.846146, 4.000000, 4.000000, 4.000000, 4.000000, 4.000000, 4.000000, 4.000000, 4.000000, 0.000000, 4.000000, 4.000000, 4.000000, 4.000000, 4.000000, 4.000000, 4.000000
28.000000, 0.000000, 4198.461426, 4254.358887, 4188.717773, 4198.974121, 4102.563965, 4183.076660, 4219.487305, 4214.358887, 4215.384277, 4510.769043, 4157.948730, 4171.281738, 4294.358887, 4140.000000, 0.000000, 8199.000000, 8094.000000, 0.000000, 0.000000, 0.000000, -19909.000000, 261.538452, 4.000000, 4.000000, 4.000000, 4.000000, 4.000000, 4.000000, 4.000000, 4.000000, 0.000000, 4.000000, 4.000000, 4.000000, 4.000000, 4.000000, 4.000000, 4.000000
29.000000, 0.000000, 4216.410156, 4273.333008, 4204.102539, 4206.153809, 4111.794922, 4182.563965, 4216.922852, 4199.487305, 4212.307617, 4520.000000, 4170.769043, 4183.589844, 4308.717773, 4154.871582, 0.000000, 8222.000000, 8117.000000, 0.000000, 0.000000, 0.000000, -19909.000000, 269.743591, 4.000000, 4.000000, 4.000000, 4.000000, 4.000000, 4.000000, 4.000000, 4.000000, 0.000000, 4.000000, 4.000000, 4.000000, 4.000000, 4.000000, 4.000000, 4.000000
30.000000, 0.000000, 4215.384277, 4276.410156, 4204.615234, 4203.589844, 4110.769043, 4173.846191, 4218.461426, 4198.461426, 4214.358887, 4524.615234, 4173.333008, 4187.692383, 4317.436035, 4156.922852, 0.000000, 8222.000000, 8117.000000, 0.000000, 0.000000, 0.000000, -19909.000000, 277.435883, 4.000000, 4.000000, 4.000000, 4.000000, 4.000000, 4.000000, 4.000000, 4.000000, 0.000000, 4.000000, 4.000000, 4.000000, 4.000000, 4.000000, 4.000000, 4.000000
31.000000, 0.000000, 4207.692383, 4266.666504, 4198.974121, 4201.025391, 4106.153809, 4166.666504, 4216.922852, 4202.563965, 4216.410156, 4518.461426, 4167.179199, 4182.051270, 4310.256348, 4146.153809, 0.000000, 8228.000000, 8130.000000, 0.000000, 0.000000, 0.000000, -19909.000000, 285.641022, 4.000000, 4.000000, 4.000000, 4.000000, 4.000000, 4.000000, 4.000000, 4.000000, 0.000000, 4.000000, 4.000000, 4.000000, 4.000000, 4.000000, 4.000000, 4.000000
32.000000, 0.000000, 4209.743652, 4261.538574, 4198.461426, 4198.974121, 4103.589844, 4166.666504, 4214.358887, 4189.743652, 4214.871582, 4517.948730, 4165.127930, 4181.025391, 4299.487305, 4137.948730, 0.000000, 8228.000000, 8130.000000, 0.000000, 0.000000, 0.000000, -19909.000000, 293.333313, 4.000000, 4.000000, 4.000000, 4.000000, 4.000000, 4.000000, 4.000000, 4.000000, 0.000000, 4.000000, 4.000000, 4.000000, 4.000000, 4.000000, 4.000000, 4.000000
33.000000, 0.000000, 4214.358887, 4266.153809, 4201.538574, 4200.512695, 4107.179199, 4170.256348, 4213.846191, 4180.512695, 4214.358887, 4524.102539, 4165.641113, 4185.127930, 4300.512695, 4141.025391, 0.000000, 8236.000000, 8136.000000, 0.000000, 0.000000, 0.000000, -19909.000000, 301.025635, 4.000000, 4.000000, 4.000000, 4.000000, 4.000000, 4.000000, 4.000000, 4.000000, 0.000000, 4.000000, 4.000000, 4.000000, 4.000000, 4.000000, 4.000000, 4.000000
34.000000, 0.000000, 4218.461426, 4271.281738, 4207.692383, 4207.179199, 4108.717773, 4171.281738, 4213.333008, 4203.076660, 4216.410156, 4524.615234, 4169.230469, 4190.256348, 4305.641113, 4143.076660, 0.000000, 8236.000000, 8136.000000, 0.000000, 0.000000, 0.000000, -19909.000000, 309.230774, 4.000000, 4.000000, 4.000000, 4.000000, 4.000000, 4.000000, 4.000000, 4.000000, 0.000000, 4.000000, 4.000000, 4.000000, 4.000000, 4.000000, 4.000000, 4.000000
35.000000, 0.000000, 4220.512695, 4268.717773, 4210.769043, 4209.230469, 4098.461426, 4168.717773, 4217.436035, 4220.000000, 4216.410156, 4524.615234, 4171.281738, 4188.717773, 4301.025391, 4142.051270, 0.000000, 8232.000000, 8147.000000, 0.000000, 0.000000, 0.000000, -19909.000000, 316.923065, 4.000000, 4.000000, 4.000000, 4.000000, 4.000000, 4.000000, 4.000000, 4.000000, 0.000000, 4.000000, 4.000000, 4.000000, 4.000000, 4.000000, 4.000000, 4.000000
36.000000, 0.000000, 4219.487305, 4265.641113, 4210.769043, 4208.717773, 4100.512695, 4171.281738, 4221.538574, 4207.692383, 4215.897461, 4531.794922, 4167.692383, 4184.615234, 4294.358887, 4145.641113, 0.000000, 8232.000000, 8147.000000, 0.000000, 0.000000, 0.000000, -19909.000000, 324.615387, 4.000000, 4.000000, 4.000000, 4.000000, 4.000000, 4.000000, 4.000000, 4.000000, 0.000000, 4.000000, 4.000000, 4.000000, 4.000000, 4.000000, 4.000000, 4.000000
37.000000, 0.000000, 4222.563965, 4271.794922, 4214.358887, 4214.358887, 4122.563965, 4177.948730, 4215.897461, 4200.512695, 4215.897461, 4538.974121, 4169.230469, 4191.281738, 4297.948730, 4154.358887, 0.000000, 8227.000000, 8142.000000, 0.000000, 0.000000, 0.000000, -19909.000000, 332.820496, 4.000000, 4.000000, 4.000000, 4.000000, 4.000000, 4.000000, 4.000000, 4.000000, 0.000000, 4.000000, 4.000000, 4.000000, 4.000000, 4.000000, 4.000000, 4.000000
38.000000, 0.000000, 4228.205078, 4276.410156, 4216.410156, 4218.461426, 4130.769043, 4177.948730, 4210.769043, 4201.538574, 4215.897461, 4542.563965, 4174.871582, 4199.487305, 4302.051270, 4160.512695, 0.000000, 8227.000000, 8142.000000, 0.000000, 0.000000, 0.000000, -19909.000000, 340.512817, 4.000000, 4.000000, 4.000000, 4.000000, 4.000000, 4.000000, 4.000000, 4.000000, 0.000000, 4.000000, 4.000000, 4.000000, 4.000000, 4.000000, 4.000000, 4.000000
39.000000, 0.000000, 4221.538574, 4267.179199, 4214.871582, 4211.794922, 4117.436035, 4169.743652, 4217.436035, 4192.307617, 4215.897461, 4535.897461, 4170.256348, 4193.333008, 4296.410156, 4152.820313, 0.000000, 8225.000000, 8143.000000, 0.000000, 0.000000, 0.000000, -19909.000000, 348.717926, 4.000000, 4.000000, 4.000000, 4.000000, 4.000000, 4.000000, 4.000000, 4.000000, 0.000000, 4.000000, 4.000000, 4.000000, 4.000000, 4.000000, 4.000000, 4.000000
40.000000, 0.000000, 4212.307617, 4257.948730, 4209.743652, 4207.179199, 4109.743652, 4166.153809, 4212.820313, 4180.000000, 4215.897461, 4523.076660, 4161.025391, 4181.025391, 4289.743652, 4136.410156, 0.000000, 8225.000000, 8143.000000, 0.000000, 0.000000, 0.000000, -19909.000000, 356.410248, 4.000000, 4.000000, 4.000000, 4.000000, 4.000000, 4.000000, 4.000000, 4.000000, 0.000000, 4.000000, 4.000000, 4.000000, 4.000000, 4.000000, 4.000000, 4.000000
41.000000, 0.000000, 4213.333008, 4258.974121, 4206.666504, 4212.307617, 4112.820313, 4167.692383, 4200.000000, 4182.563965, 4215.897461, 4526.153809, 4164.102539, 4182.563965, 4289.743652, 4135.897461, 0.000000, 8229.000000, 8162.000000, 0.000000, 0.000000, 0.000000, -19909.000000, 364.102570, 4.000000, 4.000000, 4.000000, 4.000000, 4.000000, 4.000000, 4.000000, 4.000000, 0.000000, 4.000000, 4.000000, 4.000000, 4.000000, 4.000000, 4.000000, 4.000000
42.000000, 0.000000, 4219.487305, 4260.512695, 4210.769043, 4213.333008, 4113.846191, 4168.717773, 4206.666504, 4188.717773, 4215.897461, 4538.974121, 4173.846191, 4193.333008, 4287.179199, 4150.256348, 0.000000, 8229.000000, 8162.000000, 0.000000, 0.000000, 0.000000, -19909.000000, 372.307678, 4.000000, 4.000000, 4.000000, 4.000000, 4.000000, 4.000000, 4.000000, 4.000000, 0.000000, 4.000000, 4.000000, 4.000000, 4.000000, 4.000000, 4.000000, 4.000000
43.000000, 0.000000, 4215.897461, 4256.922852, 4211.281738, 4205.641113, 4111.794922, 4168.717773, 4215.897461, 4182.563965, 4215.897461, 4534.358887, 4170.256348, 4192.307617, 4265.641113, 4148.717773, 0.000000, 8237.000000, 8173.000000, 0.000000, 0.000000, 0.000000, -19909.000000, 380.000000, 4.000000, 4.000000, 4.000000, 4.000000, 4.000000, 4.000000, 4.000000, 4.000000, 0.000000, 4.000000, 4.000000, 4.000000, 4.000000, 4.000000, 4.000000, 4.000000
44.000000, 0.000000, 4204.615234, 4243.076660, 4200.512695, 4198.974121, 4109.743652, 4165.641113, 4207.692383, 4172.820313, 4215.897461, 4520.000000, 4155.384277, 4182.051270, 4232.307617, 4134.871582, 0.000000, 8237.000000, 8173.000000, 0.000000, 0.000000, 0.000000, -19909.000000, 387.692291, 4.000000, 4.000000, 4.000000, 4.000000, 4.000000, 4.000000, 4.000000, 4.000000, 0.000000, 4.000000, 4.000000, 4.000000, 4.000000, 4.000000, 4.000000, 4.000000
45.000000, 0.000000, 4202.563965, 4235.897461, 4201.025391, 4206.153809, 4114.871582, 4167.179199, 4207.692383, 4183.076660, 4215.897461, 4520.512695, 4149.743652, 4181.538574, 4215.897461, 4140.000000, 0.000000, 8249.000000, 8190.000000, 0.000000, 0.000000, 0.000000, -19909.000000, 395.897430, 4.000000, 4.000000, 4.000000, 4.000000, 4.000000, 4.000000, 4.000000, 4.000000, 0.000000, 4.000000, 4.000000, 4.000000, 4.000000, 4.000000, 4.000000, 4.000000
46.000000, 0.000000, 4216.410156, 4244.615234, 4215.384277, 4216.410156, 4122.563965, 4180.512695, 4224.102539, 4201.538574, 4216.922852, 4530.256348, 4160.000000, 4191.794922, 4216.922852, 4153.846191, 0.000000, 8249.000000, 8190.000000, 0.000000, 0.000000, 0.000000, -19909.000000, 403.589722, 4.000000, 4.000000, 4.000000, 4.000000, 4.000000, 4.000000, 4.000000, 4.000000, 0.000000, 4.000000, 4.000000, 4.000000, 4.000000, 4.000000, 4.000000, 4.000000
47.000000, 0.000000, 4224.615234, 4244.615234, 4220.000000, 4216.410156, 4126.153809, 4185.127930, 4221.538574, 4190.769043, 4216.922852, 4532.307617, 4166.666504, 4198.974121, 4215.897461, 4160.512695, 0.000000, 8254.000000, 8199.000000, 0.000000, 0.000000, 0.000000, -19909.000000, 411.282043, 4.000000, 4.000000, 4.000000, 4.000000, 4.000000, 4.000000, 4.000000, 4.000000, 0.000000, 4.000000, 4.000000, 4.000000, 4.000000, 4.000000, 4.000000, 4.000000
48.000000, 0.000000, 4222.563965, 4230.769043, 4216.922852, 4215.897461, 4124.102539, 4171.794922, 4202.051270, 4181.538574, 4214.871582, 4531.794922, 4169.230469, 4202.563965, 4217.436035, 4169.743652, 0.000000, 8254.000000, 8199.000000, 0.000000, 0.000000, 0.000000, -19909.000000, 419.487183, 4.000000, 4.000000, 4.000000, 4.000000, 4.000000, 4.000000, 4.000000, 4.000000, 0.000000, 4.000000, 4.000000, 4.000000, 4.000000, 4.000000, 4.000000, 4.000000
49.000000, 0.000000, 4220.000000, 4223.076660, 4214.871582, 4220.000000, 4119.487305, 4165.641113, 4194.871582, 4190.256348, 4214.871582, 4530.256348, 4170.256348, 4201.025391, 4220.000000, 4174.871582, 0.000000, 8265.000000, 8215.000000, 0.000000, 0.000000, 0.000000, -19909.000000, 427.179474, 4.000000, 4.000000, 4.000000, 4.000000, 4.000000, 4.000000, 4.000000, 4.000000, 0.000000, 4.000000, 4.000000, 4.000000, 4.000000, 4.000000, 4.000000, 4.000000
50.000000, 0.000000, 4208.205078, 4213.333008, 4206.666504, 4213.333008, 4120.512695, 4172.820313, 4203.076660, 4184.102539, 4216.922852, 4520.000000, 4161.025391, 4192.820313, 4209.230469, 4161.538574, 0.000000, 8265.000000, 8215.000000, 0.000000, 0.000000, 0.000000, -19909.000000, 434.871796, 4.000000, 4.000000, 4.000000, 4.000000, 4.000000, 4.000000, 4.000000, 4.000000, 0.000000, 4.000000, 4.000000, 4.000000, 4.000000, 4.000000, 4.000000, 4.000000
51.000000, 0.000000, 4197.436035, 4198.461426, 4195.897461, 4198.461426, 4125.641113, 4170.256348, 4205.641113, 4172.307617, 4216.410156, 4507.179199, 4148.205078, 4182.051270, 4193.846191, 4148.717773, 0.000000, 8262.000000, 8222.000000, 0.000000, 0.000000, 0.000000, -19909.000000, 443.076904, 4.000000, 4.000000, 4.000000, 4.000000, 4.000000, 4.000000, 4.000000, 4.000000, 0.000000, 4.000000, 4.000000, 4.000000, 4.000000, 4.000000, 4.000000, 4.000000
52.000000, 0.000000, 4206.153809, 4202.563965, 4193.333008, 4197.948730, 4127.179199, 4167.692383, 4201.025391, 4175.384277, 4214.871582, 4504.102539, 4144.615234, 4173.846191, 4194.358887, 4152.820313, 0.000000, 8262.000000, 8222.000000, 0.000000, 0.000000, 0.000000, -19909.000000, 450.769226, 4.000000, 4.000000, 4.000000, 4.000000, 4.000000, 4.000000, 4.000000, 4.000000, 0.000000, 4.000000, 4.000000, 4.000000, 4.000000, 4.000000, 4.000000, 4.000000
53.000000, 0.000000, 4216.922852, 4214.358887, 4195.384277, 4208.717773, 4124.615234, 4177.948730, 4208.205078, 4187.179199, 4214.871582, 4502.563965, 4149.743652, 4174.358887, 4200.000000, 4159.487305, 0.000000, 8268.000000, 8223.000000, 0.000000, 0.000000, 0.000000, -19909.000000, 458.461517, 4.000000, 4.000000, 4.000000, 4.000000, 4.000000, 4.000000, 4.000000, 4.000000, 0.000000, 4.000000, 4.000000, 4.000000, 4.000000, 4.000000, 4.000000, 4.000000
54.000000, 0.000000, 4214.358887, 4208.205078, 4196.410156, 4213.333008, 4124.615234, 4180.000000, 4219.487305, 4187.179199, 4215.384277, 4493.846191, 4152.307617, 4177.436035, 4199.487305, 4161.538574, 0.000000, 8268.000000, 8223.000000, 0.000000, 0.000000, 0.000000, -19909.000000, 466.153839, 4.000000, 4.000000, 4.000000, 4.000000, 4.000000, 4.000000, 4.000000, 4.000000, 0.000000, 4.000000, 4.000000, 4.000000, 4.000000, 4.000000, 4.000000, 4.000000
55.000000, 0.000000, 4209.743652, 4202.563965, 4192.307617, 4209.230469, 4123.589844, 4172.820313, 4212.307617, 4170.769043, 4214.871582, 4489.230469, 4146.666504, 4171.794922, 4194.871582, 4160.000000, 0.000000, 8278.000000, 8232.000000, 0.000000, 0.000000, 0.000000, -19909.000000, 473.846130, 4.000000, 4.000000, 4.000000, 4.000000, 4.000000, 4.000000, 4.000000, 4.000000, 0.000000, 4.000000, 4.000000, 4.000000, 4.000000, 4.000000, 4.000000, 4.000000
56.000000, 0.000000, 4206.153809, 4204.615234, 4186.153809, 4206.153809, 4125.641113, 4169.743652, 4202.563965, 4167.179199, 4215.384277, 4490.769043, 4138.461426, 4166.153809, 4190.256348, 4155.897461, 0.000000, 8278.000000, 8232.000000, 0.000000, 0.000000, 0.000000, -19909.000000, 482.051270, 4.000000, 4.000000, 4.000000, 4.000000, 4.000000, 4.000000, 4.000000, 4.000000, 0.000000, 4.000000, 4.000000, 4.000000, 4.000000, 4.000000, 4.000000, 4.000000
57.000000, 0.000000, 4200.512695, 4201.538574, 4189.230469, 4207.179199, 4132.307617, 4171.281738, 4210.256348, 4192.820313, 4216.410156, 4496.922852, 4142.563965, 4175.384277, 4192.307617, 4157.948730, 0.000000, 8280.000000, 8240.000000, 0.000000, 0.000000, 0.000000, -19909.000000, 489.743591, 4.000000, 4.000000, 4.000000, 4.000000, 4.000000, 4.000000, 4.000000, 4.000000, 0.000000, 4.000000, 4.000000, 4.000000, 4.000000, 4.000000, 4.000000, 4.000000
58.000000, 0.000000, 4207.692383, 4196.410156, 4197.436035, 4211.281738, 4137.948730, 4171.281738, 4214.871582, 4198.461426, 4215.384277, 4506.153809, 4154.358887, 4186.666504, 4200.512695, 4165.641113, 0.000000, 8280.000000, 8240.000000, 0.000000, 0.000000, 0.000000, -19909.000000, 497.435883, 4.000000, 4.000000, 4.000000, 4.000000, 4.000000, 4.000000, 4.000000, 4.000000, 0.000000, 4.000000, 4.000000, 4.000000, 4.000000, 4.000000, 4.000000, 4.000000
59.000000, 0.000000, 4216.410156, 4194.358887, 4200.000000, 4216.410156, 4137.436035, 4171.281738, 4204.615234, 4176.410156, 4214.358887, 4509.743652, 4157.948730, 4186.666504, 4204.615234, 4170.769043, 0.000000, 8294.000000, 8257.000000, 0.000000, 0.000000, 0.000000, -19909.000000, 505.641022, 4.000000, 4.000000, 4.000000, 4.000000, 4.000000, 4.000000, 4.000000, 4.000000, 0.000000, 4.000000, 4.000000, 4.000000, 4.000000, 4.000000, 4.000000, 4.000000
60.000000, 0.000000, 4208.717773, 4187.692383, 4197.948730, 4213.333008, 4131.281738, 4171.794922, 4206.153809, 4186.153809, 4215.897461, 4507.179199, 4156.922852, 4185.641113, 4204.615234, 4171.281738, 0.000000, 8294.000000, 8257.000000, 0.000000, 0.000000, 0.000000, -19909.000000, 513.333313, 4.000000, 4.000000, 4.000000, 4.000000, 4.000000, 4.000000, 4.000000, 4.000000, 0.000000, 4.000000, 4.000000, 4.000000, 4.000000, 4.000000, 4.000000, 4.000000
61.000000, 0.000000, 4199.487305, 4182.051270, 4197.436035, 4205.641113, 4123.589844, 4167.692383, 4212.820313, 4203.589844, 4216.410156, 4510.769043, 4158.461426, 4184.615234, 4202.563965, 4169.230469, 0.000000, 8303.000000, 8260.000000, 0.000000, 0.000000, 0.000000, -19909.000000, 521.025635, 4.000000, 4.000000, 4.000000, 4.000000, 4.000000, 4.000000, 4.000000, 4.000000, 0.000000, 4.000000, 4.000000, 4.000000, 4.000000, 4.000000, 4.000000, 4.000000
62.000000, 0.000000, 4206.666504, 4184.615234, 4198.461426, 4208.205078, 4123.589844, 4169.230469, 4207.692383, 4190.256348, 4215.384277, 4517.435547, 4165.127930, 4184.102539, 4206.666504, 4170.256348, 0.000000, 8303.000000, 8260.000000, 0.000000, 0.000000, 0.000000, -19909.000000, 528.717957, 4.000000, 4.000000, 4.000000, 4.000000, 4.000000, 4.000000, 4.000000, 4.000000, 0.000000, 4.000000, 4.000000, 4.000000, 4.000000, 4.000000, 4.000000, 4.000000
63.000000, 0.000000, 4217.948730, 4188.717773, 4200.512695, 4215.897461, 4132.307617, 4176.410156, 4207.179199, 4181.538574, 4216.410156, 4517.948730, 4171.794922, 4191.794922, 4215.384277, 4181.025391, 0.000000, 8314.000000, 8261.000000, 0.000000, 0.000000, 0.000000, -19909.000000, 536.410217, 4.000000, 4.000000, 4.000000, 4.000000, 4.000000, 4.000000, 4.000000, 4.000000, 0.000000, 4.000000, 4.000000, 4.000000, 4.000000, 4.000000, 4.000000, 4.000000
64.000000, 0.000000, 4215.384277, 4187.179199, 4203.076660, 4215.384277, 4133.846191, 4175.897461, 4214.358887, 4187.179199, 4216.922852, 4515.384277, 4168.205078, 4197.436035, 4218.461426, 4189.743652, 3187.000000, 8314.000000, 8261.000000, 0.000000, 0.000000, 0.000000, -19909.000000, 544.615356, 4.000000, 4.000000, 4.000000, 4.000000, 4.000000, 4.000000, 4.000000, 4.000000, 0.000000, 4.000000, 4.000000, 4.000000, 4.000000, 4.000000, 4.000000, 4.000000
65.000000, 0.000000, 4214.871582, 4187.692383, 4207.179199, 4215.384277, 4132.820313, 4169.743652, 4215.384277, 4188.205078, 4215.897461, 4517.948730, 4166.666504, 4195.384277, 4221.025391, 4188.717773, 3547.000000, 8320.000000, 8255.000000, 0.000000, 0.000000, 0.000000, -19909.000000, 552.307678, 4.000000, 4.000000, 4.000000, 4.000000, 4.000000, 4.000000, 4.000000, 4.000000, 0.000000, 4.000000, 4.000000, 4.000000, 4.000000, 4.000000, 4.000000, 4.000000
66.000000, 0.000000, 4224.102539, 4190.769043, 4214.358887, 4219.487305, 4136.410156, 4171.794922, 4218.974121, 4197.436035, 4215.897461, 4524.102539, 4178.974121, 4200.512695, 4231.281738, 4194.358887, 3570.000000, 8320.000000, 8255.000000, 0.000000, 0.000000, 0.000000, -19909.000000, 560.000000, 4.000000, 4.000000, 4.000000, 4.000000, 4.000000, 4.000000, 4.000000, 4.000000, 0.000000, 4.000000, 4.000000, 4.000000, 4.000000, 4.000000, 4.000000, 4.000000
67.000000, 0.000000, 4224.615234, 4187.692383, 4216.410156, 4219.487305, 4133.846191, 4174.871582, 4221.538574, 4210.769043, 4215.897461, 4522.051270, 4184.102539, 4206.666504, 4234.358887, 4202.563965, 2735.000000, 8319.000000, 8245.000000, 0.000000, 0.000000, 0.000000, -19909.000000, 568.205139, 4.000000, 4.000000, 4.000000, 4.000000, 4.000000, 4.000000, 4.000000, 4.000000, 0.000000, 4.000000, 4.000000, 4.000000, 4.000000, 4.000000, 4.000000, 4.000000
68.000000, 0.000000, 4222.051270, 4184.102539, 4214.358887, 4218.974121, 4131.281738, 4172.307617, 4214.358887, 4201.538574, 4215.897461, 4520.512695, 4178.974121, 4203.589844, 4232.820313, 4203.589844, 3500.000000, 8319.000000, 8245.000000, 0.000000, 0.000000, 0.000000, -19909.000000, 575.897400, 4.000000, 4.000000, 4.000000, 4.000000, 4.000000, 4.000000, 4.000000, 4.000000, 0.000000, 4.000000, 4.000000, 4.000000, 4.000000, 4.000000, 4.000000, 4.000000
69.000000, 0.000000, 4229.743652, 4188.717773, 4215.897461, 4221.025391, 4137.948730, 4171.794922, 4220.000000, 4194.358887, 4215.897461, 4523.589844, 4181.538574, 4203.076660, 4240.000000, 4203.076660, 3582.000000, 8319.000000, 8234.000000, 0.000000, 0.000000, 0.000000, -19909.000000, 583.589722, 4.000000, 4.000000, 4.000000, 4.000000, 4.000000, 4.000000, 4.000000, 4.000000, 0.000000, 4.000000, 4.000000, 4.000000, 4.000000, 4.000000, 4.000000, 4.000000
70.000000, 0.000000, 4233.333008, 4194.871582, 4217.948730, 4221.025391, 4142.051270, 4174.871582, 4236.922852, 4211.281738, 4215.897461, 4524.102539, 4185.127930, 4207.692383, 4246.666504, 4206.153809, 3443.000000, 8319.000000, 8234.000000, 0.000000, 0.000000, 0.000000, -19909.000000, 591.794861, 4.000000, 4.000000, 4.000000, 4.000000, 4.000000, 4.000000, 4.000000, 4.000000, 0.000000, 4.000000, 4.000000, 4.000000, 4.000000, 4.000000, 4.000000, 4.000000
71.000000, 0.000000, 4228.205078, 4198.974121, 4215.384277, 4220.000000, 4137.948730, 4178.974121, 4231.281738, 4218.461426, 4215.897461, 4523.076660, 4183.589844, 4206.666504, 4246.153809, 4208.205078, 3507.000000, 8310.000000, 8234.000000, 0.000000, 0.000000, 0.000000, -19909.000000, 599.487183, 4.000000, 4.000000, 4.000000, 4.000000, 4.000000, 4.000000, 4.000000, 4.000000, 0.000000, 4.000000, 4.000000, 4.000000, 4.000000, 4.000000, 4.000000, 4.000000
72.000000, 0.000000, 4227.179199, 4204.615234, 4208.717773, 4219.487305, 4143.589844, 4187.692383, 4217.436035, 4208.205078, 4216.410156, 4524.615234, 4188.205078, 4206.666504, 4250.769043, 4214.871582, 0.000000, 8310.000000, 8234.000000, 0.000000, 0.000000, 0.000000, -19909.000000, 607.179443, 4.000000, 4.000000, 4.000000, 4.000000, 4.000000, 4.000000, 4.000000, 4.000000, 0.000000, 4.000000, 4.000000, 4.000000, 4.000000, 4.000000, 4.000000, 4.000000
73.000000, 0.000000, 4224.615234, 4197.436035, 4201.538574, 4218.461426, 4148.717773, 4190.769043, 4216.922852, 4201.025391, 4215.897461, 4527.692383, 4191.794922, 4205.641113, 4252.307617, 4216.922852, 2925.000000, 8283.000000, 8224.000000, 0.000000, 0.000000, 0.000000, -19909.000000, 615.384583, 4.000000, 4.000000, 4.000000, 4.000000, 4.000000, 4.000000, 4.000000, 4.000000, 0.000000, 4.000000, 4.000000, 4.000000, 4.000000, 4.000000, 4.000000, 4.000000
74.000000, 0.000000, 4214.358887, 4185.641113, 4198.974121, 4216.410156, 4133.846191, 4180.512695, 4221.025391, 4195.897461, 4215.384277, 4521.025391, 4178.974121, 4196.410156, 4238.974121, 4203.076660, 3584.000000, 8283.000000, 8224.000000, 0.000000, 0.000000, 0.000000, -19909.000000, 623.076904, 4.000000, 4.000000, 4.000000, 4.000000, 4.000000, 4.000000, 4.000000, 4.000000, 0.000000, 4.000000, 4.000000, 4.000000, 4.000000, 4.000000, 4.000000, 4.000000
75.000000, 0.000000, 4212.820313, 4192.820313, 4201.025391, 4214.871582, 4123.589844, 4174.358887, 4216.922852, 4189.743652, 4217.436035, 4509.743652, 4168.717773, 4193.333008, 4227.179199, 4195.384277, 3559.000000, 8269.000000, 8216.000000, 0.000000, 0.000000, 0.000000, -19909.000000, 631.282043, 4.000000, 4.000000, 4.000000, 4.000000, 4.000000, 4.000000, 4.000000, 4.000000, 0.000000, 4.000000, 4.000000, 4.000000, 4.000000, 4.000000, 4.000000, 4.000000
76.000000, 0.000000, 4218.461426, 4203.076660, 4204.102539, 4216.410156, 4135.897461, 4177.436035, 4207.179199, 4187.692383, 4218.461426, 4509.230469, 4170.769043, 4200.512695, 4229.230469, 4204.615234, 3522.000000, 8269.000000, 8216.000000, 0.000000, 0.000000, 0.000000, -19909.000000, 638.974365, 4.000000, 4.000000, 4.000000, 4.000000, 4.000000, 4.000000, 4.000000, 4.000000, 0.000000, 4.000000, 4.000000, 4.000000, 4.000000, 4.000000, 4.000000, 4.000000
77.000000, 0.000000, 4217.436035, 4196.922852, 4202.563965, 4219.487305, 4146.153809, 4175.384277, 4198.461426, 4183.076660, 4215.897461, 4511.794922, 4174.871582, 4202.563965, 4230.256348, 4213.846191, 3474.000000, 8225.000000, 8218.000000, 0.000000, 0.000000, 0.000000, -19909.000000, 646.666626, 4.000000, 4.000000, 4.000000, 4.000000, 4.000000, 4.000000, 4.000000, 4.000000, 0.000000, 4.000000, 4.000000, 4.000000, 4.000000, 4.000000, 4.000000, 4.000000
78.000000, 0.000000, 4214.871582, 4195.384277, 4200.512695, 4218.974121, 4142.051270, 4168.717773, 4198.974121, 4180.512695, 4215.897461, 4510.256348, 4175.897461, 4198.974121, 4227.179199, 4213.846191, 3584.000000, 8225.000000, 8218.000000, 0.000000, 0.000000, 0.000000, -19909.000000, 654.871765, 4.000000, 4.000000, 4.000000, 4.000000, 4.000000, 4.000000, 4.000000, 4.000000, 0.000000, 4.000000, 4.000000, 4.000000, 4.000000, 4.000000, 4.000000, 4.000000
79.000000, 0.000000, 4221.538574, 4205.127930, 4206.666504, 4216.410156, 4140.512695, 4171.794922, 4206.666504, 4199.487305, 4218.974121, 4515.384277, 4180.512695, 4202.051270, 4227.179199, 4216.410156, 3559.000000, 8207.000000, 8227.000000, 0.000000, 0.000000, 0.000000, -19909.000000, 662.564087, 4.000000, 4.000000, 4.000000, 4.000000, 4.000000, 4.000000, 4.000000, 4.000000, 0.000000, 4.000000, 4.000000, 4.000000, 4.000000, 4.000000, 4.000000, 4.000000
80.000000, 0.000000, 4229.230469, 4205.641113, 4215.384277, 4222.051270, 4147.179199, 4182.563965, 4210.769043, 4209.230469, 4219.487305, 4522.051270, 4192.307617, 4210.256348, 4229.230469, 4224.102539, 3522.000000, 8207.000000, 8227.000000, 0.000000, 0.000000, 0.000000, -19909.000000, 670.256409, 4.000000, 4.000000, 4.000000, 4.000000, 4.000000, 4.000000, 4.000000, 4.000000, 0.000000, 4.000000, 4.000000, 4.000000, 4.000000, 4.000000, 4.000000, 4.000000
81.000000, 0.000000, 4233.333008, 4203.589844, 4217.436035, 4235.384277, 4155.384277, 4186.666504, 4213.333008, 4199.487305, 4218.461426, 4525.127930, 4201.538574, 4215.897461, 4235.384277, 4230.256348, 3474.000000, 8183.000000, 8230.000000, 0.000000, 0.000000, 0.000000, -19909.000000, 678.461548, 4.000000, 4.000000, 4.000000, 4.000000, 4.000000, 4.000000, 4.000000, 4.000000, 0.000000, 4.000000, 4.000000, 4.000000, 4.000000, 4.000000, 4.000000, 4.000000
82.000000, 0.000000, 4230.769043, 4207.692383, 4217.436035, 4237.948730, 4155.384277, 4183.076660, 4218.461426, 4202.563965, 4219.487305, 4526.666504, 4199.487305, 4217.436035, 4237.948730, 4230.769043, 3584.000000, 8183.000000, 8230.000000, 0.000000, 0.000000, 0.000000, -19909.000000, 686.153809, 4.000000, 4.000000, 4.000000, 4.000000, 4.000000, 4.000000, 4.000000, 4.000000, 0.000000, 4.000000, 4.000000, 4.000000, 4.000000, 4.000000, 4.000000, 4.000000
83.000000, 0.000000, 4220.000000, 4204.102539, 4213.333008, 4222.051270, 4141.025391, 4174.871582, 4215.384277, 4200.512695, 4218.974121, 4518.974121, 4187.692383, 4212.820313, 4222.051270, 4220.512695, 3559.000000, 8144.000000, 8230.000000, 0.000000, 0.000000, 0.000000, -19909.000000, 694.358948, 4.000000, 4.000000, 4.000000, 4.000000, 4.000000, 4.000000, 4.000000, 4.000000, 0.000000, 4.000000, 4.000000, 4.000000, 4.000000, 4.000000, 4.000000, 4.000000
84.000000, 0.000000, 4217.948730, 4200.512695, 4205.127930, 4214.871582, 4134.358887, 4169.743652, 4205.127930, 4182.563965, 4216.922852, 4513.846191, 4182.563965, 4211.794922, 4215.897461, 4216.410156, 3522.000000, 8144.000000, 8230.000000, 0.000000, 0.000000, 0.000000, -19909.000000, 702.051270, 4.000000, 4.000000, 4.000000, 4.000000, 4.000000, 4.000000, 4.000000, 4.000000, 0.000000, 4.000000, 4.000000, 4.000000, 4.000000, 4.000000, 4.000000, 4.000000
85.000000, 0.000000, 4230.769043, 4206.153809, 4204.615234, 4226.153809, 4145.127930, 4170.769043, 4208.205078, 4183.076660, 4216.922852, 4518.974121, 4188.717773, 4215.384277, 4235.897461, 4227.692383, 3474.000000, 8133.000000, 8230.000000, 0.000000, 0.000000, 0.000000, -19909.000000, 709.743591, 4.000000, 4.000000, 4.000000, 4.000000, 4.000000, 4.000000, 4.000000, 4.000000, 0.000000, 4.000000, 4.000000, 4.000000, 4.000000, 4.000000, 4.000000, 4.000000
86.000000, 0.000000, 4234.871582, 4208.205078, 4213.333008, 4230.769043, 4150.256348, 4172.820313, 4218.974121, 4187.179199, 4217.948730, 4517.435547, 4190.769043, 4217.948730, 4242.051270, 4236.410156, 3584.000000, 8133.000000, 8230.000000, 0.000000, 0.000000, 0.000000, -19909.000000, 717.948730, 4.000000, 4.000000, 4.000000, 4.000000, 4.000000, 4.000000, 4.000000, 4.000000, 0.000000, 4.000000, 4.000000, 4.000000, 4.000000, 4.000000, 4.000000, 4.000000
87.000000, 0.000000, 4230.256348, 4204.102539, 4217.948730, 4225.127930, 4140.512695, 4172.820313, 4213.846191, 4171.281738, 4217.948730, 4506.666504, 4188.205078, 4223.589844, 4230.256348, 4232.307617, 3559.000000, 8101.000000, 8227.000000, 0.000000, 0.000000, 0.000000, -19909.000000, 726.153809, 4.000000, 4.000000, 4.000000, 4.000000, 4.000000, 4.000000, 4.000000, 4.000000, 0.000000, 4.000000, 4.000000, 4.000000, 4.000000, 4.000000, 4.000000, 4.000000
88.000000, 0.000000, 4230.769043, 4201.538574, 4214.871582, 4226.666504, 4133.846191, 4168.717773, 4207.692383, 4172.307617, 4217.948730, 4505.641113, 4188.205078, 4225.127930, 4229.230469, 4229.743652, 3522.000000, 8101.000000, 8227.000000, 0.000000, 0.000000, 0.000000, -19909.000000, 733.846130, 4.000000, 4.000000, 4.000000, 4.000000, 4.000000, 4.000000, 4.000000, 4.000000, 0.000000, 4.000000, 4.000000, 4.000000, 4.000000, 4.000000, 4.000000, 4.000000
89.000000, 0.000000, 4233.846191, 4203.076660, 4217.436035, 4231.281738, 4145.641113, 4171.281738, 4215.897461, 4196.410156, 4217.436035, 4513.333008, 4190.769043, 4221.025391, 4234.871582, 4232.307617, 3474.000000, 8088.000000, 8215.000000, 0.000000, 0.000000, 0.000000, -19909.000000, 741.538452, 4.000000, 4.000000, 4.000000, 4.000000, 4.000000, 4.000000, 4.000000, 4.000000, 0.000000, 4.000000, 4.000000, 4.000000, 4.000000, 4.000000, 4.000000, 4.000000
90.000000, 0.000000, 4233.846191, 4209.743652, 4222.051270, 4226.153809, 4159.487305, 4178.974121, 4217.436035, 4203.076660, 4216.922852, 4520.512695, 4192.307617, 4223.589844, 4237.436035, 4232.307617, 3584.000000, 8088.000000, 8215.000000, 0.000000, 0.000000, 0.000000, -19909.000000, 749.230774, 4.000000, 4.000000, 4.000000, 4.000000, 4.000000, 4.000000, 4.000000, 4.000000, 0.000000, 4.000000, 4.000000, 4.000000, 4.000000, 4.000000, 4.000000, 4.000000
91.000000, 0.000000, 4232.307617, 4216.410156, 4220.000000, 4220.512695, 4158.461426, 4177.948730, 4210.769043, 4200.512695, 4216.922852, 4525.641113, 4197.948730, 4229.743652, 4244.615234, 4237.436035, 3559.000000, 8086.000000, 8211.000000, 0.000000, 0.000000, 0.000000, -19909.000000, 757.435852, 4.000000, 4.000000, 4.000000, 4.000000, 4.000000, 4.000000, 4.000000, 4.000000, 0.000000, 4.000000, 4.000000, 4.000000, 4.000000, 4.000000, 4.000000, 4.000000
92.000000, 0.000000, 4227.179199, 4216.410156, 4216.410156, 4217.948730, 4152.307617, 4174.871582, 4213.846191, 4203.076660, 4216.410156, 4525.641113, 4202.563965, 4229.743652, 4248.717773, 4242.051270, 3522.000000, 8086.000000, 8211.000000, 0.000000, 0.000000, 0.000000, -19909.000000, 765.128174, 4.000000, 4.000000, 4.000000, 4.000000, 4.000000, 4.000000, 4.000000, 4.000000, 0.000000, 4.000000, 4.000000, 4.000000, 4.000000, 4.000000, 4.000000, 4.000000
93.000000, 0.000000, 4228.205078, 4211.281738, 4213.333008, 4216.410156, 4154.358887, 4184.102539, 4220.512695, 4201.025391, 4216.410156, 4523.589844, 4200.512695, 4226.666504, 4243.076660, 4240.512695, 3474.000000, 8071.000000, 8211.000000, 0.000000, 0.000000, 0.000000, -19909.000000, 773.333313, 4.000000, 4.000000, 4.000000, 4.000000, 4.000000, 4.000000, 4.000000, 4.000000, 0.000000, 4.000000, 4.000000, 4.000000, 4.000000, 4.000000, 4.000000, 4.000000
94.000000, 0.000000, 4233.333008, 4208.205078, 4216.922852, 4218.974121, 4157.436035, 4185.127930, 4217.948730, 4202.051270, 4216.922852, 4523.589844, 4201.025391, 4224.102539, 4238.974121, 4236.922852, 3584.000000, 8071.000000, 8211.000000, 0.000000, 0.000000, 0.000000, -19909.000000, 781.025635, 4.000000, 4.000000, 4.000000, 4.000000, 4.000000, 4.000000, 4.000000, 4.000000, 0.000000, 4.000000, 4.000000, 4.000000, 4.000000, 4.000000, 4.000000, 4.000000
95.000000, 0.000000, 4225.641113, 4208.205078, 4217.436035, 4220.000000, 4150.256348, 4173.846191, 4210.256348, 4203.589844, 4216.922852, 4525.127930, 4198.974121, 4218.974121, 4233.846191, 4234.358887, 3559.000000, 8063.000000, 8212.000000, 0.000000, 0.000000, 0.000000, -19909.000000, 789.230774, 4.000000, 4.000000, 4.000000, 4.000000, 4.000000, 4.000000, 4.000000, 4.000000, 0.000000, 4.000000, 4.000000, 4.000000, 4.000000, 4.000000, 4.000000, 4.000000
96.000000, 0.000000, 4211.794922, 4210.769043, 4205.127930, 4214.358887, 4141.538574, 4172.307617, 4207.179199, 4188.205078, 4216.922852, 4522.563965, 4186.666504, 4212.307617, 4223.076660, 4228.717773, 3522.000000, 8063.000000, 8212.000000, 0.000000, 0.000000, 0.000000, -19909.000000, 796.923035, 4.000000, 4.000000, 4.000000, 4.000000, 4.000000, 4.000000, 4.000000, 4.000000, 0.000000, 4.000000, 4.000000, 4.000000, 4.000000, 4.000000, 4.000000, 4.000000
97.000000, 0.000000, 4211.794922, 4213.846191, 4197.948730, 4211.794922, 4145.127930, 4180.000000, 4204.615234, 4177.436035, 4216.922852, 4513.333008, 4181.025391, 4205.127930, 4216.410156, 4223.589844, 3474.000000, 8061.000000, 8200.000000, 0.000000, 0.000000, 0.000000, -19909.000000, 804.615356, 4.000000, 4.000000, 4.000000, 4.000000, 4.000000, 4.000000, 4.000000, 4.000000, 0.000000, 4.000000, 4.000000, 4.000000, 4.000000, 4.000000, 4.000000, 4.000000
98.000000, 0.000000, 4214.358887, 4212.820313, 4203.589844, 4217.436035, 4152.820313, 4183.589844, 4200.000000, 4184.615234, 4216.922852, 4508.717773, 4183.076660, 4202.051270, 4218.974121, 4222.563965, 3584.000000, 8061.000000, 8200.000000, 0.000000, 0.000000, 0.000000, -19909.000000, 812.820496, 4.000000, 4.000000, 4.000000, 4.000000, 4.000000, 4.000000, 4.000000, 4.000000, 0.000000, 4.000000, 4.000000, 4.000000, 4.000000, 4.000000, 4.000000, 4.000000
99.000000, 0.000000, 4206.666504, 4207.692383, 4203.076660, 4210.769043, 4151.794922, 4183.076660, 4202.051270, 4181.025391, 4216.922852, 4509.230469, 4175.384277, 4203.589844, 4217.948730, 4217.436035, 3559.000000, 8066.000000, 8195.000000, 0.000000, 0.000000, 0.000000, -19909.000000, 821.025635, 4.000000, 4.000000, 4.000000, 4.000000, 4.000000, 4.000000, 4.000000, 4.000000, 0.000000, 4.000000, 4.000000, 4.000000, 4.000000, 4.000000, 4.000000, 4.000000
100.000000, 0.000000, 4204.615234, 4210.769043, 4197.948730, 4200.000000, 4149.743652, 4184.102539, 4206.666504, 4164.615234, 4216.922852, 4508.205078, 4172.307617, 4201.025391, 4214.871582, 4217.436035, 3522.000000, 8066.000000, 8195.000000, 0.000000, 0.000000, 0.000000, -19909.000000, 828.717957, 4.000000, 4.000000, 4.000000, 4.000000, 4.000000, 4.000000, 4.000000, 4.000000, 0.000000, 4.000000, 4.000000, 4.000000, 4.000000, 4.000000, 4.000000, 4.000000
101.000000, 0.000000, 4215.897461, 4224.102539, 4200.512695, 4206.666504, 4155.384277, 4187.179199, 4205.127930, 4166.666504, 4217.436035, 4507.179199, 4180.512695, 4200.000000, 4218.461426, 4223.589844, 3474.000000, 8073.000000, 8180.000000, 0.000000, 0.000000, 0.000000, -19909.000000, 836.923035, 4.000000, 4.000000, 4.000000, 4.000000, 4.000000, 4.000000, 4.000000, 4.000000, 0.000000, 4.000000, 4.000000, 4.000000, 4.000000, 4.000000, 4.000000, 4.000000
102.000000, 0.000000, 4217.948730, 4224.615234, 4202.051270, 4214.358887, 4155.897461, 4184.102539, 4201.025391, 4173.846191, 4217.436035, 4507.179199, 4176.410156, 4200.512695, 4216.922852, 4224.102539, 3584.000000, 8073.000000, 8180.000000, 0.000000, 0.000000, 0.000000, -19909.000000, 844.615356, 4.000000, 4.000000, 4.000000, 4.000000, 4.000000, 4.000000, 4.000000, 4.000000, 0.000000, 4.000000, 4.000000, 4.000000, 4.000000, 4.000000, 4.000000, 4.000000
103.000000, 0.000000, 4210.256348, 4213.333008, 4199.487305, 4213.333008, 4146.666504, 4177.948730, 4200.000000, 4164.102539, 4216.410156, 4504.102539, 4168.717773, 4198.974121, 4212.307617, 4223.076660, 3559.000000, 8092.000000, 8171.000000, 0.000000, 0.000000, 0.000000, -19909.000000, 852.307678, 4.000000, 4.000000, 4.000000, 4.000000, 4.000000, 4.000000, 4.000000, 4.000000, 0.000000, 4.000000, 4.000000, 4.000000, 4.000000, 4.000000, 4.000000, 4.000000
104.000000, 0.000000, 4210.769043, 4221.025391, 4204.615234, 4213.333008, 4148.205078, 4181.538574, 4202.563965, 4158.974121, 4216.410156, 4506.153809, 4176.410156, 4206.153809, 4220.000000, 4228.717773, 3522.000000, 8092.000000, 8171.000000, 0.000000, 0.000000, 0.000000, -19909.000000, 860.000000, 4.000000, 4.000000, 4.000000, 4.000000, 4.000000, 4.000000, 4.000000, 4.000000, 0.000000, 4.000000, 4.000000, 4.000000, 4.000000, 4.000000, 4.000000, 4.000000
105.000000, 0.000000, 4218.974121, 4246.153809, 4214.871582, 4218.461426, 4167.179199, 4191.281738, 4210.256348, 4180.000000, 4217.948730, 4517.435547, 4188.717773, 4218.461426, 4230.769043, 4241.538574, 3474.000000, 8100.000000, 8171.000000, 0.000000, 0.000000, 0.000000, -19909.000000, 868.205078, 4.000000, 4.000000, 4.000000, 4.000000, 4.000000, 4.000000, 4.000000, 4.000000, 0.000000, 4.000000, 4.000000, 4.000000, 4.000000, 4.000000, 4.000000, 4.000000
106.000000, 0.000000, 4220.000000, 4255.897461, 4219.487305, 4226.153809, 4176.922852, 4190.769043, 4210.769043, 4206.153809, 4217.948730, 4526.666504, 4192.307617, 4221.025391, 4233.846191, 4249.743652, 3584.000000, 8100.000000, 8171.000000, 0.000000, 0.000000, 0.000000, -19909.000000, 875.897400, 4.000000, 4.000000, 4.000000, 4.000000, 4.000000, 4.000000, 4.000000, 4.000000, 0.000000, 4.000000, 4.000000, 4.000000, 4.000000, 4.000000, 4.000000, 4.000000
107.000000, 0.000000, 4220.000000, 4249.743652, 4217.948730, 4229.230469, 4170.256348, 4185.127930, 4201.025391, 4194.871582, 4217.436035, 4525.641113, 4189.743652, 4217.948730, 4232.307617, 4246.153809, 3559.000000, 8109.000000, 8170.000000, 0.000000, 0.000000, 0.000000, -19909.000000, 884.102539, 4.000000, 4.000000, 4.000000, 4.000000, 4.000000, 4.000000, 4.000000, 4.000000, 0.000000, 4.000000, 4.000000, 4.000000, 4.000000, 4.000000, 4.000000, 4.000000
108.000000, 0.000000, 4224.615234, 4250.769043, 4218.461426, 4220.000000, 4169.743652, 4185.127930, 4196.922852, 4167.179199, 4217.948730, 4521.538574, 4190.769043, 4220.512695, 4230.769043, 4238.974121, 3522.000000, 8109.000000, 8170.000000, 0.000000, 0.000000, 0.000000, -19909.000000, 891.794861, 4.000000, 4.000000, 4.000000, 4.000000, 4.000000, 4.000000, 4.000000, 4.000000, 0.000000, 4.000000, 4.000000, 4.000000, 4.000000, 4.000000, 4.000000, 4.000000
109.000000, 0.000000, 4222.563965, 4253.846191, 4217.948730, 4216.410156, 4174.358887, 4186.666504, 4203.589844, 4175.384277, 4217.948730, 4525.127930, 4197.436035, 4222.563965, 4229.743652, 4240.000000, 3474.000000, 8111.000000, 8162.000000, 0.000000, 0.000000, 0.000000, -19909.000000, 899.487183, 4.000000, 4.000000, 4.000000, 4.000000, 4.000000, 4.000000, 4.000000, 4.000000, 0.000000, 4.000000, 4.000000, 4.000000, 4.000000, 4.000000, 4.000000, 4.000000
110.000000, 0.000000, 4220.512695, 4253.846191, 4217.436035, 4226.666504, 4173.333008, 4187.179199, 4205.127930, 4193.846191, 4217.948730, 4526.153809, 4200.512695, 4221.538574, 4233.846191, 4241.538574, 3584.000000, 8111.000000, 8162.000000, 0.000000, 0.000000, 0.000000, -19909.000000, 907.692261, 4.000000, 4.000000, 4.000000, 4.000000, 4.000000, 4.000000, 4.000000, 4.000000, 0.000000, 4.000000, 4.000000, 4.000000, 4.000000, 4.000000, 4.000000, 4.000000
111.000000, 0.000000, 4225.641113, 4252.820313, 4214.358887, 4224.615234, 4172.307617, 4185.641113, 4200.512695, 4186.666504, 4217.948730, 4515.384277, 4197.948730, 4222.051270, 4231.794922, 4235.897461, 3559.000000, 8122.000000, 8133.000000, 0.000000, 0.000000, 0.000000, -19909.000000, 915.384583, 4.000000, 4.000000, 4.000000, 4.000000, 4.000000, 4.000000, 4.000000, 4.000000, 0.000000, 4.000000, 4.000000, 4.000000, 4.000000, 4.000000, 4.000000, 4.000000
112.000000, 0.000000, 4222.563965, 4253.846191, 4204.615234, 4214.358887, 4173.846191, 4181.025391, 4197.948730, 4185.127930, 4217.948730, 4506.153809, 4195.384277, 4221.538574, 4222.563965, 4232.307617, 3522.000000, 8122.000000, 8133.000000, 0.000000, 0.000000, 0.000000, -19909.000000, 923.076904, 4.000000, 4.000000, 4.000000, 4.000000, 4.000000, 4.000000, 4.000000, 4.000000, 0.000000, 4.000000, 4.000000, 4.000000, 4.000000, 4.000000, 4.000000, 4.000000
113.000000, 0.000000, 4215.384277, 4253.846191, 4203.076660, 4215.384277, 4174.871582, 4181.025391, 4206.666504, 4195.897461, 4217.948730, 4504.615234, 4196.410156, 4219.487305, 4224.102539, 4233.846191, 3474.000000, 8131.000000, 8116.000000, 0.000000, 0.000000, 0.000000, -19909.000000, 931.282043, 4.000000, 4.000000, 4.000000, 4.000000, 4.000000, 4.000000, 4.000000, 4.000000, 0.000000, 4.000000, 4.000000, 4.000000, 4.000000, 4.000000, 4.000000, 4.000000
114.000000, 0.000000, 4221.538574, 4251.794922, 4211.794922, 4218.461426, 4171.794922, 4188.205078, 4211.281738, 4182.563965, 4217.948730, 4497.435547, 4199.487305, 4218.974121, 4233.333008, 4239.487305, 3584.000000, 8131.000000, 8116.000000, 0.000000, 0.000000, 0.000000, -19909.000000, 938.974365, 4.000000, 4.000000, 4.000000, 4.000000, 4.000000, 4.000000, 4.000000, 4.000000, 0.000000, 4.000000, 4.000000, 4.000000, 4.000000, 4.000000, 4.000000, 4.000000
115.000000, 0.000000, 4230.769043, 4254.358887, 4216.410156, 4218.461426, 4171.281738, 4188.717773, 4202.563965, 4171.794922, 4217.436035, 4490.769043, 4201.538574, 4224.615234, 4233.333008, 4246.153809, 3559.000000, 8148.000000, 8096.000000, 0.000000, 0.000000, 0.000000, -19909.000000, 946.666626, 4.000000, 4.000000, 4.000000, 4.000000, 4.000000, 4.000000, 4.000000, 4.000000, 0.000000, 4.000000, 4.000000, 4.000000, 4.000000, 4.000000, 4.000000, 4.000000
116.000000, 0.000000, 4229.743652, 4260.000000, 4214.871582, 4219.487305, 4178.974121, 4184.102539, 4195.384277, 4192.307617, 4217.436035, 4494.871582, 4201.538574, 4228.717773, 4229.230469, 4247.692383, 3522.000000, 8148.000000, 8096.000000, 0.000000, 0.000000, 0.000000, -19909.000000, 954.358948, 4.000000, 4.000000, 4.000000, 4.000000, 4.000000, 4.000000, 4.000000, 4.000000, 0.000000, 4.000000, 4.000000, 4.000000, 4.000000, 4.000000, 4.000000, 4.000000
117.000000, 0.000000, 4225.641113, 4264.102539, 4214.358887, 4221.538574, 4186.666504, 4192.820313, 4200.000000, 4202.563965, 4217.948730, 4497.948730, 4200.512695, 4224.615234, 4233.846191, 4244.102539, 3474.000000, 8193.000000, 8033.000000, 0.000000, 0.000000, 0.000000, -19909.000000, 962.564087, 4.000000, 4.000000, 4.000000, 4.000000, 4.000000, 4.000000, 4.000000, 4.000000, 0.000000, 4.000000, 4.000000, 4.000000, 4.000000, 4.000000, 4.000000, 4.000000
118.000000, 0.000000, 4218.974121, 4260.512695, 4212.820313, 4217.948730, 4186.666504, 4205.641113, 4210.769043, 4190.256348, 4218.461426, 4491.794922, 4193.333008, 4213.333008, 4230.769043, 4236.922852, 3584.000000, 8193.000000, 8033.000000, 0.000000, 0.000000, 0.000000, -19909.000000, 970.256409, 4.000000, 4.000000, 4.000000, 4.000000, 4.000000, 4.000000, 4.000000, 4.000000, 0.000000, 4.000000, 4.000000, 4.000000, 4.000000, 4.000000, 4.000000, 4.000000
119.000000, 0.000000, 4214.871582, 4250.769043, 4205.641113, 4215.384277, 4180.512695, 4202.563965, 4215.897461, 4178.461426, 4217.436035, 4482.051270, 4177.436035, 4198.974121, 4212.820313, 4227.692383, 3559.000000, 8223.000000, 7999.000000, 0.000000, 0.000000, 0.000000, -19909.000000, 978.461487, 4.000000, 4.000000, 4.000000, 4.000000, 4.000000, 4.000000, 4.000000, 4.000000, 0.000000, 4.000000, 4.000000, 4.000000, 4.000000, 4.000000, 4.000000, 4.000000
120.000000, 0.000000, 4216.922852, 4245.641113, 4205.641113, 4215.897461, 4169.230469, 4191.281738, 4215.384277, 4180.512695, 4216.410156, 4480.512695, 4172.820313, 4200.000000, 4208.205078, 4227.692383, 3522.000000, 8223.000000, 7999.000000, 0.000000, 0.000000, 0.000000, -19909.000000, 986.153809, 4.000000, 4.000000, 4.000000, 4.000000, 4.000000, 4.000000, 4.000000, 4.000000, 0.000000, 4.000000, 4.000000, 4.000000, 4.000000, 4.000000, 4.000000, 4.000000
121.000000, 0.000000, 4220.512695, 4256.410156, 4214.871582, 4215.384277, 4165.641113, 4188.205078, 4217.436035, 4197.948730, 4216.922852, 4490.256348, 4189.230469, 4215.897461, 4226.666504, 4239.487305, 3474.000000, 8280.000000, 7961.000000, 0.000000, 0.000000, 0.000000, -19909.000000, 993.846130, 4.000000, 4.000000, 4.000000, 4.000000, 4.000000, 4.000000, 4.000000, 4.000000, 0.000000, 4.000000, 4.000000, 4.000000, 4.000000, 4.000000, 4.000000, 4.000000
122.000000, 0.000000, 4221.538574, 4271.794922, 4218.461426, 4213.333008, 4177.948730, 4186.153809, 4214.871582, 4203.589844, 4217.436035, 4494.358887, 4202.051270, 4221.538574, 4236.922852, 4245.127930, 3584.000000, 8280.000000, 7961.000000, 0.000000, 0.000000, 0.000000, -19908.000000, 2.051282, 4.000000, 4.000000, 4.000000, 4.000000, 4.000000, 4.000000, 4.000000, 4.000000, 0.000000, 4.000000, 4.000000, 4.000000, 4.000000, 4.000000, 4.000000, 4.000000
123.000000, 0.000000, 4229.743652, 4278.974121, 4217.948730, 4220.000000, 4186.153809, 4183.076660, 4201.538574, 4187.692383, 4216.922852, 4490.256348, 4197.948730, 4214.871582, 4233.333008, 4244.615234, 3559.000000, 8308.000000, 7957.000000, 0.000000, 0.000000, 0.000000, -19908.000000, 10.256410, 4.000000, 4.000000, 4.000000, 4.000000, 4.000000, 4.000000, 4.000000, 4.000000, 0.000000, 4.000000, 4.000000, 4.000000, 4.000000, 4.000000, 4.000000, 4.000000
124.000000, 0.000000, 4241.538574, 4290.256348, 4224.102539, 4230.769043, 4186.666504, 4187.179199, 4197.436035, 4180.000000, 4216.410156, 4494.358887, 4198.974121, 4221.538574, 4240.512695, 4253.846191, 3522.000000, 8308.000000, 7957.000000, 0.000000, 0.000000, 0.000000, -19908.000000, 17.948717, 4.000000, 4.000000, 4.000000, 4.000000, 4.000000, 4.000000, 4.000000, 4.000000, 0.000000, 4.000000, 4.000000, 4.000000, 4.000000, 4.000000, 4.000000, 4.000000
125.000000, 0.000000, 4238.974121, 4299.487305, 4225.641113, 4225.641113, 4188.205078, 4189.230469, 4202.051270, 4185.641113, 4216.922852, 4497.948730, 4206.666504, 4235.384277, 4247.692383, 4260.512695, 3474.000000, 8329.000000, 7959.000000, 0.000000, 0.000000, 0.000000, -19908.000000, 25.641026, 4.000000, 4.000000, 4.000000, 4.000000, 4.000000, 4.000000, 4.000000, 4.000000, 0.000000, 4.000000, 4.000000, 4.000000, 4.000000, 4.000000, 4.000000, 4.000000
126.000000, 0.000000, 4229.230469, 4295.897461, 4215.897461, 4214.871582, 4187.692383, 4185.127930, 4198.461426, 4178.974121, 4216.922852, 4484.102539, 4201.025391, 4231.794922, 4233.333008, 4250.769043, 3584.000000, 8329.000000, 7959.000000, 0.000000, 0.000000, 0.000000, -19908.000000, 33.846153, 4.000000, 4.000000, 4.000000, 4.000000, 4.000000, 4.000000, 4.000000, 4.000000, 0.000000, 4.000000, 4.000000, 4.000000, 4.000000, 4.000000, 4.000000, 4.000000
127.000000, 0.000000, 4226.153809, 4291.281738, 4215.384277, 4214.871582, 4184.615234, 4189.743652, 4195.384277, 4164.102539, 4216.410156, 4468.205078, 4187.179199, 4218.461426, 4216.922852, 4242.563965, 56.000000, 8367.000000, 7951.000000, 0.000000, 0.000000, 0.000000, -19908.000000, 41.538460, 4.000000, 4.000000, 4.000000, 4.000000, 4.000000, 4.000000, 4.000000, 4.000000, 0.000000, 4.000000, 4.000000, 4.000000, 4.000000, 4.000000, 4.000000, 4.000000
0.000000, 0.000000, 4227.692383, 4295.384277, 4226.153809, 4217.948730, 4184.615234, 4200.000000, 4198.461426, 4157.436035, 4216.922852, 4466.153809, 4183.076660, 4214.358887, 4216.922852, 4246.666504, 3187.000000, 8367.000000, 7951.000000, 0.000000, 0.000000, 0.000000, -19908.000000, 49.743587, 4.000000, 4.000000, 4.000000, 4.000000, 4.000000, 4.000000, 4.000000, 4.000000, 0.000000, 4.000000, 4.000000, 4.000000, 4.000000, 4.000000, 4.000000, 4.000000
1.000000, 0.000000, 4227.179199, 4306.666504, 4227.692383, 4217.436035, 4187.179199, 4197.948730, 4196.410156, 4168.205078, 4216.922852, 4473.333008, 4193.333008, 4220.512695, 4221.538574, 4249.743652, 3546.000000, 8376.000000, 7957.000000, 0.000000, 0.000000, 0.000000, -19908.000000, 57.435898, 4.000000, 4.000000, 4.000000, 4.000000, 4.000000, 4.000000, 4.000000, 4.000000, 0.000000, 4.000000, 4.000000, 4.000000, 4.000000, 4.000000, 4.000000, 4.000000
2.000000, 0.000000, 4220.512695, 4313.846191, 4216.410156, 4215.384277, 4186.153809, 4194.358887, 4198.974121, 4192.307617, 4216.922852, 4476.410156, 4197.436035, 4217.436035, 4219.487305, 4245.127930, 3570.000000, 8376.000000, 7957.000000, 0.000000, 0.000000, 0.000000, -19908.000000, 65.128204, 4.000000, 4.000000, 4.000000, 4.000000, 4.000000, 4.000000, 4.000000, 4.000000, 0.000000, 4.000000, 4.000000, 4.000000, 4.000000, 4.000000, 4.000000, 4.000000
3.000000, 0.000000, 4212.307617, 4308.717773, 4207.179199, 4212.307617, 4185.127930, 4198.461426, 4204.102539, 4187.179199, 4216.922852, 4472.307617, 4187.692383, 4204.615234, 4215.897461, 4242.051270, 2721.000000, 8387.000000, 7969.000000, 0.000000, 0.000000, 0.000000, -19908.000000, 72.820511, 4.000000, 4.000000, 4.000000, 4.000000, 4.000000, 4.000000, 4.000000, 4.000000, 0.000000, 4.000000, 4.000000, 4.000000, 4.000000, 4.000000, 4.000000, 4.000000
4.000000, 0.000000, 4214.871582, 4311.281738, 4209.230469, 4214.871582, 4187.179199, 4201.025391, 4199.487305, 4160.000000, 4216.922852, 4473.846191, 4191.281738, 4206.666504, 4219.487305, 4247.179199, 3445.000000, 8387.000000, 7969.000000, 0.000000, 0.000000, 0.000000, -19908.000000, 81.025642, 4.000000, 4.000000, 4.000000, 4.000000, 4.000000, 4.000000, 4.000000, 4.000000, 0.000000, 4.000000, 4.000000, 4.000000, 4.000000, 4.000000, 4.000000, 4.000000
5.000000, 0.000000, 4221.025391, 4323.076660, 4213.333008, 4220.000000, 4190.769043, 4201.538574, 4194.871582, 4160.512695, 4216.922852, 4477.435547, 4199.487305, 4218.461426, 4223.589844, 4253.333008, 3582.000000, 8386.000000, 7980.000000, 0.000000, 0.000000, 0.000000, -19908.000000, 88.717949, 4.000000, 4.000000, 4.000000, 4.000000, 4.000000, 4.000000, 4.000000, 4.000000, 0.000000, 4.000000, 4.000000, 4.000000, 4.000000, 4.000000, 4.000000, 4.000000
6.000000, 0.000000, 4213.333008, 4314.871582, 4206.153809, 4215.384277, 4187.179199, 4200.000000, 4197.436035, 4171.281738, 4216.410156, 4466.153809, 4187.179199, 4213.333008, 4212.307617, 4247.692383, 3548.000000, 8386.000000, 7980.000000, 0.000000, 0.000000, 0.000000, -19908.000000, 96.923073, 4.000000, 4.000000, 4.000000, 4.000000, 4.000000, 4.000000, 4.000000, 4.000000, 0.000000, 4.000000, 4.000000, 4.000000, 4.000000, 4.000000, 4.000000, 4.000000
7.000000, 0.000000, 4210.256348, 4312.820313, 4205.641113, 4212.820313, 4183.076660, 4201.538574, 4203.076660, 4172.307617, 4216.410156, 4454.871582, 4183.589844, 4208.205078, 4202.051270, 4247.179199, 3632.000000, 8367.000000, 8030.000000, 0.000000, 0.000000, 0.000000, -19908.000000, 104.615379, 4.000000, 4.000000, 4.000000, 4.000000, 4.000000, 4.000000, 4.000000, 4.000000, 0.000000, 4.000000, 4.000000, 4.000000, 4.000000, 4.000000, 4.000000, 4.000000
8.000000, 0.000000, 4216.922852, 4332.820313, 4214.871582, 4220.000000, 4194.871582, 4210.769043, 4209.743652, 4178.461426, 4216.922852, 4464.102539, 4202.563965, 4215.897461, 4199.487305, 4260.000000, 127.000000, 8367.000000, 8030.000000, 0.000000, 0.000000, 0.000000, -19908.000000, 112.307686, 4.000000, 4.000000, 4.000000, 4.000000, 4.000000, 4.000000, 4.000000, 4.000000, 2.000000, 4.000000, 4.000000, 4.000000, 4.000000, 4.000000, 4.000000, 4.000000
9.000000, 0.000000, 4216.410156, 4333.333008, 4217.948730, 4225.127930, 4207.179199, 4216.922852, 4216.410156, 4187.179199, 4216.922852, 4474.871582, 4201.025391, 4218.974121, 4180.000000, 4262.051270, 2925.000000, 8356.000000, 8054.000000, 0.000000, 0.000000, 0.000000, -19908.000000, 120.512817, 4.000000, 4.000000, 4.000000, 4.000000, 4.000000, 4.000000, 4.000000, 4.000000, 2.000000, 4.000000, 4.000000, 4.000000, 4.000000, 4.000000, 4.000000, 4.000000
10.000000, 0.000000, 4218.461426, 4326.666504, 4216.410156, 4227.179199, 4205.641113, 4216.922852, 4215.384277, 4187.179199, 4216.410156, 4472.307617, 4194.358887, 4222.051270, 4160.512695, 4260.512695, 3584.000000, 8356.000000, 8054.000000, 0.000000, 0.000000, 0.000000, -19908.000000, 128.205124, 4.000000, 4.000000, 4.000000, 4.000000, 4.000000, 4.000000, 4.000000, 4.000000, 2.000000, 4.000000, 4.000000, 4.000000, 4.000000, 4.000000, 4.000000, 4.000000
11.000000, 0.000000, 4232.820313, 4344.102539, 4218.974121, 4231.281738, 4202.051270, 4215.384277, 4208.205078, 4192.307617, 4217.436035, 4467.179199, 4213.333008, 4231.281738, 4169.743652, 4274.871582, 3551.000000, 8343.000000, 8078.000000, 0.000000, 0.000000, 0.000000, -19908.000000, 135.897430, 4.000000, 4.000000, 4.000000, 4.000000, 4.000000, 4.000000, 4.000000, 4.000000, 2.000000, 4.000000, 4.000000, 4.000000, 4.000000, 4.000000, 4.000000, 4.000000
12.000000, 0.000000, 4238.461426, 4351.281738, 4221.025391, 4231.281738, 4202.051270, 4207.179199, 4202.051270, 4190.256348, 4218.974121, 4462.051270, 4218.461426, 4231.794922, 4175.384277, 4284.615234, 3522.000000, 8343.000000, 8078.000000, 0.000000, 0.000000, 0.000000, -19908.000000, 143.589737, 4.000000, 4.000000, 4.000000, 4.000000, 4.000000, 4.000000, 4.000000, 4.000000, 2.000000, 4.000000, 4.000000, 4.000000, 4.000000, 4.000000, 4.000000, 4.000000
13.000000, 0.000000, 4230.769043, 4335.897461, 4217.948730, 4229.230469, 4198.461426, 4197.436035, 4199.487305, 4170.769043, 4218.974121, 4453.846191, 4208.717773, 4226.153809, 4168.717773, 4276.922852, 3473.000000, 8323.000000, 8109.000000, 0.000000, 0.000000, 0.000000, -19908.000000, 151.794861, 4.000000, 4.000000, 4.000000, 4.000000, 4.000000, 4.000000, 4.000000, 4.000000, 2.000000, 4.000000, 4.000000, 4.000000, 4.000000, 4.000000, 4.000000, 4.000000
14.000000, 0.000000, 4232.307617, 4330.256348, 4218.974121, 4228.717773, 4196.410156, 4200.000000, 4201.025391, 4172.820313, 4217.948730, 4450.769043, 4220.512695, 4228.205078, 4177.948730, 4281.538574, 3584.000000, 8323.000000, 8109.000000, 0.000000, 0.000000, 0.000000, -19908.000000, 159.487183, 4.000000, 4.000000, 4.000000, 4.000000, 4.000000, 4.000000, 4.000000, 4.000000, 2.000000, 4.000000, 4.000000, 4.000000, 4.000000, 4.000000, 4.000000, 4.000000
15.000000, 0.000000, 4236.410156, 4331.281738, 4220.000000, 4223.076660, 4198.974121, 4198.461426, 4203.076660, 4191.794922, 4217.948730, 4450.769043, 4230.769043, 4233.333008, 4191.281738, 4293.333008, 3551.000000, 8309.000000, 8117.000000, 0.000000, 0.000000, 0.000000, -19908.000000, 167.692307, 4.000000, 4.000000, 4.000000, 4.000000, 4.000000, 4.000000, 4.000000, 4.000000, 2.000000, 4.000000, 4.000000, 4.000000, 4.000000, 4.000000, 4.000000, 4.000000
16.000000, 0.000000, 4230.769043, 4325.641113, 4217.436035, 4217.948730, 4199.487305, 4197.948730, 4211.794922, 4195.384277, 4217.948730, 4448.205078, 4220.000000, 4230.769043, 4188.205078, 4286.666504, 0.000000, 8309.000000, 8117.000000, 0.000000, 0.000000, 0.000000, -19908.000000, 175.384613, 4.000000, 4.000000, 4.000000, 4.000000, 4.000000, 4.000000, 4.000000, 4.000000, 2.000000, 4.000000, 4.000000, 4.000000, 4.000000, 4.000000, 4.000000, 4.000000
17.000000, 0.000000, 4226.666504, 4320.512695, 4218.461426, 4218.974121, 4200.512695, 4210.256348, 4221.025391, 4198.461426, 4217.948730, 4446.153809, 4213.846191, 4223.076660, 4186.153809, 4276.410156, 0.000000, 8294.000000, 8131.000000, 0.000000, 0.000000, 0.000000, -19908.000000, 183.076920, 4.000000, 4.000000, 4.000000, 4.000000, 4.000000, 4.000000, 4.000000, 4.000000, 2.000000, 4.000000, 4.000000, 4.000000, 4.000000, 4.000000, 4.000000, 4.000000
18.000000, 0.000000, 4223.076660, 4312.307617, 4215.384277, 4218.461426, 4199.487305, 4210.769043, 4217.948730, 4204.615234, 4217.948730, 4445.127930, 4216.410156, 4216.922852, 4187.692383, 4276.922852, 0.000000, 8294.000000, 8131.000000, 0.000000, 0.000000, 0.000000, -19908.000000, 191.282043, 4.000000, 4.000000, 4.000000, 4.000000, 4.000000, 4.000000, 4.000000, 4.000000, 2.000000, 4.000000, 4.000000, 4.000000, 4.000000, 4.000000, 4.000000, 4.000000
19.000000, 0.000000, 4216.922852, 4308.205078, 4205.641113, 4216.922852, 4200.512695, 4200.000000, 4214.358887, 4193.846191, 4217.948730, 4444.102539, 4215.384277, 4215.384277, 4189.743652, 4279.487305, 0.000000, 8283.000000, 8140.000000, 0.000000, 0.000000, 0.000000, -19908.000000, 198.974350, 4.000000, 4.000000, 4.000000, 4.000000, 4.000000, 4.000000, 4.000000, 4.000000, 2.000000, 4.000000, 4.000000, 4.000000, 4.000000, 4.000000, 4.000000, 4.000000
20.000000, 0.000000, 4217.948730, 4313.846191, 4203.076660, 4214.871582, 4206.153809, 4201.538574, 4213.333008, 4181.538574, 4216.922852, 4441.538574, 4214.358887, 4216.410156, 4192.820313, 4276.410156, 0.000000, 8283.000000, 8140.000000, 0.000000, 0.000000, 0.000000, -19908.000000, 206.666656, 4.000000, 4.000000, 4.000000, 4.000000, 4.000000, 4.000000, 4.000000, 4.000000, 2.000000, 4.000000, 4.000000, 4.000000, 4.000000, 4.000000, 4.000000, 4.000000
21.000000, 0.000000, 4214.871582, 4310.256348, 4200.000000, 4205.641113, 4195.384277, 4205.127930, 4205.641113, 4186.153809, 4217.436035, 4434.358887, 4207.179199, 4211.794922, 4183.589844, 4266.666504, 0.000000, 8273.000000, 8150.000000, 0.000000, 0.000000, 0.000000, -19908.000000, 214.871796, 4.000000, 4.000000, 4.000000, 4.000000, 4.000000, 4.000000, 4.000000, 4.000000, 2.000000, 4.000000, 4.000000, 4.000000, 4.000000, 4.000000, 4.000000, 4.000000
22.000000, 0.000000, 4198.974121, 4295.897461, 4190.256348, 4196.410156, 4182.051270, 4199.487305, 4201.025391, 4185.641113, 4217.948730, 4425.127930, 4196.922852, 4203.076660, 4176.410156, 4256.410156, 0.000000, 8273.000000, 8150.000000, 0.000000, 0.000000, 0.000000, -19908.000000, 222.564102, 4.000000, 4.000000, 4.000000, 4.000000, 4.000000, 4.000000, 4.000000, 4.000000, 2.000000, 4.000000, 4.000000, 4.000000, 4.000000, 4.000000, 4.000000, 4.000000
23.000000, 0.000000, 4201.025391, 4292.307617, 4191.281738, 4201.025391, 4192.307617, 4197.948730, 4206.153809, 4182.051270, 4217.436035, 4425.127930, 4204.102539, 4206.153809, 4188.205078, 4262.051270, 0.000000, 8254.000000, 8165.000000, 0.000000, 0.000000, 0.000000, -19908.000000, 230.769226, 4.000000, 4.000000, 4.000000, 4.000000, 4.000000, 4.000000, 4.000000, 4.000000, 2.000000, 4.000000, 4.000000, 4.000000, 4.000000, 4.000000, 4.000000, 4.000000
24.000000, 0.000000, 4216.410156, 4296.922852, 4198.461426, 4207.179199, 4205.641113, 4200.512695, 4204.102539, 4189.743652, 4217.436035, 4430.256348, 4218.974121, 4218.461426, 4202.051270, 4274.358887, 0.000000, 8254.000000, 8165.000000, 0.000000, 0.000000, 0.000000, -19908.000000, 238.461533, 4.000000, 4.000000, 4.000000, 4.000000, 4.000000, 4.000000, 4.000000, 4.000000, 2.000000, 4.000000, 4.000000, 4.000000, 4.000000, 4.000000, 4.000000, 4.000000
25.000000, 0.000000, 4211.794922, 4289.230469, 4198.974121, 4204.615234, 4203.589844, 4198.974121, 4198.974121, 4202.051270, 4217.436035, 4429.743652, 4218.974121, 4217.948730, 4201.538574, 4271.281738, 0.000000, 8247.000000, 8174.000000, 0.000000, 0.000000, 0.000000, -19908.000000, 246.666656, 4.000000, 4.000000, 4.000000, 4.000000, 4.000000, 4.000000, 4.000000, 4.000000, 2.000000, 4.000000, 4.000000, 4.000000, 4.000000, 4.000000, 4.000000, 4.000000
26.000000, 0.000000, 4196.410156, 4276.410156, 4195.384277, 4200.512695, 4194.871582, 4197.948730, 4205.641113, 4208.205078, 4217.436035, 4421.025391, 4208.717773, 4205.127930, 4193.846191, 4261.538574, 0.000000, 8247.000000, 8174.000000, 0.000000, 0.000000, 0.000000, -19908.000000, 254.871796, 4.000000, 4.000000, 4.000000, 4.000000, 4.000000, 4.000000, 4.000000, 4.000000, 2.000000, 4.000000, 4.000000, 4.000000, 4.000000, 4.000000, 4.000000, 4.000000
27.000000, 0.000000, 4198.461426, 4278.461426, 4192.820313, 4198.461426, 4186.153809, 4198.461426, 4212.307617, 4200.512695, 4217.436035, 4411.281738, 4206.666504, 4199.487305, 4194.871582, 4265.127930, 0.000000, 8227.000000, 8196.000000, 0.000000, 0.000000, 0.000000, -19908.000000, 262.564087, 4.000000, 4.000000, 4.000000, 4.000000, 4.000000, 4.000000, 4.000000, 4.000000, 2.000000, 4.000000, 4.000000, 4.000000, 4.000000, 4.000000, 4.000000, 4.000000
28.000000, 0.000000, 4210.256348, 4281.025391, 4195.384277, 4199.487305, 4189.743652, 4203.076660, 4215.897461, 4199.487305, 4217.436035, 4414.871582, 4211.794922, 4206.153809, 4202.563965, 4276.410156, 0.000000, 8227.000000, 8196.000000, 0.000000, 0.000000, 0.000000, -19908.000000, 270.769226, 4.000000, 4.000000, 4.000000, 4.000000, 4.000000, 4.000000, 4.000000, 4.000000, 2.000000, 4.000000, 4.000000, 4.000000, 4.000000, 4.000000, 4.000000, 4.000000
29.000000, 0.000000, 4216.410156, 4278.461426, 4203.076660, 4204.102539, 4203.076660, 4203.589844, 4225.127930, 4210.256348, 4217.436035, 4426.153809, 4215.897461, 4215.384277, 4205.641113, 4280.000000, 0.000000, 8224.000000, 8210.000000, 0.000000, 0.000000, 0.000000, -19908.000000, 278.461517, 4.000000, 4.000000, 4.000000, 4.000000, 4.000000, 4.000000, 4.000000, 4.000000, 2.000000, 4.000000, 4.000000, 4.000000, 4.000000, 4.000000, 4.000000, 4.000000
30.000000, 0.000000, 4216.922852, 4281.025391, 4206.153809, 4204.102539, 4200.512695, 4198.461426, 4225.127930, 4208.205078, 4217.436035, 4428.205078, 4216.922852, 4216.410156, 4202.051270, 4278.974121, 0.000000, 8224.000000, 8210.000000, 0.000000, 0.000000, 0.000000, -19908.000000, 286.666656, 4.000000, 4.000000, 4.000000, 4.000000, 4.000000, 4.000000, 4.000000, 4.000000, 2.000000, 4.000000, 4.000000, 4.000000, 4.000000, 4.000000, 4.000000, 4.000000
31.000000, 0.000000, 4213.333008, 4275.384277, 4200.512695, 4198.974121, 4185.127930, 4197.436035, 4213.846191, 4193.333008, 4217.436035, 4425.127930, 4215.384277, 4210.769043, 4202.051270, 4277.948730, 0.000000, 8228.000000, 8214.000000, 0.000000, 0.000000, 0.000000, -19908.000000, 294.358978, 4.000000, 4.000000, 4.000000, 4.000000, 4.000000, 4.000000, 4.000000, 4.000000, 2.000000, 4.000000, 4.000000, 4.000000, 4.000000, 4.000000, 4.000000, 4.000000
32.000000, 0.000000, 4214.871582, 4262.563965, 4202.051270, 4200.000000, 4189.230469, 4201.538574, 4209.743652, 4187.692383, 4217.436035, 4428.205078, 4214.871582, 4213.846191, 4210.769043, 4278.461426, 0.000000, 8228.000000, 8214.000000, 0.000000, 0.000000, 0.000000, -19908.000000, 302.564087, 4.000000, 4.000000, 4.000000, 4.000000, 4.000000, 4.000000, 4.000000, 4.000000, 2.000000, 4.000000, 4.000000, 4.000000, 4.000000, 4.000000, 4.000000, 4.000000
33.000000, 0.000000, 4218.461426, 4262.051270, 4210.256348, 4204.615234, 4204.102539, 4206.666504, 4214.358887, 4190.769043, 4217.436035, 4432.307617, 4217.948730, 4220.000000, 4218.461426, 4286.666504, 0.000000, 8222.000000, 8223.000000, 0.000000, 0.000000, 0.000000, -19908.000000, 310.769226, 4.000000, 4.000000, 4.000000, 4.000000, 4.000000, 4.000000, 4.000000, 4.000000, 2.000000, 4.000000, 4.000000, 4.000000, 4.000000, 4.000000, 4.000000, 4.000000
34.000000, 0.000000, 4217.948730, 4265.641113, 4210.256348, 4203.076660, 4199.487305, 4204.615234, 4207.179199, 4188.205078, 4217.436035, 4429.230469, 4218.461426, 4218.974121, 4220.000000, 4292.820313, 0.000000, 8222.000000, 8223.000000, 0.000000, 0.000000, 0.000000, -19908.000000, 318.461517, 4.000000, 4.000000, 4.000000, 4.000000, 4.000000, 4.000000, 4.000000, 4.000000, 2.000000, 4.000000, 4.000000, 4.000000, 4.000000, 4.000000, 4.000000, 4.000000
35.000000, 0.000000, 4213.333008, 4259.487305, 4204.102539, 4200.512695, 4183.076660, 4194.358887, 4198.461426, 4181.538574, 4217.436035, 4420.512695, 4214.871582, 4216.410156, 4215.384277, 4285.127930, 0.000000, 8215.000000, 8237.000000, 0.000000, 0.000000, 0.000000, -19908.000000, 326.666656, 4.000000, 4.000000, 4.000000, 4.000000, 4.000000, 4.000000, 4.000000, 4.000000, 2.000000, 4.000000, 4.000000, 4.000000, 4.000000, 4.000000, 4.000000, 4.000000
36.000000, 0.000000, 4208.717773, 4255.897461, 4202.051270, 4198.974121, 4184.102539, 4193.333008, 4204.615234, 4182.051270, 4217.436035, 4416.410156, 4214.358887, 4216.922852, 4212.820313, 4276.922852, 0.000000, 8215.000000, 8237.000000, 0.000000, 0.000000, 0.000000, -19908.000000, 334.358978, 4.000000, 4.000000, 4.000000, 4.000000, 4.000000, 4.000000, 4.000000, 4.000000, 2.000000, 4.000000, 4.000000, 4.000000, 4.000000, 4.000000, 4.000000, 4.000000
37.000000, 0.000000, 4209.743652, 4260.512695, 4204.615234, 4194.871582, 4201.025391, 4203.076660, 4207.179199, 4189.743652, 4217.436035, 4421.025391, 4214.358887, 4214.358887, 4215.897461, 4279.487305, 0.000000, 8200.000000, 8252.000000, 0.000000, 0.000000, 0.000000, -19908.000000, 342.051270, 4.000000, 4.000000, 4.000000, 4.000000, 4.000000, 4.000000, 4.000000, 4.000000, 2.000000, 4.000000, 4.000000, 4.000000, 4.000000, 4.000000, 4.000000, 4.000000
38.000000, 0.000000, 4209.743652, 4259.487305, 4201.538574, 4195.384277, 4197.948730, 4203.589844, 4199.487305, 4190.256348, 4217.436035, 4418.974121, 4212.307617, 4212.307617, 4217.436035, 4281.025391, 0.000000, 8200.000000, 8252.000000, 0.000000, 0.000000, 0.000000, -19908.000000, 350.256409, 4.000000, 4.000000, 4.000000, 4.000000, 4.000000, 4.000000, 4.000000, 4.000000, 2.000000, 4.000000, 4.000000, 4.000000, 4.000000, 4.000000, 4.000000, 4.000000
39.000000, 0.000000, 4209.743652, 4249.743652, 4198.461426, 4200.000000, 4183.589844, 4193.846191, 4197.436035, 4186.666504, 4217.436035, 4409.230469, 4212.820313, 4212.307617, 4210.769043, 4274.871582, 0.000000, 8194.000000, 8255.000000, 0.000000, 0.000000, 0.000000, -19908.000000, 357.948700, 4.000000, 4.000000, 4.000000, 4.000000, 4.000000, 4.000000, 4.000000, 4.000000, 2.000000, 4.000000, 4.000000, 4.000000, 4.000000, 4.000000, 4.000000, 4.000000
40.000000, 0.000000, 4214.358887, 4248.717773, 4206.666504, 4201.538574, 4188.205078, 4193.333008, 4201.538574, 4188.205078, 4217.436035, 4406.666504, 4214.358887, 4214.871582, 4207.692383, 4278.461426, 0.000000, 8194.000000, 8255.000000, 0.000000, 0.000000, 0.000000, -19908.000000, 365.641022, 4.000000, 4.000000, 4.000000, 4.000000, 4.000000, 4.000000, 4.000000, 4.000000, 2.000000, 4.000000, 4.000000, 4.000000, 4.000000, 4.000000, 4.000000, 4.000000
41.000000, 0.000000, 4219.487305, 4257.948730, 4217.948730, 4203.076660, 4204.615234, 4201.025391, 4202.563965, 4188.205078, 4217.436035, 4411.281738, 4216.410156, 4224.615234, 4216.922852, 4291.794922, 0.000000, 8181.000000, 8269.000000, 0.000000, 0.000000, 0.000000, -19908.000000, 373.846130, 4.000000, 4.000000, 4.000000, 4.000000, 4.000000, 4.000000, 4.000000, 4.000000, 2.000000, 4.000000, 4.000000, 4.000000, 4.000000, 4.000000, 4.000000, 4.000000
42.000000, 0.000000, 4218.974121, 4255.384277, 4218.974121, 4204.615234, 4207.179199, 4195.897461, 4199.487305, 4186.666504, 4217.436035, 4407.692383, 4220.000000, 4228.717773, 4216.410156, 4292.820313, 0.000000, 8181.000000, 8269.000000, 0.000000, 0.000000, 0.000000, -19908.000000, 381.538452, 4.000000, 4.000000, 4.000000, 4.000000, 4.000000, 4.000000, 4.000000, 4.000000, 2.000000, 4.000000, 4.000000, 4.000000, 4.000000, 4.000000, 4.000000, 4.000000
43.000000, 0.000000, 4212.307617, 4242.051270, 4208.717773, 4199.487305, 4196.410156, 4184.615234, 4201.025391, 4184.615234, 4217.436035, 4397.435547, 4212.820313, 4218.461426, 4202.051270, 4280.000000, 0.000000, 8172.000000, 8277.000000, 0.000000, 0.000000, 0.000000, -19908.000000, 389.230774, 4.000000, 4.000000, 4.000000, 4.000000, 4.000000, 4.000000, 4.000000, 4.000000, 2.000000, 4.000000, 4.000000, 4.000000, 4.000000, 4.000000, 4.000000, 4.000000
44.000000, 0.000000, 4208.205078, 4238.974121, 4201.538574, 4198.461426, 4196.410156, 4191.281738, 4208.205078, 4181.538574, 4217.436035, 4392.307617, 4204.102539, 4212.820313, 4196.922852, 4275.897461, 0.000000, 8172.000000, 8277.000000, 0.000000, 0.000000, 0.000000, -19908.000000, 397.435883, 4.000000, 4.000000, 4.000000, 4.000000, 4.000000, 4.000000, 4.000000, 4.000000, 2.000000, 4.000000, 4.000000, 4.000000, 4.000000, 4.000000, 4.000000, 4.000000
45.000000, 0.000000, 4212.307617, 4245.127930, 4203.589844, 4203.076660, 4209.743652, 4203.076660, 4208.717773, 4186.153809, 4217.436035, 4395.897461, 4208.205078, 4216.922852, 4202.051270, 4283.589844, 0.000000, 8168.000000, 8288.000000, 0.000000, 0.000000, 0.000000, -19908.000000, 405.128204, 4.000000, 4.000000, 4.000000, 4.000000, 4.000000, 4.000000, 4.000000, 4.000000, 2.000000, 4.000000, 4.000000, 4.000000, 4.000000, 4.000000, 4.000000, 4.000000
