title:winkRight1, recorded:21.05.18 17.17.13, timestamp started:2018-05-12T20:28:52.032863+02:00            , sampling:128, subject:Noé, labels:COUNTER INTERPOLATED AF3 F7 F3 FC5 T7 P7 O1 O2 P8 T8 FC6 F4 F8 AF4 RAW_CQ GYROX GYROY MARKER MARKER_HARDWARE SYNC TIME_STAMP_s TIME_STAMP_ms CQ_AF3 CQ_F7 CQ_F3 CQ_FC5 CQ_T7 CQ_P7 CQ_O1 CQ_O2 CQ_P8 CQ_T8 CQ_FC6 CQ_F4 CQ_F8 CQ_AF4 CQ_CMS CQ_DRL, chan:40, samples:2483, units:emotiv
112.000000, 0.000000, 4210.769043, 4171.281738, 4196.922852, 4210.769043, 4182.051270, 4186.153809, 4216.410156, 4199.487305, 4203.076660, 4277.436035, 4196.410156, 4191.281738, 4262.051270, 4206.153809, 3520.000000, 8378.000000, 8040.000000, 0.000000, 0.000000, 0.000000, -20330.000000, 296.410248, 4.000000, 4.000000, 4.000000, 4.000000, 4.000000, 4.000000, 4.000000, 4.000000, 0.000000, 4.000000, 4.000000, 4.000000, 4.000000, 4.000000, 4.000000, 4.000000
113.000000, 0.000000, 4214.358887, 4182.051270, 4201.538574, 4211.281738, 4175.384277, 4193.333008, 4206.666504, 4201.025391, 4203.076660, 4288.717773, 4198.461426, 4192.820313, 4268.717773, 4212.307617, 3462.000000, 8372.000000, 8019.000000, 0.000000, 0.000000, 0.000000, -20330.000000, 304.615387, 4.000000, 4.000000, 4.000000, 4.000000, 4.000000, 4.000000, 4.000000, 4.000000, 0.000000, 4.000000, 4.000000, 4.000000, 4.000000, 4.000000, 4.000000, 4.000000
114.000000, 0.000000, 4218.461426, 4188.717773, 4202.051270, 4215.897461, 4175.897461, 4197.436035, 4199.487305, 4197.948730, 4202.563965, 4295.384277, 4203.589844, 4193.846191, 4273.846191, 4214.358887, 3588.000000, 8372.000000, 8019.000000, 0.000000, 0.000000, 0.000000, -20330.000000, 312.820496, 4.000000, 4.000000, 4.000000, 4.000000, 4.000000, 4.000000, 4.000000, 4.000000, 0.000000, 4.000000, 4.000000, 4.000000, 4.000000, 4.000000, 4.000000, 4.000000
115.000000, 0.000000, 4214.871582, 4184.102539, 4200.000000, 4217.436035, 4177.436035, 4188.205078, 4202.563965, 4197.948730, 4202.051270, 4290.769043, 4201.025391, 4192.307617, 4265.641113, 4206.666504, 3561.000000, 8365.000000, 8014.000000, 0.000000, 0.000000, 0.000000, -20330.000000, 320.512817, 4.000000, 4.000000, 4.000000, 4.000000, 4.000000, 4.000000, 4.000000, 4.000000, 0.000000, 4.000000, 4.000000, 4.000000, 4.000000, 4.000000, 4.000000, 4.000000
116.000000, 0.000000, 4212.307617, 4182.563965, 4201.538574, 4214.871582, 4174.871582, 4190.256348, 4205.127930, 4203.076660, 4201.538574, 4291.281738, 4199.487305, 4195.384277, 4262.563965, 4200.512695, 3520.000000, 8365.000000, 8014.000000, 0.000000, 0.000000, 0.000000, -20330.000000, 328.717926, 4.000000, 4.000000, 4.000000, 4.000000, 4.000000, 4.000000, 4.000000, 4.000000, 0.000000, 4.000000, 4.000000, 4.000000, 4.000000, 4.000000, 4.000000, 4.000000
117.000000, 0.000000, 4213.846191, 4191.794922, 4201.538574, 4214.358887, 4178.461426, 4198.974121, 4205.641113, 4203.076660, 4201.025391, 4295.897461, 4204.102539, 4200.512695, 4272.307617, 4206.666504, 3462.000000, 8332.000000, 8019.000000, 0.000000, 0.000000, 0.000000, -20330.000000, 336.410248, 4.000000, 4.000000, 4.000000, 4.000000, 4.000000, 4.000000, 4.000000, 4.000000, 0.000000, 4.000000, 4.000000, 4.000000, 4.000000, 4.000000, 4.000000, 4.000000
118.000000, 0.000000, 4219.487305, 4201.538574, 4201.025391, 4216.922852, 4185.641113, 4199.487305, 4209.743652, 4201.538574, 4200.512695, 4294.871582, 4207.179199, 4203.589844, 4282.563965, 4217.948730, 3588.000000, 8332.000000, 8019.000000, 0.000000, 0.000000, 0.000000, -20330.000000, 344.615387, 4.000000, 4.000000, 4.000000, 4.000000, 4.000000, 4.000000, 4.000000, 4.000000, 0.000000, 4.000000, 4.000000, 4.000000, 4.000000, 4.000000, 4.000000, 4.000000
119.000000, 0.000000, 4223.589844, 4204.615234, 4204.615234, 4218.974121, 4187.179199, 4198.974121, 4209.743652, 4203.076660, 4201.025391, 4294.871582, 4207.179199, 4198.974121, 4277.436035, 4217.948730, 3561.000000, 8315.000000, 8019.000000, 0.000000, 0.000000, 0.000000, -20330.000000, 352.307678, 4.000000, 4.000000, 4.000000, 4.000000, 4.000000, 4.000000, 4.000000, 4.000000, 0.000000, 4.000000, 4.000000, 4.000000, 4.000000, 4.000000, 4.000000, 4.000000
120.000000, 0.000000, 4220.000000, 4203.076660, 4203.589844, 4219.487305, 4185.641113, 4196.922852, 4203.076660, 4198.974121, 4201.025391, 4292.307617, 4199.487305, 4186.153809, 4266.153809, 4206.153809, 3520.000000, 8315.000000, 8019.000000, 0.000000, 0.000000, 0.000000, -20330.000000, 360.512817, 4.000000, 4.000000, 4.000000, 4.000000, 4.000000, 4.000000, 4.000000, 4.000000, 0.000000, 4.000000, 4.000000, 4.000000, 4.000000, 4.000000, 4.000000, 4.000000
121.000000, 0.000000, 4211.794922, 4197.948730, 4196.922852, 4214.871582, 4183.589844, 4190.769043, 4196.922852, 4194.871582, 4201.025391, 4281.025391, 4187.692383, 4180.512695, 4258.974121, 4193.846191, 3462.000000, 8277.000000, 8021.000000, 0.000000, 0.000000, 0.000000, -20330.000000, 368.205109, 4.000000, 4.000000, 4.000000, 4.000000, 4.000000, 4.000000, 4.000000, 4.000000, 0.000000, 4.000000, 4.000000, 4.000000, 4.000000, 4.000000, 4.000000, 4.000000
122.000000, 0.000000, 4210.769043, 4194.358887, 4191.794922, 4206.666504, 4183.076660, 4193.333008, 4196.410156, 4198.461426, 4201.025391, 4276.410156, 4189.743652, 4185.641113, 4260.512695, 4192.820313, 3588.000000, 8277.000000, 8021.000000, 0.000000, 0.000000, 0.000000, -20330.000000, 376.410248, 4.000000, 4.000000, 4.000000, 4.000000, 4.000000, 4.000000, 4.000000, 4.000000, 0.000000, 4.000000, 4.000000, 4.000000, 4.000000, 4.000000, 4.000000, 4.000000
123.000000, 0.000000, 4214.358887, 4197.948730, 4189.743652, 4203.076660, 4185.127930, 4201.025391, 4198.461426, 4202.051270, 4202.051270, 4289.743652, 4202.563965, 4188.205078, 4272.820313, 4203.076660, 3561.000000, 8264.000000, 8032.000000, 0.000000, 0.000000, 0.000000, -20330.000000, 384.102570, 4.000000, 4.000000, 4.000000, 4.000000, 4.000000, 4.000000, 4.000000, 4.000000, 0.000000, 4.000000, 4.000000, 4.000000, 4.000000, 4.000000, 4.000000, 4.000000
124.000000, 0.000000, 4209.230469, 4200.512695, 4185.127930, 4200.000000, 4185.641113, 4198.974121, 4201.538574, 4202.563965, 4202.563965, 4294.358887, 4204.102539, 4185.641113, 4277.436035, 4201.538574, 3520.000000, 8264.000000, 8032.000000, 0.000000, 0.000000, 0.000000, -20330.000000, 392.307678, 4.000000, 4.000000, 4.000000, 4.000000, 4.000000, 4.000000, 4.000000, 4.000000, 0.000000, 4.000000, 4.000000, 4.000000, 4.000000, 4.000000, 4.000000, 4.000000
125.000000, 0.000000, 4203.076660, 4198.461426, 4183.076660, 4197.436035, 4182.051270, 4197.948730, 4202.563965, 4203.076660, 4202.051270, 4282.563965, 4193.846191, 4181.025391, 4265.641113, 4185.641113, 3462.000000, 8249.000000, 8040.000000, 0.000000, 0.000000, 0.000000, -20330.000000, 400.000000, 4.000000, 4.000000, 4.000000, 4.000000, 4.000000, 4.000000, 4.000000, 4.000000, 0.000000, 4.000000, 4.000000, 4.000000, 4.000000, 4.000000, 4.000000, 4.000000
126.000000, 0.000000, 4211.281738, 4199.487305, 4191.281738, 4204.102539, 4183.076660, 4202.051270, 4203.076660, 4202.563965, 4201.538574, 4285.641113, 4191.281738, 4180.512695, 4265.641113, 4184.615234, 3588.000000, 8249.000000, 8040.000000, 0.000000, 0.000000, 0.000000, -20330.000000, 408.205109, 4.000000, 4.000000, 4.000000, 4.000000, 4.000000, 4.000000, 4.000000, 4.000000, 0.000000, 4.000000, 4.000000, 4.000000, 4.000000, 4.000000, 4.000000, 4.000000
127.000000, 0.000000, 4218.461426, 4201.538574, 4201.025391, 4209.230469, 4184.615234, 4203.589844, 4207.179199, 4201.538574, 4202.051270, 4296.922852, 4193.846191, 4185.127930, 4275.897461, 4192.307617, 56.000000, 8232.000000, 8048.000000, 0.000000, 0.000000, 0.000000, -20330.000000, 415.897430, 4.000000, 4.000000, 4.000000, 4.000000, 4.000000, 4.000000, 4.000000, 4.000000, 0.000000, 4.000000, 4.000000, 4.000000, 4.000000, 4.000000, 4.000000, 4.000000
0.000000, 0.000000, 4210.256348, 4196.410156, 4197.436035, 4202.563965, 4183.589844, 4207.179199, 4213.333008, 4201.538574, 4202.051270, 4286.666504, 4192.307617, 4187.692383, 4270.256348, 4188.717773, 3189.000000, 8232.000000, 8048.000000, 0.000000, 0.000000, 0.000000, -20330.000000, 424.102539, 4.000000, 4.000000, 4.000000, 4.000000, 4.000000, 4.000000, 4.000000, 4.000000, 0.000000, 4.000000, 4.000000, 4.000000, 4.000000, 4.000000, 4.000000, 4.000000
1.000000, 0.000000, 4203.589844, 4188.717773, 4189.743652, 4194.358887, 4185.127930, 4214.871582, 4217.948730, 4201.025391, 4202.051270, 4276.410156, 4188.205078, 4185.641113, 4260.000000, 4189.230469, 3543.000000, 8225.000000, 8069.000000, 0.000000, 0.000000, 0.000000, -20330.000000, 431.794861, 4.000000, 4.000000, 4.000000, 4.000000, 4.000000, 4.000000, 4.000000, 4.000000, 0.000000, 4.000000, 4.000000, 4.000000, 4.000000, 4.000000, 4.000000, 4.000000
2.000000, 0.000000, 4208.717773, 4187.179199, 4189.230469, 4194.358887, 4185.641113, 4215.897461, 4214.871582, 4202.563965, 4202.051270, 4282.563965, 4189.230469, 4186.153809, 4266.153809, 4200.512695, 3538.000000, 8225.000000, 8069.000000, 0.000000, 0.000000, 0.000000, -20330.000000, 440.000000, 4.000000, 4.000000, 4.000000, 4.000000, 4.000000, 4.000000, 4.000000, 4.000000, 0.000000, 4.000000, 4.000000, 4.000000, 4.000000, 4.000000, 4.000000, 4.000000
3.000000, 0.000000, 4214.358887, 4187.692383, 4188.717773, 4198.461426, 4184.102539, 4208.205078, 4213.333008, 4208.205078, 4201.538574, 4282.563965, 4189.743652, 4187.692383, 4269.230469, 4201.538574, 2434.000000, 8208.000000, 8085.000000, 0.000000, 0.000000, 0.000000, -20330.000000, 448.205109, 4.000000, 4.000000, 4.000000, 4.000000, 4.000000, 4.000000, 4.000000, 4.000000, 0.000000, 4.000000, 4.000000, 4.000000, 4.000000, 4.000000, 4.000000, 4.000000
4.000000, 0.000000, 4214.871582, 4187.179199, 4191.281738, 4199.487305, 4180.512695, 4199.487305, 4215.897461, 4206.666504, 4202.051270, 4277.948730, 4186.666504, 4188.205078, 4264.615234, 4196.922852, 3559.000000, 8208.000000, 8085.000000, 0.000000, 0.000000, 0.000000, -20330.000000, 455.897430, 4.000000, 4.000000, 4.000000, 4.000000, 4.000000, 4.000000, 4.000000, 4.000000, 0.000000, 4.000000, 4.000000, 4.000000, 4.000000, 4.000000, 4.000000, 4.000000
5.000000, 0.000000, 4216.410156, 4187.692383, 4200.512695, 4199.487305, 4171.281738, 4196.410156, 4210.256348, 4198.974121, 4202.051270, 4286.153809, 4191.794922, 4189.230469, 4264.615234, 4201.025391, 3579.000000, 8196.000000, 8091.000000, 0.000000, 0.000000, 0.000000, -20330.000000, 464.102539, 4.000000, 4.000000, 4.000000, 4.000000, 4.000000, 4.000000, 4.000000, 4.000000, 0.000000, 4.000000, 4.000000, 4.000000, 4.000000, 4.000000, 4.000000, 4.000000
6.000000, 0.000000, 4220.512695, 4185.641113, 4204.615234, 4198.461426, 4165.641113, 4206.666504, 4205.641113, 4205.641113, 4201.025391, 4297.436035, 4201.538574, 4193.846191, 4267.692383, 4205.127930, 3571.000000, 8196.000000, 8091.000000, 0.000000, 0.000000, 0.000000, -20330.000000, 471.794861, 4.000000, 4.000000, 4.000000, 4.000000, 4.000000, 4.000000, 4.000000, 4.000000, 0.000000, 4.000000, 4.000000, 4.000000, 4.000000, 4.000000, 4.000000, 4.000000
7.000000, 0.000000, 4219.487305, 4177.436035, 4204.615234, 4193.846191, 4171.281738, 4217.948730, 4214.871582, 4223.076660, 4203.076660, 4295.384277, 4201.025391, 4196.410156, 4267.692383, 4203.076660, 3506.000000, 8190.000000, 8084.000000, 0.000000, 0.000000, 0.000000, -20330.000000, 480.000000, 4.000000, 4.000000, 4.000000, 4.000000, 4.000000, 4.000000, 4.000000, 4.000000, 0.000000, 4.000000, 4.000000, 4.000000, 4.000000, 4.000000, 4.000000, 4.000000
8.000000, 0.000000, 4211.281738, 4167.692383, 4197.436035, 4184.102539, 4171.794922, 4214.871582, 4219.487305, 4212.820313, 4203.589844, 4282.563965, 4190.769043, 4189.743652, 4263.589844, 4194.358887, 0.000000, 8190.000000, 8084.000000, 0.000000, 0.000000, 0.000000, -20330.000000, 487.692291, 4.000000, 4.000000, 4.000000, 4.000000, 4.000000, 4.000000, 4.000000, 4.000000, 0.000000, 4.000000, 4.000000, 4.000000, 4.000000, 4.000000, 4.000000, 4.000000
9.000000, 0.000000, 4201.538574, 4168.717773, 4188.717773, 4182.051270, 4165.641113, 4210.256348, 4214.358887, 4185.641113, 4201.538574, 4274.871582, 4184.615234, 4184.102539, 4260.512695, 4191.281738, 3149.000000, 8180.000000, 8079.000000, 0.000000, 0.000000, 0.000000, -20330.000000, 495.897430, 4.000000, 4.000000, 4.000000, 4.000000, 4.000000, 4.000000, 4.000000, 4.000000, 0.000000, 4.000000, 4.000000, 4.000000, 4.000000, 4.000000, 4.000000, 4.000000
10.000000, 0.000000, 4200.000000, 4174.358887, 4188.205078, 4191.281738, 4174.358887, 4214.871582, 4213.333008, 4186.666504, 4201.538574, 4277.436035, 4193.846191, 4184.615234, 4266.153809, 4198.974121, 3586.000000, 8180.000000, 8079.000000, 0.000000, 0.000000, 0.000000, -20330.000000, 503.589722, 4.000000, 4.000000, 4.000000, 4.000000, 4.000000, 4.000000, 4.000000, 4.000000, 0.000000, 4.000000, 4.000000, 4.000000, 4.000000, 4.000000, 4.000000, 4.000000
11.000000, 0.000000, 4207.692383, 4172.820313, 4191.794922, 4200.512695, 4181.538574, 4211.794922, 4211.281738, 4203.589844, 4203.076660, 4278.461426, 4203.076660, 4187.692383, 4274.871582, 4203.076660, 3561.000000, 8171.000000, 8071.000000, 0.000000, 0.000000, 0.000000, -20330.000000, 511.794861, 4.000000, 4.000000, 4.000000, 4.000000, 4.000000, 4.000000, 4.000000, 4.000000, 0.000000, 4.000000, 4.000000, 4.000000, 4.000000, 4.000000, 4.000000, 4.000000
12.000000, 0.000000, 4214.358887, 4171.794922, 4193.846191, 4200.000000, 4175.897461, 4201.538574, 4206.666504, 4201.538574, 4203.076660, 4282.051270, 4203.589844, 4194.871582, 4280.512695, 4198.974121, 3520.000000, 8171.000000, 8071.000000, 0.000000, 0.000000, 0.000000, -20330.000000, 520.000000, 4.000000, 4.000000, 4.000000, 4.000000, 4.000000, 4.000000, 4.000000, 4.000000, 0.000000, 4.000000, 4.000000, 4.000000, 4.000000, 4.000000, 4.000000, 4.000000
13.000000, 0.000000, 4217.436035, 4174.871582, 4199.487305, 4202.051270, 4172.307617, 4202.051270, 4209.230469, 4197.948730, 4203.076660, 4292.307617, 4209.743652, 4202.051270, 4288.205078, 4204.615234, 3462.000000, 8159.000000, 8067.000000, 0.000000, 0.000000, 0.000000, -20330.000000, 527.692322, 4.000000, 4.000000, 4.000000, 4.000000, 4.000000, 4.000000, 4.000000, 4.000000, 0.000000, 4.000000, 4.000000, 4.000000, 4.000000, 4.000000, 4.000000, 4.000000
14.000000, 0.000000, 4219.487305, 4178.974121, 4204.615234, 4211.794922, 4173.846191, 4206.153809, 4216.922852, 4204.615234, 4202.563965, 4298.461426, 4220.512695, 4204.102539, 4298.974121, 4216.410156, 3586.000000, 8159.000000, 8067.000000, 0.000000, 0.000000, 0.000000, -20330.000000, 535.897400, 4.000000, 4.000000, 4.000000, 4.000000, 4.000000, 4.000000, 4.000000, 4.000000, 0.000000, 4.000000, 4.000000, 4.000000, 4.000000, 4.000000, 4.000000, 4.000000
15.000000, 0.000000, 4220.512695, 4176.922852, 4197.436035, 4209.743652, 4169.743652, 4203.589844, 4215.897461, 4202.051270, 4202.051270, 4296.410156, 4219.487305, 4202.563965, 4298.461426, 4212.820313, 3561.000000, 8155.000000, 8068.000000, 0.000000, 0.000000, 0.000000, -20330.000000, 543.589722, 4.000000, 4.000000, 4.000000, 4.000000, 4.000000, 4.000000, 4.000000, 4.000000, 0.000000, 4.000000, 4.000000, 4.000000, 4.000000, 4.000000, 4.000000, 4.000000
16.000000, 0.000000, 4214.871582, 4170.769043, 4188.205078, 4198.974121, 4168.205078, 4196.922852, 4206.153809, 4198.461426, 4202.563965, 4291.281738, 4211.794922, 4196.922852, 4287.179199, 4202.563965, 0.000000, 8155.000000, 8068.000000, 0.000000, 0.000000, 0.000000, -20330.000000, 551.794861, 4.000000, 4.000000, 4.000000, 4.000000, 4.000000, 4.000000, 4.000000, 4.000000, 0.000000, 4.000000, 4.000000, 4.000000, 4.000000, 4.000000, 4.000000, 4.000000
17.000000, 0.000000, 4204.615234, 4169.230469, 4185.641113, 4200.512695, 4176.922852, 4195.897461, 4204.102539, 4203.076660, 4203.076660, 4288.717773, 4206.153809, 4188.717773, 4278.974121, 4196.410156, 0.000000, 8147.000000, 8065.000000, 0.000000, 0.000000, 0.000000, -20330.000000, 559.487183, 4.000000, 4.000000, 4.000000, 4.000000, 4.000000, 4.000000, 4.000000, 4.000000, 0.000000, 4.000000, 4.000000, 4.000000, 4.000000, 4.000000, 4.000000, 4.000000
18.000000, 0.000000, 4198.461426, 4168.205078, 4177.436035, 4200.000000, 4185.641113, 4205.127930, 4210.769043, 4205.127930, 4202.563965, 4277.948730, 4195.384277, 4179.487305, 4269.743652, 4187.692383, 0.000000, 8147.000000, 8065.000000, 0.000000, 0.000000, 0.000000, -20330.000000, 567.692322, 4.000000, 4.000000, 4.000000, 4.000000, 4.000000, 4.000000, 4.000000, 4.000000, 0.000000, 4.000000, 4.000000, 4.000000, 4.000000, 4.000000, 4.000000, 4.000000
19.000000, 0.000000, 4195.384277, 4162.051270, 4171.794922, 4186.666504, 4185.127930, 4207.692383, 4205.641113, 4207.692383, 4203.076660, 4263.589844, 4181.538574, 4170.256348, 4257.948730, 4177.436035, 0.000000, 8148.000000, 8070.000000, 0.000000, 0.000000, 0.000000, -20330.000000, 575.897400, 4.000000, 4.000000, 4.000000, 4.000000, 4.000000, 4.000000, 4.000000, 4.000000, 0.000000, 4.000000, 4.000000, 4.000000, 4.000000, 4.000000, 4.000000, 4.000000
20.000000, 1.000000, 4201.538574, 4163.076660, 4177.948730, 4189.743652, 4185.127930, 4208.717773, 4207.692383, 4206.666504, 4203.076660, 4267.179199, 4186.666504, 4175.897461, 4263.076660, 4183.589844, 0.000000, 8148.000000, 8070.000000, 0.000000, 0.000000, 0.000000, -20330.000000, 583.589722, 4.000000, 4.000000, 4.000000, 4.000000, 4.000000, 4.000000, 4.000000, 4.000000, 0.000000, 4.000000, 4.000000, 4.000000, 4.000000, 4.000000, 4.000000, 4.000000
21.000000, 1.000000, 4207.179199, 4164.615234, 4184.102539, 4193.333008, 4185.127930, 4210.256348, 4210.256348, 4206.153809, 4202.563965, 4270.769043, 4192.307617, 4182.051270, 4268.717773, 4190.256348, 0.000000, 8148.000000, 8070.000000, 0.000000, 0.000000, 0.000000, -20330.000000, 591.282043, 4.000000, 4.000000, 4.000000, 4.000000, 4.000000, 4.000000, 4.000000, 4.000000, 0.000000, 4.000000, 4.000000, 4.000000, 4.000000, 4.000000, 4.000000, 4.000000
22.000000, 1.000000, 4213.333008, 4166.153809, 4190.256348, 4196.410156, 4184.615234, 4211.794922, 4212.307617, 4205.641113, 4202.563965, 4274.358887, 4197.436035, 4187.692383, 4273.846191, 4196.410156, 0.000000, 8148.000000, 8070.000000, 0.000000, 0.000000, 0.000000, -20330.000000, 599.487183, 4.000000, 4.000000, 4.000000, 4.000000, 4.000000, 4.000000, 4.000000, 4.000000, 0.000000, 4.000000, 4.000000, 4.000000, 4.000000, 4.000000, 4.000000, 4.000000
23.000000, 1.000000, 4218.974121, 4167.692383, 4195.897461, 4200.000000, 4184.615234, 4213.333008, 4214.358887, 4205.127930, 4202.563965, 4277.948730, 4203.076660, 4193.333008, 4279.487305, 4203.076660, 0.000000, 8148.000000, 8070.000000, 0.000000, 0.000000, 0.000000, -20330.000000, 607.179443, 4.000000, 4.000000, 4.000000, 4.000000, 4.000000, 4.000000, 4.000000, 4.000000, 0.000000, 4.000000, 4.000000, 4.000000, 4.000000, 4.000000, 4.000000, 4.000000
24.000000, 1.000000, 4225.127930, 4168.717773, 4202.051270, 4203.076660, 4184.615234, 4214.358887, 4216.410156, 4204.102539, 4202.563965, 4281.538574, 4208.205078, 4198.974121, 4284.615234, 4209.230469, 0.000000, 8148.000000, 8070.000000, 0.000000, 0.000000, 0.000000, -20330.000000, 614.871765, 4.000000, 4.000000, 4.000000, 4.000000, 4.000000, 4.000000, 4.000000, 4.000000, 0.000000, 4.000000, 4.000000, 4.000000, 4.000000, 4.000000, 4.000000, 4.000000
25.000000, 0.000000, 4231.281738, 4170.256348, 4208.717773, 4206.666504, 4183.589844, 4216.410156, 4218.974121, 4203.076660, 4202.051270, 4285.641113, 4214.358887, 4205.127930, 4290.769043, 4216.410156, 0.000000, 8148.000000, 8070.000000, 0.000000, 0.000000, 0.000000, -20330.000000, 623.076904, 4.000000, 4.000000, 4.000000, 4.000000, 4.000000, 4.000000, 4.000000, 4.000000, 0.000000, 4.000000, 4.000000, 4.000000, 4.000000, 4.000000, 4.000000, 4.000000
26.000000, 0.000000, 4231.794922, 4166.666504, 4213.846191, 4206.666504, 4185.127930, 4214.871582, 4213.846191, 4201.538574, 4202.563965, 4283.589844, 4213.333008, 4206.666504, 4290.256348, 4215.897461, 0.000000, 8148.000000, 8070.000000, 0.000000, 0.000000, 0.000000, -20330.000000, 630.769226, 4.000000, 4.000000, 4.000000, 4.000000, 4.000000, 4.000000, 4.000000, 4.000000, 0.000000, 4.000000, 4.000000, 4.000000, 4.000000, 4.000000, 4.000000, 4.000000
27.000000, 0.000000, 4225.127930, 4159.487305, 4212.820313, 4208.717773, 4183.589844, 4212.307617, 4205.641113, 4204.615234, 4202.051270, 4284.102539, 4208.717773, 4204.102539, 4281.538574, 4211.794922, 0.000000, 8164.000000, 8128.000000, 0.000000, 0.000000, 0.000000, -20330.000000, 638.974365, 4.000000, 4.000000, 4.000000, 4.000000, 4.000000, 4.000000, 4.000000, 4.000000, 0.000000, 4.000000, 4.000000, 4.000000, 4.000000, 4.000000, 4.000000, 4.000000
28.000000, 0.000000, 4211.281738, 4155.897461, 4200.000000, 4202.051270, 4182.563965, 4218.461426, 4214.358887, 4218.974121, 4202.051270, 4279.487305, 4195.384277, 4191.794922, 4266.666504, 4198.974121, 0.000000, 8164.000000, 8128.000000, 0.000000, 0.000000, 0.000000, -20330.000000, 646.666626, 4.000000, 4.000000, 4.000000, 4.000000, 4.000000, 4.000000, 4.000000, 4.000000, 0.000000, 4.000000, 4.000000, 4.000000, 4.000000, 4.000000, 4.000000, 4.000000
29.000000, 0.000000, 4202.051270, 4154.871582, 4189.230469, 4192.307617, 4177.948730, 4214.871582, 4216.410156, 4218.461426, 4202.563965, 4272.820313, 4186.666504, 4178.461426, 4258.461426, 4184.102539, 0.000000, 8167.000000, 8127.000000, 0.000000, 0.000000, 0.000000, -20330.000000, 654.358948, 4.000000, 4.000000, 4.000000, 4.000000, 4.000000, 4.000000, 4.000000, 4.000000, 0.000000, 4.000000, 4.000000, 4.000000, 4.000000, 4.000000, 4.000000, 4.000000
30.000000, 0.000000, 4200.000000, 4153.846191, 4190.256348, 4188.717773, 4171.794922, 4205.127930, 4202.051270, 4203.076660, 4202.051270, 4271.281738, 4191.794922, 4181.025391, 4258.461426, 4182.051270, 0.000000, 8167.000000, 8127.000000, 0.000000, 0.000000, 0.000000, -20330.000000, 662.564087, 4.000000, 4.000000, 4.000000, 4.000000, 4.000000, 4.000000, 4.000000, 4.000000, 0.000000, 4.000000, 4.000000, 4.000000, 4.000000, 4.000000, 4.000000, 4.000000
31.000000, 0.000000, 4201.538574, 4152.307617, 4195.384277, 4192.820313, 4173.333008, 4209.743652, 4203.589844, 4205.127930, 4202.563965, 4275.897461, 4200.512695, 4191.794922, 4261.538574, 4190.256348, 0.000000, 8173.000000, 8123.000000, 0.000000, 0.000000, 0.000000, -20330.000000, 670.256409, 4.000000, 4.000000, 4.000000, 4.000000, 4.000000, 4.000000, 4.000000, 4.000000, 0.000000, 4.000000, 4.000000, 4.000000, 4.000000, 4.000000, 4.000000, 4.000000
32.000000, 0.000000, 4208.717773, 4156.922852, 4200.512695, 4201.538574, 4181.538574, 4220.000000, 4226.153809, 4213.333008, 4203.076660, 4274.358887, 4202.563965, 4193.333008, 4267.179199, 4198.974121, 0.000000, 8173.000000, 8123.000000, 0.000000, 0.000000, 0.000000, -20330.000000, 677.948730, 4.000000, 4.000000, 4.000000, 4.000000, 4.000000, 4.000000, 4.000000, 4.000000, 0.000000, 4.000000, 4.000000, 4.000000, 4.000000, 4.000000, 4.000000, 4.000000
33.000000, 0.000000, 4218.461426, 4165.127930, 4205.127930, 4205.127930, 4184.615234, 4221.538574, 4234.358887, 4209.743652, 4201.538574, 4268.717773, 4201.538574, 4191.281738, 4267.179199, 4202.563965, 0.000000, 8171.000000, 8128.000000, 0.000000, 0.000000, 0.000000, -20330.000000, 686.153809, 4.000000, 4.000000, 4.000000, 4.000000, 4.000000, 4.000000, 4.000000, 4.000000, 0.000000, 4.000000, 4.000000, 4.000000, 4.000000, 4.000000, 4.000000, 4.000000
34.000000, 0.000000, 4216.410156, 4168.205078, 4201.538574, 4204.102539, 4180.000000, 4215.384277, 4220.000000, 4201.538574, 4201.538574, 4264.102539, 4202.563965, 4190.769043, 4254.358887, 4199.487305, 0.000000, 8171.000000, 8128.000000, 0.000000, 0.000000, 0.000000, -20330.000000, 693.846130, 4.000000, 4.000000, 4.000000, 4.000000, 4.000000, 4.000000, 4.000000, 4.000000, 0.000000, 4.000000, 4.000000, 4.000000, 4.000000, 4.000000, 4.000000, 4.000000
35.000000, 0.000000, 4203.076660, 4165.127930, 4187.179199, 4201.025391, 4170.769043, 4204.615234, 4208.205078, 4194.871582, 4202.051270, 4256.410156, 4197.436035, 4186.153809, 4232.820313, 4188.717773, 0.000000, 8167.000000, 8130.000000, 0.000000, 0.000000, 0.000000, -20330.000000, 701.538452, 4.000000, 4.000000, 4.000000, 4.000000, 4.000000, 4.000000, 4.000000, 4.000000, 0.000000, 4.000000, 4.000000, 4.000000, 4.000000, 4.000000, 4.000000, 4.000000
36.000000, 0.000000, 4195.897461, 4163.589844, 4176.410156, 4196.410156, 4166.666504, 4198.461426, 4206.666504, 4184.615234, 4201.538574, 4247.692383, 4190.769043, 4178.974121, 4211.281738, 4181.025391, 0.000000, 8167.000000, 8130.000000, 0.000000, 0.000000, 0.000000, -20330.000000, 709.230774, 4.000000, 4.000000, 4.000000, 4.000000, 4.000000, 4.000000, 4.000000, 4.000000, 0.000000, 4.000000, 4.000000, 4.000000, 4.000000, 4.000000, 4.000000, 4.000000
37.000000, 0.000000, 4200.512695, 4171.794922, 4184.102539, 4197.436035, 4175.897461, 4201.538574, 4200.000000, 4181.025391, 4202.051270, 4248.205078, 4195.384277, 4184.615234, 4200.512695, 4190.769043, 0.000000, 8171.000000, 8146.000000, 0.000000, 0.000000, 0.000000, -20330.000000, 717.435852, 4.000000, 4.000000, 4.000000, 4.000000, 4.000000, 4.000000, 4.000000, 4.000000, 0.000000, 4.000000, 4.000000, 4.000000, 4.000000, 4.000000, 4.000000, 4.000000
38.000000, 0.000000, 4208.717773, 4182.563965, 4192.820313, 4201.025391, 4181.538574, 4203.076660, 4197.436035, 4195.897461, 4201.538574, 4251.281738, 4203.076660, 4194.871582, 4195.384277, 4201.538574, 0.000000, 8171.000000, 8146.000000, 0.000000, 0.000000, 0.000000, -20330.000000, 725.128174, 4.000000, 4.000000, 4.000000, 4.000000, 4.000000, 4.000000, 4.000000, 4.000000, 0.000000, 4.000000, 4.000000, 4.000000, 4.000000, 4.000000, 4.000000, 4.000000
39.000000, 0.000000, 4212.820313, 4188.717773, 4192.820313, 4202.051270, 4176.410156, 4202.051270, 4209.230469, 4208.717773, 4201.025391, 4250.256348, 4202.051270, 4193.333008, 4187.179199, 4202.051270, 0.000000, 8173.000000, 8159.000000, 0.000000, 0.000000, 0.000000, -20330.000000, 732.820496, 4.000000, 4.000000, 4.000000, 4.000000, 4.000000, 4.000000, 4.000000, 4.000000, 0.000000, 4.000000, 4.000000, 4.000000, 4.000000, 4.000000, 4.000000, 4.000000
40.000000, 0.000000, 4213.333008, 4193.846191, 4194.358887, 4204.102539, 4177.948730, 4203.076660, 4209.230469, 4195.897461, 4201.025391, 4245.641113, 4195.384277, 4187.179199, 4180.512695, 4200.512695, 0.000000, 8173.000000, 8159.000000, 0.000000, 0.000000, 0.000000, -20330.000000, 740.512817, 4.000000, 4.000000, 4.000000, 4.000000, 4.000000, 4.000000, 4.000000, 4.000000, 0.000000, 4.000000, 4.000000, 4.000000, 4.000000, 4.000000, 4.000000, 4.000000
41.000000, 0.000000, 4213.846191, 4201.538574, 4198.461426, 4205.127930, 4185.127930, 4202.563965, 4196.410156, 4180.512695, 4202.051270, 4235.384277, 4191.281738, 4185.127930, 4180.000000, 4200.000000, 0.000000, 8192.000000, 8172.000000, 0.000000, 0.000000, 0.000000, -20330.000000, 748.205139, 4.000000, 4.000000, 4.000000, 4.000000, 4.000000, 4.000000, 4.000000, 4.000000, 0.000000, 4.000000, 4.000000, 4.000000, 4.000000, 4.000000, 4.000000, 4.000000
42.000000, 0.000000, 4218.461426, 4216.922852, 4203.076660, 4203.589844, 4185.641113, 4204.102539, 4197.436035, 4193.333008, 4202.051270, 4236.922852, 4195.897461, 4193.846191, 4188.205078, 4206.666504, 0.000000, 8192.000000, 8172.000000, 0.000000, 0.000000, 0.000000, -20330.000000, 756.410217, 4.000000, 4.000000, 4.000000, 4.000000, 4.000000, 4.000000, 4.000000, 4.000000, 0.000000, 4.000000, 4.000000, 4.000000, 4.000000, 4.000000, 4.000000, 4.000000
43.000000, 0.000000, 4222.051270, 4228.205078, 4206.153809, 4201.538574, 4182.051270, 4207.179199, 4205.641113, 4210.769043, 4203.589844, 4248.717773, 4204.102539, 4201.538574, 4198.974121, 4217.436035, 0.000000, 8196.000000, 8180.000000, 0.000000, 0.000000, 0.000000, -20330.000000, 764.102539, 4.000000, 4.000000, 4.000000, 4.000000, 4.000000, 4.000000, 4.000000, 4.000000, 0.000000, 4.000000, 4.000000, 4.000000, 4.000000, 4.000000, 4.000000, 4.000000
44.000000, 0.000000, 4217.436035, 4225.641113, 4205.641113, 4200.512695, 4174.871582, 4202.051270, 4198.974121, 4203.589844, 4204.615234, 4244.102539, 4200.000000, 4195.897461, 4195.897461, 4215.384277, 0.000000, 8196.000000, 8180.000000, 0.000000, 0.000000, 0.000000, -20330.000000, 771.794861, 4.000000, 4.000000, 4.000000, 4.000000, 4.000000, 4.000000, 4.000000, 4.000000, 0.000000, 4.000000, 4.000000, 4.000000, 4.000000, 4.000000, 4.000000, 4.000000
45.000000, 0.000000, 4210.769043, 4222.051270, 4201.538574, 4197.948730, 4170.256348, 4195.897461, 4193.846191, 4193.846191, 4203.589844, 4231.281738, 4192.307617, 4190.769043, 4185.127930, 4209.743652, 0.000000, 8192.000000, 8186.000000, 0.000000, 0.000000, 0.000000, -20330.000000, 779.487183, 4.000000, 4.000000, 4.000000, 4.000000, 4.000000, 4.000000, 4.000000, 4.000000, 0.000000, 4.000000, 4.000000, 4.000000, 4.000000, 4.000000, 4.000000, 4.000000
46.000000, 0.000000, 4212.307617, 4230.256348, 4205.127930, 4197.436035, 4177.436035, 4197.948730, 4208.717773, 4200.000000, 4202.563965, 4232.307617, 4196.922852, 4195.897461, 4188.717773, 4214.871582, 0.000000, 8192.000000, 8186.000000, 0.000000, 0.000000, 0.000000, -20330.000000, 787.179443, 4.000000, 4.000000, 4.000000, 4.000000, 4.000000, 4.000000, 4.000000, 4.000000, 0.000000, 4.000000, 4.000000, 4.000000, 4.000000, 4.000000, 4.000000, 4.000000
47.000000, 0.000000, 4220.000000, 4237.948730, 4218.461426, 4201.025391, 4181.538574, 4202.563965, 4218.461426, 4206.153809, 4203.076660, 4236.410156, 4203.076660, 4203.589844, 4198.974121, 4220.000000, 0.000000, 8183.000000, 8202.000000, 0.000000, 0.000000, 0.000000, -20330.000000, 795.384583, 4.000000, 4.000000, 4.000000, 4.000000, 4.000000, 4.000000, 4.000000, 4.000000, 0.000000, 4.000000, 4.000000, 4.000000, 4.000000, 4.000000, 4.000000, 4.000000
48.000000, 0.000000, 4218.974121, 4237.436035, 4217.436035, 4201.025391, 4177.436035, 4202.051270, 4206.666504, 4198.461426, 4203.076660, 4232.307617, 4201.025391, 4200.512695, 4199.487305, 4217.436035, 0.000000, 8183.000000, 8202.000000, 0.000000, 0.000000, 0.000000, -20330.000000, 803.076904, 4.000000, 4.000000, 4.000000, 4.000000, 4.000000, 4.000000, 4.000000, 4.000000, 0.000000, 4.000000, 4.000000, 4.000000, 4.000000, 4.000000, 4.000000, 4.000000
49.000000, 0.000000, 4214.871582, 4237.436035, 4205.641113, 4196.922852, 4178.974121, 4198.461426, 4194.871582, 4192.820313, 4203.076660, 4230.256348, 4200.512695, 4193.846191, 4199.487305, 4216.922852, 0.000000, 8180.000000, 8208.000000, 0.000000, 0.000000, 0.000000, -20330.000000, 810.769226, 4.000000, 4.000000, 4.000000, 4.000000, 4.000000, 4.000000, 4.000000, 4.000000, 0.000000, 4.000000, 4.000000, 4.000000, 4.000000, 4.000000, 4.000000, 4.000000
50.000000, 0.000000, 4215.384277, 4234.871582, 4201.025391, 4197.436035, 4186.666504, 4198.461426, 4196.922852, 4200.512695, 4203.076660, 4228.717773, 4198.974121, 4189.743652, 4201.538574, 4214.871582, 0.000000, 8180.000000, 8208.000000, 0.000000, 0.000000, 0.000000, -20330.000000, 818.461548, 4.000000, 4.000000, 4.000000, 4.000000, 4.000000, 4.000000, 4.000000, 4.000000, 0.000000, 4.000000, 4.000000, 4.000000, 4.000000, 4.000000, 4.000000, 4.000000
51.000000, 0.000000, 4211.794922, 4231.281738, 4197.436035, 4196.410156, 4188.205078, 4203.076660, 4200.000000, 4207.179199, 4203.076660, 4225.641113, 4191.794922, 4188.205078, 4200.512695, 4210.769043, 0.000000, 8179.000000, 8220.000000, 0.000000, 0.000000, 0.000000, -20330.000000, 826.153809, 4.000000, 4.000000, 4.000000, 4.000000, 4.000000, 4.000000, 4.000000, 4.000000, 0.000000, 4.000000, 4.000000, 4.000000, 4.000000, 4.000000, 4.000000, 4.000000
52.000000, 0.000000, 4203.589844, 4233.333008, 4189.743652, 4188.717773, 4184.615234, 4204.615234, 4198.461426, 4202.563965, 4202.563965, 4226.666504, 4190.256348, 4188.717773, 4196.922852, 4211.281738, 0.000000, 8179.000000, 8220.000000, 0.000000, 0.000000, 0.000000, -20330.000000, 834.358948, 4.000000, 4.000000, 4.000000, 4.000000, 4.000000, 4.000000, 4.000000, 4.000000, 0.000000, 4.000000, 4.000000, 4.000000, 4.000000, 4.000000, 4.000000, 4.000000
53.000000, 0.000000, 4206.153809, 4236.922852, 4190.256348, 4188.717773, 4186.153809, 4199.487305, 4200.000000, 4200.512695, 4201.025391, 4230.769043, 4197.948730, 4189.230469, 4200.512695, 4215.384277, 0.000000, 8182.000000, 8217.000000, 0.000000, 0.000000, 0.000000, -20330.000000, 842.051270, 4.000000, 4.000000, 4.000000, 4.000000, 4.000000, 4.000000, 4.000000, 4.000000, 0.000000, 4.000000, 4.000000, 4.000000, 4.000000, 4.000000, 4.000000, 4.000000
54.000000, 0.000000, 4214.871582, 4243.589844, 4196.922852, 4198.461426, 4191.281738, 4202.051270, 4205.127930, 4211.281738, 4201.538574, 4234.871582, 4207.692383, 4198.461426, 4212.820313, 4219.487305, 0.000000, 8182.000000, 8217.000000, 0.000000, 0.000000, 0.000000, -20330.000000, 849.743591, 4.000000, 4.000000, 4.000000, 4.000000, 4.000000, 4.000000, 4.000000, 4.000000, 0.000000, 4.000000, 4.000000, 4.000000, 4.000000, 4.000000, 4.000000, 4.000000
55.000000, 0.000000, 4217.436035, 4248.717773, 4197.948730, 4203.589844, 4190.769043, 4206.666504, 4205.641113, 4216.922852, 4203.076660, 4238.974121, 4211.281738, 4203.589844, 4222.051270, 4221.025391, 0.000000, 8184.000000, 8215.000000, 0.000000, 0.000000, 0.000000, -20330.000000, 857.435852, 4.000000, 4.000000, 4.000000, 4.000000, 4.000000, 4.000000, 4.000000, 4.000000, 0.000000, 4.000000, 4.000000, 4.000000, 4.000000, 4.000000, 4.000000, 4.000000
56.000000, 0.000000, 4212.820313, 4245.127930, 4192.820313, 4200.512695, 4186.153809, 4197.436035, 4197.948730, 4203.076660, 4203.076660, 4232.307617, 4203.589844, 4191.794922, 4214.871582, 4211.794922, 0.000000, 8184.000000, 8215.000000, 0.000000, 0.000000, 0.000000, -20330.000000, 865.128174, 4.000000, 4.000000, 4.000000, 4.000000, 4.000000, 4.000000, 4.000000, 4.000000, 0.000000, 4.000000, 4.000000, 4.000000, 4.000000, 4.000000, 4.000000, 4.000000
57.000000, 0.000000, 4214.358887, 4247.692383, 4196.922852, 4201.538574, 4187.179199, 4189.743652, 4194.358887, 4193.846191, 4201.538574, 4223.076660, 4194.871582, 4183.076660, 4206.153809, 4205.127930, 0.000000, 8180.000000, 8216.000000, 0.000000, 0.000000, 0.000000, -20330.000000, 872.820496, 4.000000, 4.000000, 4.000000, 4.000000, 4.000000, 4.000000, 4.000000, 4.000000, 0.000000, 4.000000, 4.000000, 4.000000, 4.000000, 4.000000, 4.000000, 4.000000
58.000000, 0.000000, 4217.948730, 4255.897461, 4202.051270, 4203.589844, 4188.717773, 4197.948730, 4202.051270, 4199.487305, 4201.025391, 4223.589844, 4197.948730, 4188.717773, 4207.692383, 4208.717773, 0.000000, 8180.000000, 8216.000000, 0.000000, 0.000000, 0.000000, -20330.000000, 881.025635, 4.000000, 4.000000, 4.000000, 4.000000, 4.000000, 4.000000, 4.000000, 4.000000, 0.000000, 4.000000, 4.000000, 4.000000, 4.000000, 4.000000, 4.000000, 4.000000
59.000000, 0.000000, 4218.461426, 4259.487305, 4199.487305, 4202.563965, 4186.153809, 4204.102539, 4202.563965, 4195.384277, 4201.538574, 4223.076660, 4200.000000, 4191.794922, 4207.179199, 4211.794922, 0.000000, 8186.000000, 8216.000000, 0.000000, 0.000000, 0.000000, -20330.000000, 888.717957, 4.000000, 4.000000, 4.000000, 4.000000, 4.000000, 4.000000, 4.000000, 4.000000, 0.000000, 4.000000, 4.000000, 4.000000, 4.000000, 4.000000, 4.000000, 4.000000
60.000000, 0.000000, 4222.563965, 4264.102539, 4202.563965, 4209.230469, 4187.179199, 4196.410156, 4189.743652, 4188.205078, 4203.076660, 4218.461426, 4195.897461, 4188.717773, 4202.051270, 4212.820313, 0.000000, 8186.000000, 8216.000000, 0.000000, 0.000000, 0.000000, -20330.000000, 896.410217, 4.000000, 4.000000, 4.000000, 4.000000, 4.000000, 4.000000, 4.000000, 4.000000, 0.000000, 4.000000, 4.000000, 4.000000, 4.000000, 4.000000, 4.000000, 4.000000
61.000000, 0.000000, 4225.127930, 4272.307617, 4208.717773, 4213.846191, 4187.179199, 4192.307617, 4186.153809, 4195.897461, 4203.076660, 4216.922852, 4193.333008, 4186.666504, 4202.563965, 4214.871582, 0.000000, 8196.000000, 8203.000000, 0.000000, 0.000000, 0.000000, -20330.000000, 904.102539, 4.000000, 4.000000, 4.000000, 4.000000, 4.000000, 4.000000, 4.000000, 4.000000, 0.000000, 4.000000, 4.000000, 4.000000, 4.000000, 4.000000, 4.000000, 4.000000
62.000000, 0.000000, 4223.589844, 4273.846191, 4208.717773, 4207.692383, 4186.153809, 4195.897461, 4196.922852, 4202.563965, 4201.025391, 4216.922852, 4192.307617, 4186.153809, 4205.127930, 4211.281738, 0.000000, 8196.000000, 8203.000000, 0.000000, 0.000000, 0.000000, -20330.000000, 911.794861, 4.000000, 4.000000, 4.000000, 4.000000, 4.000000, 4.000000, 4.000000, 4.000000, 0.000000, 4.000000, 4.000000, 4.000000, 4.000000, 4.000000, 4.000000, 4.000000
63.000000, 0.000000, 4222.563965, 4272.820313, 4205.641113, 4204.102539, 4185.127930, 4200.000000, 4202.563965, 4196.922852, 4201.538574, 4215.897461, 4189.230469, 4185.127930, 4203.589844, 4202.563965, 0.000000, 8200.000000, 8196.000000, 0.000000, 0.000000, 0.000000, -20330.000000, 919.487183, 4.000000, 4.000000, 4.000000, 4.000000, 4.000000, 4.000000, 4.000000, 4.000000, 0.000000, 4.000000, 4.000000, 4.000000, 4.000000, 4.000000, 4.000000, 4.000000
64.000000, 0.000000, 4220.000000, 4277.948730, 4205.127930, 4206.153809, 4184.615234, 4201.538574, 4195.897461, 4189.743652, 4204.615234, 4214.358887, 4185.127930, 4184.615234, 4201.538574, 4202.563965, 3188.000000, 8200.000000, 8196.000000, 0.000000, 0.000000, 0.000000, -20330.000000, 927.692261, 4.000000, 4.000000, 4.000000, 4.000000, 4.000000, 4.000000, 4.000000, 4.000000, 0.000000, 4.000000, 4.000000, 4.000000, 4.000000, 4.000000, 4.000000, 4.000000
65.000000, 0.000000, 4221.538574, 4280.000000, 4207.179199, 4205.127930, 4190.769043, 4198.974121, 4188.717773, 4192.307617, 4203.589844, 4212.307617, 4190.256348, 4185.127930, 4207.692383, 4208.717773, 3543.000000, 8210.000000, 8184.000000, 0.000000, 0.000000, 0.000000, -20330.000000, 935.384583, 4.000000, 4.000000, 4.000000, 4.000000, 4.000000, 4.000000, 4.000000, 4.000000, 0.000000, 4.000000, 4.000000, 4.000000, 4.000000, 4.000000, 4.000000, 4.000000
66.000000, 0.000000, 4225.641113, 4278.461426, 4212.307617, 4203.589844, 4196.410156, 4198.461426, 4187.692383, 4200.000000, 4201.025391, 4213.333008, 4199.487305, 4188.717773, 4212.820313, 4209.743652, 3556.000000, 8210.000000, 8184.000000, 0.000000, 0.000000, 0.000000, -20330.000000, 943.076904, 4.000000, 4.000000, 4.000000, 4.000000, 4.000000, 4.000000, 4.000000, 4.000000, 0.000000, 4.000000, 4.000000, 4.000000, 4.000000, 4.000000, 4.000000, 4.000000
67.000000, 0.000000, 4222.563965, 4281.538574, 4218.974121, 4204.102539, 4190.769043, 4201.538574, 4196.410156, 4196.922852, 4202.563965, 4213.333008, 4198.461426, 4189.230469, 4213.333008, 4208.205078, 2425.000000, 8212.000000, 8185.000000, 0.000000, 0.000000, 0.000000, -20330.000000, 950.769226, 4.000000, 4.000000, 4.000000, 4.000000, 4.000000, 4.000000, 4.000000, 4.000000, 0.000000, 4.000000, 4.000000, 4.000000, 4.000000, 4.000000, 4.000000, 4.000000
68.000000, 0.000000, 4222.563965, 4278.974121, 4218.974121, 4203.076660, 4183.589844, 4198.461426, 4201.025391, 4185.127930, 4204.615234, 4205.641113, 4195.897461, 4189.230469, 4212.820313, 4212.307617, 3559.000000, 8212.000000, 8185.000000, 0.000000, 0.000000, 0.000000, -20330.000000, 958.461487, 4.000000, 4.000000, 4.000000, 4.000000, 4.000000, 4.000000, 4.000000, 4.000000, 0.000000, 4.000000, 4.000000, 4.000000, 4.000000, 4.000000, 4.000000, 4.000000
69.000000, 0.000000, 4230.769043, 4273.333008, 4214.358887, 4204.102539, 4184.102539, 4191.794922, 4192.820313, 4184.615234, 4202.051270, 4201.025391, 4200.512695, 4192.307617, 4210.769043, 4215.897461, 3579.000000, 8211.000000, 8198.000000, 0.000000, 0.000000, 0.000000, -20330.000000, 966.153809, 4.000000, 4.000000, 4.000000, 4.000000, 4.000000, 4.000000, 4.000000, 4.000000, 0.000000, 4.000000, 4.000000, 4.000000, 4.000000, 4.000000, 4.000000, 4.000000
70.000000, 0.000000, 4224.615234, 4276.922852, 4207.692383, 4203.076660, 4183.589844, 4190.769043, 4189.743652, 4187.179199, 4200.512695, 4202.051270, 4198.461426, 4191.794922, 4201.538574, 4206.153809, 3455.000000, 8211.000000, 8198.000000, 0.000000, 0.000000, 0.000000, -20330.000000, 974.358948, 4.000000, 4.000000, 4.000000, 4.000000, 4.000000, 4.000000, 4.000000, 4.000000, 0.000000, 4.000000, 4.000000, 4.000000, 4.000000, 4.000000, 4.000000, 4.000000
71.000000, 0.000000, 4212.307617, 4276.922852, 4200.000000, 4200.000000, 4182.051270, 4193.846191, 4192.820313, 4183.076660, 4202.563965, 4201.538574, 4191.794922, 4185.641113, 4194.871582, 4196.410156, 3500.000000, 8211.000000, 8220.000000, 0.000000, 0.000000, 0.000000, -20330.000000, 982.051270, 4.000000, 4.000000, 4.000000, 4.000000, 4.000000, 4.000000, 4.000000, 4.000000, 0.000000, 4.000000, 4.000000, 4.000000, 4.000000, 4.000000, 4.000000, 4.000000
72.000000, 0.000000, 4214.358887, 4271.794922, 4199.487305, 4199.487305, 4183.076660, 4197.436035, 4188.717773, 4185.127930, 4203.589844, 4202.563965, 4196.922852, 4186.153809, 4198.461426, 4200.000000, 0.000000, 8211.000000, 8220.000000, 0.000000, 0.000000, 0.000000, -20330.000000, 989.743591, 4.000000, 4.000000, 4.000000, 4.000000, 4.000000, 4.000000, 4.000000, 4.000000, 0.000000, 4.000000, 4.000000, 4.000000, 4.000000, 4.000000, 4.000000, 4.000000
73.000000, 0.000000, 4216.410156, 4273.333008, 4200.000000, 4198.461426, 4185.127930, 4198.974121, 4184.102539, 4191.794922, 4202.563965, 4209.230469, 4203.076660, 4194.871582, 4202.051270, 4204.615234, 3048.000000, 8209.000000, 8225.000000, 0.000000, 0.000000, 0.000000, -20330.000000, 997.435852, 4.000000, 4.000000, 4.000000, 4.000000, 4.000000, 4.000000, 4.000000, 4.000000, 0.000000, 4.000000, 4.000000, 4.000000, 4.000000, 4.000000, 4.000000, 4.000000
74.000000, 0.000000, 4216.410156, 4278.974121, 4200.000000, 4201.538574, 4190.256348, 4198.974121, 4186.666504, 4199.487305, 4202.563965, 4214.871582, 4202.051270, 4198.461426, 4202.051270, 4204.615234, 3585.000000, 8209.000000, 8225.000000, 0.000000, 0.000000, 0.000000, -20329.000000, 5.128205, 4.000000, 4.000000, 4.000000, 4.000000, 4.000000, 4.000000, 4.000000, 4.000000, 0.000000, 4.000000, 4.000000, 4.000000, 4.000000, 4.000000, 4.000000, 4.000000
75.000000, 0.000000, 4217.436035, 4280.000000, 4202.563965, 4207.179199, 4193.846191, 4198.461426, 4186.666504, 4200.000000, 4203.076660, 4215.897461, 4201.025391, 4192.820313, 4200.512695, 4205.127930, 3560.000000, 8208.000000, 8234.000000, 0.000000, 0.000000, 0.000000, -20329.000000, 12.820513, 4.000000, 4.000000, 4.000000, 4.000000, 4.000000, 4.000000, 4.000000, 4.000000, 0.000000, 4.000000, 4.000000, 4.000000, 4.000000, 4.000000, 4.000000, 4.000000
76.000000, 0.000000, 4215.384277, 4277.948730, 4202.563965, 4207.692383, 4189.743652, 4194.871582, 4185.127930, 4190.256348, 4203.076660, 4216.410156, 4202.051270, 4188.717773, 4200.512695, 4207.692383, 3519.000000, 8208.000000, 8234.000000, 0.000000, 0.000000, 0.000000, -20329.000000, 21.025640, 4.000000, 4.000000, 4.000000, 4.000000, 4.000000, 4.000000, 4.000000, 4.000000, 0.000000, 4.000000, 4.000000, 4.000000, 4.000000, 4.000000, 4.000000, 4.000000
77.000000, 0.000000, 4215.897461, 4278.461426, 4199.487305, 4203.589844, 4186.153809, 4192.820313, 4191.281738, 4189.743652, 4202.051270, 4216.922852, 4202.563965, 4193.333008, 4205.641113, 4211.794922, 3462.000000, 8204.000000, 8231.000000, 0.000000, 0.000000, 0.000000, -20329.000000, 28.717949, 4.000000, 4.000000, 4.000000, 4.000000, 4.000000, 4.000000, 4.000000, 4.000000, 0.000000, 4.000000, 4.000000, 4.000000, 4.000000, 4.000000, 4.000000, 4.000000
78.000000, 0.000000, 4219.487305, 4280.000000, 4200.512695, 4202.563965, 4187.179199, 4197.948730, 4192.820313, 4198.461426, 4202.051270, 4215.384277, 4203.589844, 4200.512695, 4211.281738, 4217.436035, 3585.000000, 8204.000000, 8231.000000, 0.000000, 0.000000, 0.000000, -20329.000000, 36.410255, 4.000000, 4.000000, 4.000000, 4.000000, 4.000000, 4.000000, 4.000000, 4.000000, 0.000000, 4.000000, 4.000000, 4.000000, 4.000000, 4.000000, 4.000000, 4.000000
79.000000, 0.000000, 4220.512695, 4280.512695, 4206.666504, 4209.230469, 4190.256348, 4202.563965, 4187.179199, 4195.384277, 4202.051270, 4211.794922, 4203.589844, 4201.538574, 4214.358887, 4220.512695, 3560.000000, 8206.000000, 8228.000000, 0.000000, 0.000000, 0.000000, -20329.000000, 44.102562, 4.000000, 4.000000, 4.000000, 4.000000, 4.000000, 4.000000, 4.000000, 4.000000, 0.000000, 4.000000, 4.000000, 4.000000, 4.000000, 4.000000, 4.000000, 4.000000
80.000000, 0.000000, 4217.948730, 4281.538574, 4208.717773, 4213.333008, 4191.794922, 4199.487305, 4185.127930, 4183.076660, 4201.538574, 4206.153809, 4202.051270, 4196.410156, 4209.743652, 4218.461426, 3519.000000, 8206.000000, 8228.000000, 0.000000, 0.000000, 0.000000, -20329.000000, 51.794872, 4.000000, 4.000000, 4.000000, 4.000000, 4.000000, 4.000000, 4.000000, 4.000000, 0.000000, 4.000000, 4.000000, 4.000000, 4.000000, 4.000000, 4.000000, 4.000000
81.000000, 0.000000, 4216.922852, 4277.436035, 4202.051270, 4205.641113, 4189.743652, 4189.743652, 4186.666504, 4181.538574, 4202.051270, 4200.512695, 4200.512695, 4189.743652, 4203.589844, 4213.846191, 3462.000000, 8201.000000, 8222.000000, 0.000000, 0.000000, 0.000000, -20329.000000, 60.000000, 4.000000, 4.000000, 4.000000, 4.000000, 4.000000, 4.000000, 4.000000, 4.000000, 0.000000, 4.000000, 4.000000, 4.000000, 4.000000, 4.000000, 4.000000, 4.000000
82.000000, 0.000000, 4215.897461, 4268.205078, 4196.410156, 4198.974121, 4184.102539, 4185.641113, 4186.153809, 4188.717773, 4202.563965, 4196.922852, 4198.461426, 4190.769043, 4204.615234, 4211.281738, 3585.000000, 8201.000000, 8222.000000, 0.000000, 0.000000, 0.000000, -20329.000000, 67.692307, 4.000000, 4.000000, 4.000000, 4.000000, 4.000000, 4.000000, 4.000000, 4.000000, 0.000000, 4.000000, 4.000000, 4.000000, 4.000000, 4.000000, 4.000000, 4.000000
83.000000, 0.000000, 4217.948730, 4265.641113, 4205.641113, 4205.127930, 4185.127930, 4194.871582, 4188.717773, 4194.358887, 4201.538574, 4200.000000, 4201.025391, 4199.487305, 4212.307617, 4214.871582, 3560.000000, 8201.000000, 8214.000000, 0.000000, 0.000000, 0.000000, -20329.000000, 75.384613, 4.000000, 4.000000, 4.000000, 4.000000, 4.000000, 4.000000, 4.000000, 4.000000, 0.000000, 4.000000, 4.000000, 4.000000, 4.000000, 4.000000, 4.000000, 4.000000
84.000000, 0.000000, 4220.000000, 4268.717773, 4213.333008, 4210.769043, 4193.846191, 4201.538574, 4196.922852, 4203.076660, 4201.025391, 4211.281738, 4208.205078, 4203.076660, 4216.922852, 4218.974121, 3519.000000, 8201.000000, 8214.000000, 0.000000, 0.000000, 0.000000, -20329.000000, 83.076920, 4.000000, 4.000000, 4.000000, 4.000000, 4.000000, 4.000000, 4.000000, 4.000000, 0.000000, 4.000000, 4.000000, 4.000000, 4.000000, 4.000000, 4.000000, 4.000000
85.000000, 0.000000, 4217.948730, 4265.127930, 4207.179199, 4205.127930, 4193.846191, 4201.025391, 4204.615234, 4213.846191, 4201.538574, 4218.461426, 4216.410156, 4200.512695, 4216.922852, 4220.000000, 3462.000000, 8198.000000, 8205.000000, 0.000000, 0.000000, 0.000000, -20329.000000, 90.769226, 4.000000, 4.000000, 4.000000, 4.000000, 4.000000, 4.000000, 4.000000, 4.000000, 0.000000, 4.000000, 4.000000, 4.000000, 4.000000, 4.000000, 4.000000, 4.000000
86.000000, 0.000000, 4218.461426, 4259.487305, 4202.051270, 4202.051270, 4186.153809, 4206.153809, 4205.641113, 4216.922852, 4201.538574, 4215.384277, 4214.358887, 4203.076660, 4220.512695, 4220.000000, 3585.000000, 8198.000000, 8205.000000, 0.000000, 0.000000, 0.000000, -20329.000000, 98.974358, 4.000000, 4.000000, 4.000000, 4.000000, 4.000000, 4.000000, 4.000000, 4.000000, 0.000000, 4.000000, 4.000000, 4.000000, 4.000000, 4.000000, 4.000000, 4.000000
87.000000, 0.000000, 4215.384277, 4256.410156, 4204.615234, 4202.563965, 4183.076660, 4208.717773, 4200.512695, 4208.717773, 4201.025391, 4212.307617, 4204.615234, 4200.000000, 4220.000000, 4218.461426, 3560.000000, 8203.000000, 8201.000000, 0.000000, 0.000000, 0.000000, -20329.000000, 106.666664, 4.000000, 4.000000, 4.000000, 4.000000, 4.000000, 4.000000, 4.000000, 4.000000, 0.000000, 4.000000, 4.000000, 4.000000, 4.000000, 4.000000, 4.000000, 4.000000
88.000000, 0.000000, 4209.743652, 4250.769043, 4201.538574, 4200.000000, 4186.666504, 4202.563965, 4196.410156, 4202.051270, 4201.538574, 4214.358887, 4203.589844, 4193.333008, 4216.922852, 4213.846191, 3519.000000, 8203.000000, 8201.000000, 0.000000, 0.000000, 0.000000, -20329.000000, 114.358971, 4.000000, 4.000000, 4.000000, 4.000000, 4.000000, 4.000000, 4.000000, 4.000000, 0.000000, 4.000000, 4.000000, 4.000000, 4.000000, 4.000000, 4.000000, 4.000000
89.000000, 0.000000, 4212.820313, 4245.641113, 4197.436035, 4200.000000, 4187.179199, 4200.512695, 4198.974121, 4201.025391, 4203.076660, 4218.461426, 4212.820313, 4198.974121, 4226.153809, 4213.846191, 3462.000000, 8206.000000, 8196.000000, 0.000000, 0.000000, 0.000000, -20329.000000, 122.051277, 4.000000, 4.000000, 4.000000, 4.000000, 4.000000, 4.000000, 4.000000, 4.000000, 0.000000, 4.000000, 4.000000, 4.000000, 4.000000, 4.000000, 4.000000, 4.000000
90.000000, 0.000000, 4216.922852, 4243.076660, 4202.563965, 4203.589844, 4186.666504, 4205.127930, 4205.641113, 4195.384277, 4203.076660, 4217.436035, 4213.846191, 4202.563965, 4232.820313, 4217.436035, 3585.000000, 8206.000000, 8196.000000, 0.000000, 0.000000, 0.000000, -20329.000000, 129.743591, 4.000000, 4.000000, 4.000000, 4.000000, 4.000000, 4.000000, 4.000000, 4.000000, 0.000000, 4.000000, 4.000000, 4.000000, 4.000000, 4.000000, 4.000000, 4.000000
91.000000, 0.000000, 4207.179199, 4233.846191, 4198.461426, 4201.025391, 4188.205078, 4204.615234, 4205.127930, 4189.743652, 4202.051270, 4206.666504, 4203.589844, 4192.307617, 4222.563965, 4214.871582, 3560.000000, 8225.000000, 8178.000000, 0.000000, 0.000000, 0.000000, -20329.000000, 137.435898, 4.000000, 4.000000, 4.000000, 4.000000, 4.000000, 4.000000, 4.000000, 4.000000, 0.000000, 4.000000, 4.000000, 4.000000, 4.000000, 4.000000, 4.000000, 4.000000
92.000000, 0.000000, 4195.384277, 4228.717773, 4187.692383, 4190.769043, 4187.179199, 4196.922852, 4201.025391, 4183.589844, 4202.051270, 4195.897461, 4198.461426, 4185.641113, 4213.333008, 4204.102539, 3519.000000, 8225.000000, 8178.000000, 0.000000, 0.000000, 0.000000, -20329.000000, 145.641022, 4.000000, 4.000000, 4.000000, 4.000000, 4.000000, 4.000000, 4.000000, 4.000000, 0.000000, 4.000000, 4.000000, 4.000000, 4.000000, 4.000000, 4.000000, 4.000000
93.000000, 0.000000, 4195.384277, 4224.102539, 4184.102539, 4183.076660, 4183.589844, 4193.846191, 4202.563965, 4183.589844, 4202.051270, 4193.333008, 4197.436035, 4187.692383, 4214.358887, 4197.436035, 3462.000000, 8236.000000, 8163.000000, 0.000000, 0.000000, 0.000000, -20329.000000, 153.333328, 4.000000, 4.000000, 4.000000, 4.000000, 4.000000, 4.000000, 4.000000, 4.000000, 0.000000, 4.000000, 4.000000, 4.000000, 4.000000, 4.000000, 4.000000, 4.000000
94.000000, 0.000000, 4196.922852, 4219.487305, 4187.179199, 4188.205078, 4183.076660, 4197.436035, 4205.127930, 4195.897461, 4201.025391, 4196.410156, 4195.897461, 4190.256348, 4215.384277, 4204.102539, 3585.000000, 8236.000000, 8163.000000, 0.000000, 0.000000, 0.000000, -20329.000000, 161.025635, 4.000000, 4.000000, 4.000000, 4.000000, 4.000000, 4.000000, 4.000000, 4.000000, 0.000000, 4.000000, 4.000000, 4.000000, 4.000000, 4.000000, 4.000000, 4.000000
95.000000, 0.000000, 4202.563965, 4220.512695, 4195.897461, 4198.974121, 4186.153809, 4201.025391, 4202.563965, 4204.102539, 4201.025391, 4207.692383, 4207.179199, 4201.025391, 4226.153809, 4215.897461, 3560.000000, 8263.000000, 8136.000000, 0.000000, 0.000000, 0.000000, -20329.000000, 168.717941, 4.000000, 4.000000, 4.000000, 4.000000, 4.000000, 4.000000, 4.000000, 4.000000, 0.000000, 4.000000, 4.000000, 4.000000, 4.000000, 4.000000, 4.000000, 4.000000
96.000000, 0.000000, 4209.230469, 4219.487305, 4195.897461, 4201.538574, 4187.692383, 4199.487305, 4198.974121, 4198.974121, 4201.538574, 4215.897461, 4219.487305, 4210.256348, 4240.512695, 4221.538574, 3519.000000, 8263.000000, 8136.000000, 0.000000, 0.000000, 0.000000, -20329.000000, 176.410248, 4.000000, 4.000000, 4.000000, 4.000000, 4.000000, 4.000000, 4.000000, 4.000000, 0.000000, 4.000000, 4.000000, 4.000000, 4.000000, 4.000000, 4.000000, 4.000000
97.000000, 0.000000, 4205.641113, 4216.410156, 4186.666504, 4197.948730, 4191.794922, 4201.538574, 4198.974121, 4195.897461, 4201.025391, 4214.358887, 4215.897461, 4205.641113, 4238.461426, 4221.025391, 3462.000000, 8274.000000, 8123.000000, 0.000000, 0.000000, 0.000000, -20329.000000, 184.615387, 4.000000, 4.000000, 4.000000, 4.000000, 4.000000, 4.000000, 4.000000, 4.000000, 0.000000, 4.000000, 4.000000, 4.000000, 4.000000, 4.000000, 4.000000, 4.000000
98.000000, 0.000000, 4198.974121, 4216.410156, 4181.538574, 4200.000000, 4199.487305, 4209.743652, 4201.025391, 4196.922852, 4201.025391, 4215.897461, 4208.717773, 4197.436035, 4231.794922, 4214.358887, 3585.000000, 8274.000000, 8123.000000, 0.000000, 0.000000, 0.000000, -20329.000000, 192.307693, 4.000000, 4.000000, 4.000000, 4.000000, 4.000000, 4.000000, 4.000000, 4.000000, 0.000000, 4.000000, 4.000000, 4.000000, 4.000000, 4.000000, 4.000000, 4.000000
99.000000, 0.000000, 4195.897461, 4212.820313, 4183.076660, 4202.563965, 4199.487305, 4208.205078, 4202.563965, 4199.487305, 4202.563965, 4220.000000, 4208.205078, 4192.307617, 4232.307617, 4204.102539, 3560.000000, 8291.000000, 8099.000000, 0.000000, 0.000000, 0.000000, -20329.000000, 200.000000, 4.000000, 4.000000, 4.000000, 4.000000, 4.000000, 4.000000, 4.000000, 4.000000, 0.000000, 4.000000, 4.000000, 4.000000, 4.000000, 4.000000, 4.000000, 4.000000
100.000000, 0.000000, 4198.461426, 4208.717773, 4188.717773, 4199.487305, 4195.897461, 4204.102539, 4200.512695, 4209.230469, 4203.589844, 4219.487305, 4210.256348, 4192.820313, 4235.897461, 4198.974121, 3519.000000, 8291.000000, 8099.000000, 0.000000, 0.000000, 0.000000, -20329.000000, 207.692307, 4.000000, 4.000000, 4.000000, 4.000000, 4.000000, 4.000000, 4.000000, 4.000000, 0.000000, 4.000000, 4.000000, 4.000000, 4.000000, 4.000000, 4.000000, 4.000000
101.000000, 0.000000, 4209.743652, 4213.846191, 4197.436035, 4206.666504, 4199.487305, 4209.230469, 4201.025391, 4216.922852, 4202.563965, 4221.538574, 4215.384277, 4206.666504, 4246.153809, 4210.769043, 3462.000000, 8299.000000, 8077.000000, 0.000000, 0.000000, 0.000000, -20329.000000, 215.897430, 4.000000, 4.000000, 4.000000, 4.000000, 4.000000, 4.000000, 4.000000, 4.000000, 0.000000, 4.000000, 4.000000, 4.000000, 4.000000, 4.000000, 4.000000, 4.000000
102.000000, 0.000000, 4224.102539, 4220.512695, 4204.102539, 4217.436035, 4203.589844, 4208.717773, 4208.205078, 4217.948730, 4201.538574, 4223.589844, 4221.538574, 4217.436035, 4255.384277, 4227.692383, 3585.000000, 8299.000000, 8077.000000, 0.000000, 0.000000, 0.000000, -20329.000000, 223.589737, 4.000000, 4.000000, 4.000000, 4.000000, 4.000000, 4.000000, 4.000000, 4.000000, 0.000000, 4.000000, 4.000000, 4.000000, 4.000000, 4.000000, 4.000000, 4.000000
103.000000, 0.000000, 4221.538574, 4213.333008, 4204.102539, 4210.256348, 4197.436035, 4200.512695, 4214.358887, 4218.461426, 4201.538574, 4220.000000, 4218.974121, 4210.256348, 4251.281738, 4227.179199, 3560.000000, 8297.000000, 8063.000000, 0.000000, 0.000000, 0.000000, -20329.000000, 231.794861, 4.000000, 4.000000, 4.000000, 4.000000, 4.000000, 4.000000, 4.000000, 4.000000, 0.000000, 4.000000, 4.000000, 4.000000, 4.000000, 4.000000, 4.000000, 4.000000
104.000000, 0.000000, 4209.230469, 4200.000000, 4198.974121, 4197.948730, 4193.333008, 4198.974121, 4205.641113, 4210.769043, 4201.538574, 4220.512695, 4211.794922, 4196.410156, 4247.692383, 4213.846191, 3519.000000, 8297.000000, 8063.000000, 0.000000, 0.000000, 0.000000, -20329.000000, 240.000000, 4.000000, 4.000000, 4.000000, 4.000000, 4.000000, 4.000000, 4.000000, 4.000000, 0.000000, 4.000000, 4.000000, 4.000000, 4.000000, 4.000000, 4.000000, 4.000000
105.000000, 0.000000, 4197.948730, 4191.794922, 4188.205078, 4191.281738, 4189.743652, 4199.487305, 4195.384277, 4197.948730, 4202.051270, 4218.461426, 4203.589844, 4187.692383, 4237.436035, 4197.436035, 3462.000000, 8281.000000, 8044.000000, 0.000000, 0.000000, 0.000000, -20329.000000, 247.692307, 4.000000, 4.000000, 4.000000, 4.000000, 4.000000, 4.000000, 4.000000, 4.000000, 0.000000, 4.000000, 4.000000, 4.000000, 4.000000, 4.000000, 4.000000, 4.000000
106.000000, 0.000000, 4186.666504, 4184.615234, 4183.589844, 4186.666504, 4186.666504, 4202.051270, 4204.615234, 4203.589844, 4203.589844, 4210.769043, 4195.897461, 4181.538574, 4218.461426, 4183.589844, 3585.000000, 8281.000000, 8044.000000, 0.000000, 0.000000, 0.000000, -20329.000000, 255.897430, 4.000000, 4.000000, 4.000000, 4.000000, 4.000000, 4.000000, 4.000000, 4.000000, 0.000000, 4.000000, 4.000000, 4.000000, 4.000000, 4.000000, 4.000000, 4.000000
107.000000, 0.000000, 4188.717773, 4181.538574, 4192.820313, 4192.307617, 4192.307617, 4215.384277, 4221.025391, 4214.871582, 4202.563965, 4214.358887, 4197.436035, 4181.025391, 4225.641113, 4186.153809, 3560.000000, 8264.000000, 8035.000000, 0.000000, 0.000000, 0.000000, -20329.000000, 263.589752, 4.000000, 4.000000, 4.000000, 4.000000, 4.000000, 4.000000, 4.000000, 4.000000, 0.000000, 4.000000, 4.000000, 4.000000, 4.000000, 4.000000, 4.000000, 4.000000
108.000000, 0.000000, 4201.025391, 4185.127930, 4199.487305, 4199.487305, 4194.358887, 4219.487305, 4217.436035, 4204.615234, 4200.000000, 4216.922852, 4206.153809, 4186.153809, 4249.743652, 4201.025391, 3519.000000, 8264.000000, 8035.000000, 0.000000, 0.000000, 0.000000, -20329.000000, 271.794861, 4.000000, 4.000000, 4.000000, 4.000000, 4.000000, 4.000000, 4.000000, 4.000000, 0.000000, 4.000000, 4.000000, 4.000000, 4.000000, 4.000000, 4.000000, 4.000000
109.000000, 0.000000, 4203.589844, 4179.487305, 4190.769043, 4188.717773, 4179.487305, 4206.666504, 4201.025391, 4193.333008, 4201.538574, 4205.127930, 4211.281738, 4192.307617, 4252.820313, 4209.743652, 3462.000000, 8222.000000, 8027.000000, 0.000000, 0.000000, 0.000000, -20329.000000, 279.487183, 4.000000, 4.000000, 4.000000, 4.000000, 4.000000, 4.000000, 4.000000, 4.000000, 0.000000, 4.000000, 4.000000, 4.000000, 4.000000, 4.000000, 4.000000, 4.000000
110.000000, 0.000000, 4198.461426, 4170.256348, 4185.641113, 4180.512695, 4172.307617, 4196.922852, 4195.384277, 4196.922852, 4204.102539, 4198.461426, 4213.846191, 4199.487305, 4251.794922, 4212.820313, 3585.000000, 8222.000000, 8027.000000, 0.000000, 0.000000, 0.000000, -20329.000000, 287.692291, 4.000000, 4.000000, 4.000000, 4.000000, 4.000000, 4.000000, 4.000000, 4.000000, 0.000000, 4.000000, 4.000000, 4.000000, 4.000000, 4.000000, 4.000000, 4.000000
111.000000, 0.000000, 4202.051270, 4167.692383, 4193.333008, 4186.666504, 4188.205078, 4200.000000, 4199.487305, 4200.512695, 4202.051270, 4206.153809, 4217.948730, 4208.205078, 4264.102539, 4218.461426, 3560.000000, 8199.000000, 8023.000000, 0.000000, 0.000000, 0.000000, -20329.000000, 295.897430, 4.000000, 4.000000, 4.000000, 4.000000, 4.000000, 4.000000, 4.000000, 4.000000, 0.000000, 4.000000, 4.000000, 4.000000, 4.000000, 4.000000, 4.000000, 4.000000
112.000000, 0.000000, 4202.051270, 4162.051270, 4194.358887, 4186.153809, 4201.025391, 4210.256348, 4198.974121, 4197.948730, 4201.025391, 4213.846191, 4220.512695, 4207.692383, 4270.769043, 4219.487305, 3519.000000, 8199.000000, 8023.000000, 0.000000, 0.000000, 0.000000, -20329.000000, 303.589722, 4.000000, 4.000000, 4.000000, 4.000000, 4.000000, 4.000000, 4.000000, 4.000000, 0.000000, 4.000000, 4.000000, 4.000000, 4.000000, 4.000000, 4.000000, 4.000000
113.000000, 0.000000, 4192.307617, 4154.358887, 4187.179199, 4183.076660, 4202.563965, 4217.948730, 4196.922852, 4191.794922, 4202.563965, 4214.358887, 4217.436035, 4196.922852, 4274.871582, 4216.410156, 3462.000000, 8181.000000, 8027.000000, 0.000000, 0.000000, 0.000000, -20329.000000, 311.794861, 4.000000, 4.000000, 4.000000, 4.000000, 4.000000, 4.000000, 4.000000, 4.000000, 0.000000, 4.000000, 4.000000, 4.000000, 4.000000, 4.000000, 4.000000, 4.000000
114.000000, 0.000000, 4186.153809, 4149.743652, 4186.153809, 4181.538574, 4197.948730, 4215.384277, 4198.974121, 4181.025391, 4202.051270, 4206.666504, 4213.846191, 4185.127930, 4279.487305, 4210.256348, 3585.000000, 8181.000000, 8027.000000, 0.000000, 0.000000, 0.000000, -20329.000000, 319.487183, 4.000000, 4.000000, 4.000000, 4.000000, 4.000000, 4.000000, 4.000000, 4.000000, 0.000000, 4.000000, 4.000000, 4.000000, 4.000000, 4.000000, 4.000000, 4.000000
115.000000, 0.000000, 4183.076660, 4137.948730, 4187.179199, 4171.794922, 4189.230469, 4214.358887, 4203.589844, 4182.563965, 4200.512695, 4202.051270, 4212.820313, 4181.025391, 4278.974121, 4202.563965, 3560.000000, 8138.000000, 8023.000000, 0.000000, 0.000000, 0.000000, -20329.000000, 327.692291, 4.000000, 4.000000, 4.000000, 4.000000, 4.000000, 4.000000, 4.000000, 4.000000, 0.000000, 4.000000, 4.000000, 4.000000, 4.000000, 4.000000, 4.000000, 4.000000
116.000000, 0.000000, 4175.384277, 4124.615234, 4184.102539, 4165.641113, 4185.641113, 4226.153809, 4216.922852, 4200.512695, 4201.538574, 4210.256348, 4212.307617, 4183.076660, 4276.410156, 4201.025391, 3519.000000, 8138.000000, 8023.000000, 0.000000, 0.000000, 0.000000, -20329.000000, 335.384613, 4.000000, 4.000000, 4.000000, 4.000000, 4.000000, 4.000000, 4.000000, 4.000000, 0.000000, 4.000000, 4.000000, 4.000000, 4.000000, 4.000000, 4.000000, 4.000000
117.000000, 0.000000, 4167.179199, 4119.487305, 4178.461426, 4166.153809, 4184.102539, 4230.769043, 4233.846191, 4217.436035, 4201.538574, 4217.948730, 4209.743652, 4182.051270, 4268.717773, 4198.461426, 3462.000000, 8121.000000, 8021.000000, 0.000000, 0.000000, 0.000000, -20329.000000, 343.589722, 4.000000, 4.000000, 4.000000, 4.000000, 4.000000, 4.000000, 4.000000, 4.000000, 0.000000, 4.000000, 4.000000, 4.000000, 4.000000, 4.000000, 4.000000, 4.000000
118.000000, 0.000000, 4174.871582, 4123.589844, 4180.000000, 4167.179199, 4182.563965, 4219.487305, 4226.153809, 4221.025391, 4201.025391, 4218.974121, 4214.871582, 4185.127930, 4270.769043, 4204.102539, 3585.000000, 8121.000000, 8021.000000, 0.000000, 0.000000, 0.000000, -20329.000000, 351.282043, 4.000000, 4.000000, 4.000000, 4.000000, 4.000000, 4.000000, 4.000000, 4.000000, 0.000000, 4.000000, 4.000000, 4.000000, 4.000000, 4.000000, 4.000000, 4.000000
119.000000, 0.000000, 4195.384277, 4132.307617, 4184.615234, 4176.922852, 4190.256348, 4212.307617, 4201.538574, 4213.846191, 4201.025391, 4225.641113, 4227.692383, 4197.436035, 4291.281738, 4222.563965, 3560.000000, 8100.000000, 8016.000000, 0.000000, 0.000000, 0.000000, -20329.000000, 359.487183, 4.000000, 4.000000, 4.000000, 4.000000, 4.000000, 4.000000, 4.000000, 4.000000, 0.000000, 4.000000, 4.000000, 4.000000, 4.000000, 4.000000, 4.000000, 4.000000
120.000000, 0.000000, 4204.615234, 4136.922852, 4189.230469, 4188.717773, 4201.538574, 4215.384277, 4197.948730, 4206.153809, 4201.025391, 4228.717773, 4229.230469, 4203.076660, 4301.025391, 4232.307617, 3519.000000, 8100.000000, 8016.000000, 0.000000, 0.000000, 0.000000, -20329.000000, 367.692291, 4.000000, 4.000000, 4.000000, 4.000000, 4.000000, 4.000000, 4.000000, 4.000000, 0.000000, 4.000000, 4.000000, 4.000000, 4.000000, 4.000000, 4.000000, 4.000000
121.000000, 0.000000, 4203.589844, 4132.820313, 4193.333008, 4188.717773, 4202.051270, 4215.384277, 4206.666504, 4203.589844, 4201.538574, 4216.922852, 4218.461426, 4198.974121, 4293.846191, 4229.743652, 3462.000000, 8094.000000, 8015.000000, 0.000000, 0.000000, 0.000000, -20329.000000, 375.384613, 4.000000, 4.000000, 4.000000, 4.000000, 4.000000, 4.000000, 4.000000, 4.000000, 0.000000, 4.000000, 4.000000, 4.000000, 4.000000, 4.000000, 4.000000, 4.000000
122.000000, 0.000000, 4207.179199, 4126.153809, 4200.512695, 4186.153809, 4200.000000, 4213.846191, 4196.410156, 4201.538574, 4201.025391, 4197.948730, 4216.410156, 4206.153809, 4294.358887, 4230.256348, 3585.000000, 8094.000000, 8015.000000, 0.000000, 0.000000, 0.000000, -20329.000000, 383.589722, 4.000000, 4.000000, 4.000000, 4.000000, 4.000000, 4.000000, 4.000000, 4.000000, 0.000000, 4.000000, 4.000000, 4.000000, 4.000000, 4.000000, 4.000000, 4.000000
123.000000, 0.000000, 4210.769043, 4122.563965, 4206.153809, 4188.205078, 4198.974121, 4212.307617, 4184.615234, 4195.897461, 4201.025391, 4187.179199, 4224.102539, 4218.974121, 4297.436035, 4234.358887, 3560.000000, 8077.000000, 8019.000000, 0.000000, 0.000000, 0.000000, -20329.000000, 391.282043, 4.000000, 4.000000, 4.000000, 4.000000, 4.000000, 4.000000, 4.000000, 4.000000, 0.000000, 4.000000, 4.000000, 4.000000, 4.000000, 4.000000, 4.000000, 4.000000
124.000000, 0.000000, 4210.769043, 4120.512695, 4203.589844, 4186.153809, 4189.743652, 4206.666504, 4198.461426, 4202.051270, 4202.563965, 4197.436035, 4227.692383, 4219.487305, 4295.384277, 4234.871582, 3519.000000, 8077.000000, 8019.000000, 0.000000, 0.000000, 0.000000, -20329.000000, 399.487183, 4.000000, 4.000000, 4.000000, 4.000000, 4.000000, 4.000000, 4.000000, 4.000000, 0.000000, 4.000000, 4.000000, 4.000000, 4.000000, 4.000000, 4.000000, 4.000000
125.000000, 0.000000, 4216.410156, 4119.487305, 4203.589844, 4184.615234, 4184.615234, 4203.076660, 4208.205078, 4214.871582, 4203.589844, 4224.615234, 4230.769043, 4220.512695, 4296.922852, 4239.487305, 3462.000000, 8082.000000, 8016.000000, 0.000000, 0.000000, 0.000000, -20329.000000, 407.179474, 4.000000, 4.000000, 4.000000, 4.000000, 4.000000, 4.000000, 4.000000, 4.000000, 0.000000, 4.000000, 4.000000, 4.000000, 4.000000, 4.000000, 4.000000, 4.000000
126.000000, 0.000000, 4214.871582, 4119.487305, 4204.102539, 4184.615234, 4187.179199, 4198.974121, 4200.512695, 4212.820313, 4202.563965, 4244.615234, 4234.358887, 4219.487305, 4296.922852, 4237.436035, 3585.000000, 8082.000000, 8016.000000, 0.000000, 0.000000, 0.000000, -20329.000000, 415.384613, 4.000000, 4.000000, 4.000000, 4.000000, 4.000000, 4.000000, 4.000000, 4.000000, 0.000000, 4.000000, 4.000000, 4.000000, 4.000000, 4.000000, 4.000000, 4.000000
127.000000, 0.000000, 4200.512695, 4117.436035, 4197.436035, 4185.127930, 4186.666504, 4196.922852, 4203.589844, 4213.333008, 4201.538574, 4250.256348, 4232.307617, 4208.205078, 4296.410156, 4226.666504, 56.000000, 8077.000000, 8014.000000, 0.000000, 0.000000, 0.000000, -20329.000000, 423.076904, 4.000000, 4.000000, 4.000000, 4.000000, 4.000000, 4.000000, 4.000000, 4.000000, 0.000000, 4.000000, 4.000000, 4.000000, 4.000000, 4.000000, 4.000000, 4.000000
0.000000, 0.000000, 4187.692383, 4109.230469, 4187.692383, 4183.076660, 4187.179199, 4206.666504, 4221.538574, 4228.717773, 4202.051270, 4251.794922, 4225.127930, 4199.487305, 4296.922852, 4212.820313, 3189.000000, 8077.000000, 8014.000000, 0.000000, 0.000000, 0.000000, -20329.000000, 431.282043, 4.000000, 4.000000, 4.000000, 4.000000, 4.000000, 4.000000, 4.000000, 4.000000, 0.000000, 4.000000, 4.000000, 4.000000, 4.000000, 4.000000, 4.000000, 4.000000
1.000000, 0.000000, 4175.384277, 4102.051270, 4177.436035, 4174.358887, 4188.717773, 4219.487305, 4224.615234, 4230.256348, 4202.051270, 4247.692383, 4214.358887, 4191.281738, 4284.615234, 4199.487305, 3543.000000, 8066.000000, 8004.000000, 0.000000, 0.000000, 0.000000, -20329.000000, 438.974335, 4.000000, 4.000000, 4.000000, 4.000000, 4.000000, 4.000000, 4.000000, 4.000000, 0.000000, 4.000000, 4.000000, 4.000000, 4.000000, 4.000000, 4.000000, 4.000000
2.000000, 0.000000, 4165.641113, 4104.102539, 4175.897461, 4166.666504, 4186.666504, 4214.358887, 4213.846191, 4208.205078, 4202.563965, 4234.871582, 4203.076660, 4182.563965, 4262.051270, 4194.871582, 3563.000000, 8066.000000, 8004.000000, 0.000000, 0.000000, 0.000000, -20329.000000, 447.179474, 4.000000, 4.000000, 4.000000, 4.000000, 4.000000, 4.000000, 4.000000, 4.000000, 0.000000, 4.000000, 4.000000, 4.000000, 4.000000, 4.000000, 4.000000, 4.000000
3.000000, 0.000000, 4167.179199, 4107.692383, 4181.538574, 4170.769043, 4185.641113, 4202.563965, 4211.794922, 4194.358887, 4202.051270, 4222.563965, 4200.000000, 4183.076660, 4248.205078, 4200.000000, 2430.000000, 8059.000000, 7998.000000, 0.000000, 0.000000, 0.000000, -20329.000000, 454.871796, 4.000000, 4.000000, 4.000000, 4.000000, 4.000000, 4.000000, 4.000000, 4.000000, 0.000000, 4.000000, 4.000000, 4.000000, 4.000000, 4.000000, 4.000000, 4.000000
4.000000, 0.000000, 4170.256348, 4111.794922, 4183.589844, 4174.871582, 4187.692383, 4200.512695, 4212.307617, 4198.461426, 4201.025391, 4214.358887, 4201.538574, 4187.179199, 4232.307617, 4198.974121, 3559.000000, 8059.000000, 7998.000000, 0.000000, 0.000000, 0.000000, -20329.000000, 463.076904, 4.000000, 4.000000, 4.000000, 4.000000, 4.000000, 4.000000, 4.000000, 4.000000, 0.000000, 4.000000, 4.000000, 4.000000, 4.000000, 4.000000, 4.000000, 4.000000
5.000000, 0.000000, 4166.666504, 4118.461426, 4183.076660, 4171.794922, 4184.615234, 4203.076660, 4213.333008, 4205.641113, 4200.512695, 4206.153809, 4192.307617, 4184.615234, 4205.127930, 4188.205078, 3580.000000, 8052.000000, 7989.000000, 0.000000, 0.000000, 0.000000, -20329.000000, 471.282043, 4.000000, 4.000000, 4.000000, 4.000000, 4.000000, 4.000000, 4.000000, 4.000000, 0.000000, 4.000000, 4.000000, 4.000000, 4.000000, 4.000000, 4.000000, 4.000000
6.000000, 0.000000, 4170.256348, 4127.179199, 4184.102539, 4179.487305, 4181.025391, 4200.000000, 4212.820313, 4202.051270, 4202.051270, 4200.000000, 4185.641113, 4186.153809, 4192.307617, 4189.743652, 3448.000000, 8052.000000, 7989.000000, 0.000000, 0.000000, 0.000000, -20329.000000, 478.974335, 4.000000, 4.000000, 4.000000, 4.000000, 4.000000, 4.000000, 4.000000, 4.000000, 0.000000, 4.000000, 4.000000, 4.000000, 4.000000, 4.000000, 4.000000, 4.000000
7.000000, 0.000000, 4181.025391, 4135.384277, 4186.153809, 4188.717773, 4184.102539, 4198.461426, 4204.615234, 4195.897461, 4204.102539, 4200.000000, 4193.846191, 4187.692383, 4192.307617, 4200.512695, 3503.000000, 8052.000000, 7973.000000, 0.000000, 0.000000, 0.000000, -20329.000000, 487.179474, 4.000000, 4.000000, 4.000000, 4.000000, 4.000000, 4.000000, 4.000000, 4.000000, 0.000000, 4.000000, 4.000000, 4.000000, 4.000000, 4.000000, 4.000000, 4.000000
8.000000, 0.000000, 4181.025391, 4138.461426, 4189.743652, 4185.127930, 4185.127930, 4203.076660, 4202.051270, 4207.179199, 4203.589844, 4198.461426, 4196.922852, 4183.076660, 4183.076660, 4197.948730, 0.000000, 8052.000000, 7973.000000, 0.000000, 0.000000, 0.000000, -20329.000000, 494.871796, 4.000000, 4.000000, 4.000000, 4.000000, 4.000000, 4.000000, 4.000000, 4.000000, 0.000000, 4.000000, 4.000000, 4.000000, 4.000000, 4.000000, 4.000000, 4.000000
9.000000, 0.000000, 4184.615234, 4144.102539, 4198.974121, 4186.666504, 4187.179199, 4205.127930, 4201.538574, 4212.307617, 4202.563965, 4201.538574, 4191.794922, 4188.717773, 4184.615234, 4198.974121, 3037.000000, 8057.000000, 7934.000000, 0.000000, 0.000000, 0.000000, -20329.000000, 503.076904, 4.000000, 4.000000, 4.000000, 4.000000, 4.000000, 4.000000, 4.000000, 4.000000, 0.000000, 4.000000, 4.000000, 4.000000, 4.000000, 4.000000, 4.000000, 4.000000
10.000000, 0.000000, 4200.512695, 4159.487305, 4208.717773, 4202.051270, 4196.410156, 4202.051270, 4192.820313, 4195.384277, 4202.563965, 4210.769043, 4200.000000, 4200.512695, 4206.153809, 4218.461426, 3584.000000, 8057.000000, 7934.000000, 0.000000, 0.000000, 0.000000, -20329.000000, 510.769226, 4.000000, 4.000000, 4.000000, 4.000000, 4.000000, 4.000000, 4.000000, 4.000000, 0.000000, 4.000000, 4.000000, 4.000000, 4.000000, 4.000000, 4.000000, 4.000000
11.000000, 0.000000, 4209.230469, 4170.256348, 4213.333008, 4208.717773, 4203.076660, 4201.025391, 4189.230469, 4186.153809, 4203.076660, 4216.922852, 4212.307617, 4203.589844, 4220.000000, 4232.820313, 3560.000000, 8089.000000, 7845.000000, 0.000000, 0.000000, 0.000000, -20329.000000, 518.974365, 4.000000, 4.000000, 4.000000, 4.000000, 4.000000, 4.000000, 4.000000, 4.000000, 0.000000, 4.000000, 4.000000, 4.000000, 4.000000, 4.000000, 4.000000, 4.000000
12.000000, 0.000000, 4209.230469, 4168.717773, 4215.897461, 4203.076660, 4200.512695, 4203.076660, 4200.512695, 4205.127930, 4202.563965, 4222.563965, 4212.820313, 4205.127930, 4228.717773, 4229.743652, 3518.000000, 8089.000000, 7845.000000, 0.000000, 0.000000, 0.000000, -20329.000000, 526.666626, 4.000000, 4.000000, 4.000000, 4.000000, 4.000000, 4.000000, 4.000000, 4.000000, 0.000000, 4.000000, 4.000000, 4.000000, 4.000000, 4.000000, 4.000000, 4.000000
13.000000, 0.000000, 4215.384277, 4173.846191, 4216.922852, 4203.589844, 4198.974121, 4203.076660, 4205.127930, 4222.051270, 4202.563965, 4232.820313, 4218.974121, 4213.846191, 4247.692383, 4230.256348, 3462.000000, 8101.000000, 7833.000000, 0.000000, 0.000000, 0.000000, -20329.000000, 534.871765, 4.000000, 4.000000, 4.000000, 4.000000, 4.000000, 4.000000, 4.000000, 4.000000, 0.000000, 4.000000, 4.000000, 4.000000, 4.000000, 4.000000, 4.000000, 4.000000
14.000000, 0.000000, 4221.538574, 4181.538574, 4217.948730, 4212.307617, 4209.743652, 4205.127930, 4202.563965, 4220.000000, 4203.076660, 4235.384277, 4232.820313, 4221.025391, 4259.487305, 4238.461426, 3584.000000, 8101.000000, 7833.000000, 0.000000, 0.000000, 0.000000, -20329.000000, 543.076904, 4.000000, 4.000000, 4.000000, 4.000000, 4.000000, 4.000000, 4.000000, 4.000000, 0.000000, 4.000000, 4.000000, 4.000000, 4.000000, 4.000000, 4.000000, 4.000000
15.000000, 0.000000, 4219.487305, 4182.051270, 4218.461426, 4214.871582, 4214.871582, 4212.820313, 4210.256348, 4217.436035, 4202.563965, 4225.641113, 4228.205078, 4219.487305, 4252.820313, 4239.487305, 3560.000000, 8122.000000, 7868.000000, 0.000000, 0.000000, 0.000000, -20329.000000, 550.769226, 4.000000, 4.000000, 4.000000, 4.000000, 4.000000, 4.000000, 4.000000, 4.000000, 0.000000, 4.000000, 4.000000, 4.000000, 4.000000, 4.000000, 4.000000, 4.000000
16.000000, 0.000000, 4214.871582, 4176.922852, 4214.358887, 4206.153809, 4205.641113, 4215.384277, 4216.410156, 4217.436035, 4202.051270, 4215.897461, 4206.153809, 4211.794922, 4236.410156, 4229.743652, 0.000000, 8122.000000, 7868.000000, 0.000000, 0.000000, 0.000000, -20329.000000, 558.974365, 4.000000, 4.000000, 4.000000, 4.000000, 4.000000, 4.000000, 4.000000, 4.000000, 0.000000, 4.000000, 4.000000, 4.000000, 4.000000, 4.000000, 4.000000, 4.000000
17.000000, 0.000000, 4213.846191, 4172.820313, 4207.179199, 4200.000000, 4201.538574, 4211.281738, 4216.922852, 4218.461426, 4203.076660, 4215.384277, 4197.948730, 4207.692383, 4229.230469, 4225.127930, 0.000000, 8132.000000, 7885.000000, 0.000000, 0.000000, 0.000000, -20329.000000, 566.666626, 4.000000, 4.000000, 4.000000, 4.000000, 4.000000, 4.000000, 4.000000, 4.000000, 0.000000, 4.000000, 4.000000, 4.000000, 4.000000, 4.000000, 4.000000, 4.000000
18.000000, 0.000000, 4215.384277, 4175.384277, 4203.589844, 4203.589844, 4204.102539, 4208.205078, 4214.871582, 4216.922852, 4204.102539, 4217.948730, 4206.666504, 4213.333008, 4235.384277, 4228.205078, 0.000000, 8132.000000, 7885.000000, 0.000000, 0.000000, 0.000000, -20329.000000, 574.871765, 4.000000, 4.000000, 4.000000, 4.000000, 4.000000, 4.000000, 4.000000, 4.000000, 0.000000, 4.000000, 4.000000, 4.000000, 4.000000, 4.000000, 4.000000, 4.000000
19.000000, 0.000000, 4203.076660, 4171.281738, 4200.512695, 4200.512695, 4202.563965, 4206.153809, 4208.717773, 4209.743652, 4203.076660, 4215.897461, 4198.461426, 4210.256348, 4225.127930, 4217.948730, 0.000000, 8139.000000, 7897.000000, 0.000000, 0.000000, 0.000000, -20329.000000, 582.564087, 4.000000, 4.000000, 4.000000, 4.000000, 4.000000, 4.000000, 4.000000, 4.000000, 0.000000, 4.000000, 4.000000, 4.000000, 4.000000, 4.000000, 4.000000, 4.000000
20.000000, 0.000000, 4184.615234, 4158.461426, 4190.256348, 4186.153809, 4199.487305, 4201.538574, 4198.974121, 4196.922852, 4202.563965, 4212.820313, 4182.563965, 4193.846191, 4208.205078, 4198.461426, 0.000000, 8139.000000, 7897.000000, 0.000000, 0.000000, 0.000000, -20329.000000, 590.769226, 4.000000, 4.000000, 4.000000, 4.000000, 4.000000, 4.000000, 4.000000, 4.000000, 0.000000, 4.000000, 4.000000, 4.000000, 4.000000, 4.000000, 4.000000, 4.000000
21.000000, 0.000000, 4182.563965, 4156.410156, 4181.538574, 4180.000000, 4199.487305, 4194.871582, 4193.333008, 4193.846191, 4203.076660, 4221.538574, 4188.205078, 4187.179199, 4224.615234, 4195.384277, 0.000000, 8141.000000, 7928.000000, 0.000000, 0.000000, 0.000000, -20329.000000, 598.974365, 4.000000, 4.000000, 4.000000, 4.000000, 4.000000, 4.000000, 4.000000, 4.000000, 0.000000, 4.000000, 4.000000, 4.000000, 4.000000, 4.000000, 4.000000, 4.000000
22.000000, 0.000000, 4188.205078, 4168.205078, 4188.717773, 4190.256348, 4198.974121, 4198.461426, 4207.692383, 4211.281738, 4203.076660, 4237.948730, 4207.179199, 4196.922852, 4255.384277, 4206.666504, 0.000000, 8141.000000, 7928.000000, 0.000000, 0.000000, 0.000000, -20329.000000, 606.666626, 4.000000, 4.000000, 4.000000, 4.000000, 4.000000, 4.000000, 4.000000, 4.000000, 0.000000, 4.000000, 4.000000, 4.000000, 4.000000, 4.000000, 4.000000, 4.000000
23.000000, 0.000000, 4194.358887, 4177.948730, 4204.102539, 4202.563965, 4204.102539, 4209.743652, 4218.461426, 4225.641113, 4202.051270, 4252.307617, 4221.025391, 4210.256348, 4272.820313, 4219.487305, 0.000000, 8131.000000, 7936.000000, 0.000000, 0.000000, 0.000000, -20329.000000, 614.871765, 4.000000, 4.000000, 4.000000, 4.000000, 4.000000, 4.000000, 4.000000, 4.000000, 0.000000, 4.000000, 4.000000, 4.000000, 4.000000, 4.000000, 4.000000, 4.000000
24.000000, 0.000000, 4202.563965, 4182.051270, 4207.692383, 4202.563965, 4208.205078, 4211.794922, 4206.153809, 4226.666504, 4202.563965, 4265.641113, 4232.307617, 4217.948730, 4289.230469, 4234.871582, 0.000000, 8131.000000, 7936.000000, 0.000000, 0.000000, 0.000000, -20329.000000, 622.564087, 4.000000, 4.000000, 4.000000, 4.000000, 4.000000, 4.000000, 4.000000, 4.000000, 0.000000, 4.000000, 4.000000, 4.000000, 4.000000, 4.000000, 4.000000, 4.000000
25.000000, 0.000000, 4202.563965, 4185.127930, 4203.076660, 4197.436035, 4203.589844, 4209.743652, 4201.025391, 4229.230469, 4203.076660, 4271.794922, 4236.922852, 4219.487305, 4304.102539, 4243.076660, 0.000000, 8116.000000, 7956.000000, 0.000000, 0.000000, 0.000000, -20329.000000, 630.769226, 4.000000, 4.000000, 4.000000, 4.000000, 4.000000, 4.000000, 4.000000, 4.000000, 0.000000, 4.000000, 4.000000, 4.000000, 4.000000, 4.000000, 4.000000, 4.000000
26.000000, 0.000000, 4200.000000, 4183.076660, 4206.153809, 4200.000000, 4201.025391, 4214.871582, 4214.358887, 4230.769043, 4203.076660, 4270.256348, 4235.384277, 4219.487305, 4300.512695, 4236.922852, 0.000000, 8116.000000, 7956.000000, 0.000000, 0.000000, 0.000000, -20329.000000, 638.461548, 4.000000, 4.000000, 4.000000, 4.000000, 4.000000, 4.000000, 4.000000, 4.000000, 0.000000, 4.000000, 4.000000, 4.000000, 4.000000, 4.000000, 4.000000, 4.000000
27.000000, 0.000000, 4200.512695, 4182.563965, 4209.230469, 4200.000000, 4202.563965, 4215.897461, 4214.871582, 4218.461426, 4202.051270, 4263.589844, 4229.743652, 4213.846191, 4285.127930, 4229.230469, 0.000000, 8107.000000, 7974.000000, 0.000000, 0.000000, 0.000000, -20329.000000, 646.666626, 4.000000, 4.000000, 4.000000, 4.000000, 4.000000, 4.000000, 4.000000, 4.000000, 0.000000, 4.000000, 4.000000, 4.000000, 4.000000, 4.000000, 4.000000, 4.000000
28.000000, 0.000000, 4193.333008, 4183.589844, 4203.076660, 4193.846191, 4202.563965, 4211.794922, 4200.512695, 4212.820313, 4201.025391, 4254.358887, 4220.000000, 4204.102539, 4279.487305, 4227.179199, 0.000000, 8107.000000, 7974.000000, 0.000000, 0.000000, 0.000000, -20329.000000, 654.358948, 4.000000, 4.000000, 4.000000, 4.000000, 4.000000, 4.000000, 4.000000, 4.000000, 0.000000, 4.000000, 4.000000, 4.000000, 4.000000, 4.000000, 4.000000, 4.000000
29.000000, 0.000000, 4188.717773, 4182.051270, 4199.487305, 4195.897461, 4202.051270, 4215.384277, 4200.000000, 4218.974121, 4201.025391, 4249.230469, 4220.512695, 4204.615234, 4287.179199, 4227.692383, 0.000000, 8106.000000, 8004.000000, 0.000000, 0.000000, 0.000000, -20329.000000, 662.564087, 4.000000, 4.000000, 4.000000, 4.000000, 4.000000, 4.000000, 4.000000, 4.000000, 0.000000, 4.000000, 4.000000, 4.000000, 4.000000, 4.000000, 4.000000, 4.000000
30.000000, 0.000000, 4198.974121, 4182.563965, 4204.615234, 4200.512695, 4203.076660, 4214.358887, 4207.692383, 4218.974121, 4201.025391, 4248.205078, 4228.205078, 4213.333008, 4290.769043, 4227.692383, 0.000000, 8106.000000, 8004.000000, 0.000000, 0.000000, 0.000000, -20329.000000, 670.256409, 4.000000, 4.000000, 4.000000, 4.000000, 4.000000, 4.000000, 4.000000, 4.000000, 0.000000, 4.000000, 4.000000, 4.000000, 4.000000, 4.000000, 4.000000, 4.000000
31.000000, 0.000000, 4198.461426, 4182.051270, 4205.641113, 4192.820313, 4201.538574, 4208.717773, 4211.794922, 4223.076660, 4201.538574, 4248.717773, 4227.179199, 4217.436035, 4287.179199, 4228.717773, 0.000000, 8105.000000, 8013.000000, 0.000000, 0.000000, 0.000000, -20329.000000, 678.461548, 4.000000, 4.000000, 4.000000, 4.000000, 4.000000, 4.000000, 4.000000, 4.000000, 0.000000, 4.000000, 4.000000, 4.000000, 4.000000, 4.000000, 4.000000, 4.000000
32.000000, 0.000000, 4189.230469, 4181.538574, 4197.436035, 4185.127930, 4200.512695, 4212.307617, 4214.358887, 4224.615234, 4202.563965, 4256.410156, 4227.179199, 4217.436035, 4294.358887, 4230.769043, 0.000000, 8105.000000, 8013.000000, 0.000000, 0.000000, 0.000000, -20329.000000, 686.666626, 4.000000, 4.000000, 4.000000, 4.000000, 4.000000, 4.000000, 4.000000, 4.000000, 0.000000, 4.000000, 4.000000, 4.000000, 4.000000, 4.000000, 4.000000, 4.000000
33.000000, 0.000000, 4192.820313, 4181.025391, 4191.794922, 4185.641113, 4202.051270, 4211.281738, 4210.769043, 4216.410156, 4204.102539, 4267.179199, 4229.743652, 4216.922852, 4305.127930, 4230.256348, 0.000000, 8113.000000, 8021.000000, 0.000000, 0.000000, 0.000000, -20329.000000, 694.358948, 4.000000, 4.000000, 4.000000, 4.000000, 4.000000, 4.000000, 4.000000, 4.000000, 0.000000, 4.000000, 4.000000, 4.000000, 4.000000, 4.000000, 4.000000, 4.000000
34.000000, 0.000000, 4194.358887, 4182.563965, 4195.897461, 4184.615234, 4203.076660, 4205.127930, 4209.230469, 4224.102539, 4205.127930, 4273.846191, 4231.794922, 4217.948730, 4307.692383, 4230.256348, 0.000000, 8113.000000, 8021.000000, 0.000000, 0.000000, 0.000000, -20329.000000, 702.564087, 4.000000, 4.000000, 4.000000, 4.000000, 4.000000, 4.000000, 4.000000, 4.000000, 0.000000, 4.000000, 4.000000, 4.000000, 4.000000, 4.000000, 4.000000, 4.000000
35.000000, 0.000000, 4187.179199, 4182.563965, 4202.563965, 4181.025391, 4200.000000, 4203.589844, 4214.358887, 4238.974121, 4203.076660, 4276.922852, 4239.487305, 4225.641113, 4310.256348, 4232.820313, 0.000000, 8126.000000, 8049.000000, 0.000000, 0.000000, 0.000000, -20329.000000, 710.256409, 4.000000, 4.000000, 4.000000, 4.000000, 4.000000, 4.000000, 4.000000, 4.000000, 0.000000, 4.000000, 4.000000, 4.000000, 4.000000, 4.000000, 4.000000, 4.000000
36.000000, 0.000000, 4190.769043, 4184.615234, 4202.563965, 4183.589844, 4199.487305, 4206.153809, 4215.897461, 4229.230469, 4203.589844, 4275.897461, 4241.538574, 4228.717773, 4309.230469, 4234.871582, 0.000000, 8126.000000, 8049.000000, 0.000000, 0.000000, 0.000000, -20329.000000, 718.461548, 4.000000, 4.000000, 4.000000, 4.000000, 4.000000, 4.000000, 4.000000, 4.000000, 0.000000, 4.000000, 4.000000, 4.000000, 4.000000, 4.000000, 4.000000, 4.000000
37.000000, 0.000000, 4201.538574, 4192.307617, 4203.589844, 4190.256348, 4208.717773, 4210.769043, 4213.333008, 4221.025391, 4209.230469, 4274.358887, 4233.333008, 4221.025391, 4301.025391, 4234.871582, 0.000000, 8132.000000, 8063.000000, 0.000000, 0.000000, 0.000000, -20329.000000, 726.153809, 4.000000, 4.000000, 4.000000, 4.000000, 4.000000, 4.000000, 4.000000, 4.000000, 0.000000, 4.000000, 4.000000, 4.000000, 4.000000, 4.000000, 4.000000, 4.000000
38.000000, 0.000000, 4201.538574, 4195.897461, 4204.615234, 4190.769043, 4214.358887, 4215.384277, 4213.846191, 4233.846191, 4208.717773, 4275.384277, 4230.769043, 4217.436035, 4293.846191, 4231.281738, 0.000000, 8132.000000, 8063.000000, 0.000000, 0.000000, 0.000000, -20329.000000, 734.358948, 4.000000, 4.000000, 4.000000, 4.000000, 4.000000, 4.000000, 4.000000, 4.000000, 0.000000, 4.000000, 4.000000, 4.000000, 4.000000, 4.000000, 4.000000, 4.000000
39.000000, 0.000000, 4198.974121, 4188.717773, 4197.948730, 4185.127930, 4206.666504, 4216.410156, 4218.974121, 4234.871582, 4202.563965, 4269.743652, 4229.230469, 4215.897461, 4289.743652, 4223.076660, 0.000000, 8152.000000, 8082.000000, 0.000000, 0.000000, 0.000000, -20329.000000, 742.051270, 4.000000, 4.000000, 4.000000, 4.000000, 4.000000, 4.000000, 4.000000, 4.000000, 0.000000, 4.000000, 4.000000, 4.000000, 4.000000, 4.000000, 4.000000, 4.000000
40.000000, 0.000000, 4197.436035, 4186.153809, 4192.307617, 4183.076660, 4201.025391, 4215.897461, 4222.563965, 4228.717773, 4202.051270, 4265.127930, 4227.179199, 4212.307617, 4289.743652, 4215.897461, 0.000000, 8152.000000, 8082.000000, 0.000000, 0.000000, 0.000000, -20329.000000, 750.256409, 4.000000, 4.000000, 4.000000, 4.000000, 4.000000, 4.000000, 4.000000, 4.000000, 0.000000, 4.000000, 4.000000, 4.000000, 4.000000, 4.000000, 4.000000, 4.000000
41.000000, 0.000000, 4191.794922, 4191.794922, 4195.384277, 4185.127930, 4205.127930, 4216.410156, 4222.563965, 4235.384277, 4204.615234, 4268.717773, 4229.743652, 4213.333008, 4294.871582, 4216.922852, 0.000000, 8156.000000, 8094.000000, 0.000000, 0.000000, 0.000000, -20329.000000, 758.461548, 4.000000, 4.000000, 4.000000, 4.000000, 4.000000, 4.000000, 4.000000, 4.000000, 0.000000, 4.000000, 4.000000, 4.000000, 4.000000, 4.000000, 4.000000, 4.000000
42.000000, 0.000000, 4189.743652, 4192.307617, 4196.922852, 4185.641113, 4202.051270, 4214.871582, 4221.538574, 4237.948730, 4203.589844, 4269.230469, 4230.769043, 4214.358887, 4296.410156, 4221.538574, 0.000000, 8156.000000, 8094.000000, 0.000000, 0.000000, 0.000000, -20329.000000, 766.153809, 4.000000, 4.000000, 4.000000, 4.000000, 4.000000, 4.000000, 4.000000, 4.000000, 0.000000, 4.000000, 4.000000, 4.000000, 4.000000, 4.000000, 4.000000, 4.000000
43.000000, 0.000000, 4202.051270, 4193.333008, 4202.563965, 4194.358887, 4200.512695, 4217.436035, 4227.179199, 4230.256348, 4203.589844, 4265.127930, 4230.769043, 4216.922852, 4293.846191, 4230.769043, 0.000000, 8161.000000, 8109.000000, 0.000000, 0.000000, 0.000000, -20329.000000, 774.358948, 4.000000, 4.000000, 4.000000, 4.000000, 4.000000, 4.000000, 4.000000, 4.000000, 0.000000, 4.000000, 4.000000, 4.000000, 4.000000, 4.000000, 4.000000, 4.000000
44.000000, 0.000000, 4212.820313, 4201.538574, 4211.794922, 4205.641113, 4209.743652, 4217.948730, 4227.179199, 4229.230469, 4204.102539, 4265.641113, 4232.820313, 4226.666504, 4296.410156, 4236.922852, 0.000000, 8161.000000, 8109.000000, 0.000000, 0.000000, 0.000000, -20329.000000, 782.051270, 4.000000, 4.000000, 4.000000, 4.000000, 4.000000, 4.000000, 4.000000, 4.000000, 0.000000, 4.000000, 4.000000, 4.000000, 4.000000, 4.000000, 4.000000, 4.000000
45.000000, 0.000000, 4206.666504, 4198.461426, 4209.230469, 4199.487305, 4209.230469, 4208.205078, 4217.436035, 4231.794922, 4202.563965, 4267.692383, 4230.769043, 4226.666504, 4292.307617, 4226.153809, 0.000000, 8165.000000, 8125.000000, 0.000000, 0.000000, 0.000000, -20329.000000, 790.256409, 4.000000, 4.000000, 4.000000, 4.000000, 4.000000, 4.000000, 4.000000, 4.000000, 0.000000, 4.000000, 4.000000, 4.000000, 4.000000, 4.000000, 4.000000, 4.000000
46.000000, 0.000000, 4197.948730, 4187.692383, 4201.025391, 4193.333008, 4201.025391, 4202.563965, 4213.333008, 4227.179199, 4203.076660, 4267.692383, 4227.692383, 4213.846191, 4283.589844, 4213.846191, 0.000000, 8165.000000, 8125.000000, 0.000000, 0.000000, 0.000000, -20329.000000, 797.948669, 4.000000, 4.000000, 4.000000, 4.000000, 4.000000, 4.000000, 4.000000, 4.000000, 0.000000, 4.000000, 4.000000, 4.000000, 4.000000, 4.000000, 4.000000, 4.000000
47.000000, 0.000000, 4194.871582, 4185.127930, 4198.461426, 4198.974121, 4204.102539, 4204.102539, 4212.307617, 4220.000000, 4203.076660, 4266.153809, 4227.692383, 4207.692383, 4281.025391, 4212.307617, 0.000000, 8164.000000, 8138.000000, 0.000000, 0.000000, 0.000000, -20329.000000, 806.153809, 4.000000, 4.000000, 4.000000, 4.000000, 4.000000, 4.000000, 4.000000, 4.000000, 0.000000, 4.000000, 4.000000, 4.000000, 4.000000, 4.000000, 4.000000, 4.000000
48.000000, 0.000000, 4190.256348, 4189.230469, 4197.436035, 4198.974121, 4206.666504, 4206.153809, 4205.127930, 4216.410156, 4203.076660, 4264.615234, 4228.205078, 4211.794922, 4284.102539, 4213.846191, 0.000000, 8164.000000, 8138.000000, 0.000000, 0.000000, 0.000000, -20329.000000, 814.358948, 4.000000, 4.000000, 4.000000, 4.000000, 4.000000, 4.000000, 4.000000, 4.000000, 0.000000, 4.000000, 4.000000, 4.000000, 4.000000, 4.000000, 4.000000, 4.000000
49.000000, 1.000000, 4191.794922, 4187.179199, 4199.487305, 4198.461426, 4206.153809, 4206.153809, 4206.666504, 4217.436035, 4203.076660, 4266.153809, 4228.717773, 4214.871582, 4285.641113, 4215.384277, 0.000000, 8165.000000, 8143.000000, 0.000000, 0.000000, 0.000000, -20329.000000, 822.051270, 4.000000, 4.000000, 4.000000, 4.000000, 4.000000, 4.000000, 4.000000, 4.000000, 0.000000, 4.000000, 4.000000, 4.000000, 4.000000, 4.000000, 4.000000, 4.000000
50.000000, 1.000000, 4193.333008, 4184.615234, 4201.538574, 4198.461426, 4205.127930, 4205.641113, 4208.205078, 4218.974121, 4203.076660, 4267.179199, 4229.743652, 4217.948730, 4287.179199, 4216.922852, 0.000000, 8166.000000, 8148.000000, 0.000000, 0.000000, 0.000000, -20329.000000, 829.743591, 4.000000, 4.000000, 4.000000, 4.000000, 4.000000, 4.000000, 4.000000, 4.000000, 0.000000, 4.000000, 4.000000, 4.000000, 4.000000, 4.000000, 4.000000, 4.000000
51.000000, 1.000000, 4194.871582, 4182.563965, 4203.589844, 4198.461426, 4204.615234, 4205.641113, 4209.743652, 4220.000000, 4203.076660, 4268.717773, 4230.256348, 4221.025391, 4288.717773, 4217.948730, 0.000000, 8167.000000, 8153.000000, 0.000000, 0.000000, 0.000000, -20329.000000, 837.948669, 4.000000, 4.000000, 4.000000, 4.000000, 4.000000, 4.000000, 4.000000, 4.000000, 0.000000, 4.000000, 4.000000, 4.000000, 4.000000, 4.000000, 4.000000, 4.000000
52.000000, 1.000000, 4196.922852, 4180.512695, 4205.641113, 4198.461426, 4204.102539, 4205.641113, 4211.281738, 4221.538574, 4203.076660, 4269.743652, 4231.281738, 4223.589844, 4290.256348, 4219.487305, 0.000000, 8168.000000, 8158.000000, 0.000000, 0.000000, 0.000000, -20329.000000, 845.640991, 4.000000, 4.000000, 4.000000, 4.000000, 4.000000, 4.000000, 4.000000, 4.000000, 0.000000, 4.000000, 4.000000, 4.000000, 4.000000, 4.000000, 4.000000, 4.000000
53.000000, 1.000000, 4198.461426, 4178.461426, 4207.692383, 4197.948730, 4203.589844, 4205.641113, 4212.820313, 4222.563965, 4203.076660, 4271.281738, 4231.794922, 4226.666504, 4291.794922, 4221.025391, 0.000000, 8169.000000, 8163.000000, 0.000000, 0.000000, 0.000000, -20329.000000, 853.333313, 4.000000, 4.000000, 4.000000, 4.000000, 4.000000, 4.000000, 4.000000, 4.000000, 0.000000, 4.000000, 4.000000, 4.000000, 4.000000, 4.000000, 4.000000, 4.000000
54.000000, 1.000000, 4200.000000, 4175.897461, 4209.743652, 4197.948730, 4202.563965, 4205.127930, 4214.358887, 4224.102539, 4203.076660, 4272.307617, 4232.820313, 4229.743652, 4293.333008, 4222.563965, 0.000000, 8170.000000, 8168.000000, 0.000000, 0.000000, 0.000000, -20329.000000, 861.538452, 4.000000, 4.000000, 4.000000, 4.000000, 4.000000, 4.000000, 4.000000, 4.000000, 0.000000, 4.000000, 4.000000, 4.000000, 4.000000, 4.000000, 4.000000, 4.000000
55.000000, 0.000000, 4202.051270, 4173.333008, 4211.794922, 4197.436035, 4201.538574, 4204.615234, 4215.897461, 4225.641113, 4203.076660, 4274.358887, 4234.358887, 4232.820313, 4294.871582, 4224.102539, 0.000000, 8175.000000, 8173.000000, 0.000000, 0.000000, 0.000000, -20329.000000, 869.230774, 4.000000, 4.000000, 4.000000, 4.000000, 4.000000, 4.000000, 4.000000, 4.000000, 0.000000, 4.000000, 4.000000, 4.000000, 4.000000, 4.000000, 4.000000, 4.000000
56.000000, 0.000000, 4201.538574, 4186.153809, 4205.127930, 4200.000000, 4202.051270, 4201.025391, 4211.794922, 4215.384277, 4202.563965, 4263.589844, 4231.794922, 4221.538574, 4294.358887, 4222.051270, 0.000000, 8175.000000, 8173.000000, 0.000000, 0.000000, 0.000000, -20329.000000, 877.435852, 4.000000, 4.000000, 4.000000, 4.000000, 4.000000, 4.000000, 4.000000, 4.000000, 0.000000, 4.000000, 4.000000, 4.000000, 4.000000, 4.000000, 4.000000, 4.000000
57.000000, 0.000000, 4201.025391, 4187.179199, 4202.563965, 4199.487305, 4206.666504, 4206.666504, 4205.127930, 4215.897461, 4202.563965, 4261.538574, 4228.717773, 4218.461426, 4291.794922, 4215.384277, 0.000000, 8174.000000, 8186.000000, 0.000000, 0.000000, 0.000000, -20329.000000, 885.128174, 4.000000, 4.000000, 4.000000, 4.000000, 4.000000, 4.000000, 4.000000, 4.000000, 0.000000, 4.000000, 4.000000, 4.000000, 4.000000, 4.000000, 4.000000, 4.000000
58.000000, 0.000000, 4204.615234, 4183.589844, 4208.717773, 4202.563965, 4214.358887, 4215.384277, 4212.820313, 4220.512695, 4203.076660, 4268.205078, 4231.794922, 4227.692383, 4293.333008, 4222.051270, 0.000000, 8174.000000, 8186.000000, 0.000000, 0.000000, 0.000000, -20329.000000, 892.820496, 4.000000, 4.000000, 4.000000, 4.000000, 4.000000, 4.000000, 4.000000, 4.000000, 0.000000, 4.000000, 4.000000, 4.000000, 4.000000, 4.000000, 4.000000, 4.000000
59.000000, 0.000000, 4205.127930, 4184.102539, 4207.692383, 4202.563965, 4213.333008, 4211.281738, 4218.974121, 4219.487305, 4203.076660, 4267.692383, 4234.871582, 4232.820313, 4297.436035, 4229.230469, 0.000000, 8173.000000, 8199.000000, 0.000000, 0.000000, 0.000000, -20329.000000, 901.025635, 4.000000, 4.000000, 4.000000, 4.000000, 4.000000, 4.000000, 4.000000, 4.000000, 0.000000, 4.000000, 4.000000, 4.000000, 4.000000, 4.000000, 4.000000, 4.000000
60.000000, 0.000000, 4200.512695, 4180.512695, 4198.461426, 4197.948730, 4204.102539, 4205.127930, 4211.281738, 4222.563965, 4203.076660, 4263.076660, 4231.794922, 4227.692383, 4296.410156, 4223.076660, 0.000000, 8173.000000, 8199.000000, 0.000000, 0.000000, 0.000000, -20329.000000, 908.717957, 4.000000, 4.000000, 4.000000, 4.000000, 4.000000, 4.000000, 4.000000, 4.000000, 0.000000, 4.000000, 4.000000, 4.000000, 4.000000, 4.000000, 4.000000, 4.000000
61.000000, 0.000000, 4202.051270, 4181.538574, 4202.563965, 4198.974121, 4203.589844, 4203.589844, 4205.641113, 4229.230469, 4203.076660, 4265.127930, 4231.794922, 4228.717773, 4294.871582, 4223.076660, 0.000000, 8179.000000, 8208.000000, 0.000000, 0.000000, 0.000000, -20329.000000, 916.410217, 4.000000, 4.000000, 4.000000, 4.000000, 4.000000, 4.000000, 4.000000, 4.000000, 0.000000, 4.000000, 4.000000, 4.000000, 4.000000, 4.000000, 4.000000, 4.000000
62.000000, 0.000000, 4205.641113, 4181.538574, 4213.846191, 4202.563965, 4205.641113, 4201.538574, 4211.794922, 4227.179199, 4203.076660, 4268.205078, 4236.922852, 4234.358887, 4296.922852, 4231.794922, 0.000000, 8179.000000, 8208.000000, 0.000000, 0.000000, 0.000000, -20329.000000, 924.615356, 4.000000, 4.000000, 4.000000, 4.000000, 4.000000, 4.000000, 4.000000, 4.000000, 0.000000, 4.000000, 4.000000, 4.000000, 4.000000, 4.000000, 4.000000, 4.000000
63.000000, 0.000000, 4204.615234, 4173.333008, 4210.769043, 4202.563965, 4207.179199, 4207.179199, 4217.948730, 4221.538574, 4203.076660, 4266.666504, 4236.922852, 4231.794922, 4297.436035, 4230.256348, 0.000000, 8187.000000, 8227.000000, 0.000000, 0.000000, 0.000000, -20329.000000, 932.307678, 4.000000, 4.000000, 4.000000, 4.000000, 4.000000, 4.000000, 4.000000, 4.000000, 0.000000, 4.000000, 4.000000, 4.000000, 4.000000, 4.000000, 4.000000, 4.000000
64.000000, 0.000000, 4203.076660, 4170.769043, 4200.512695, 4200.000000, 4209.230469, 4213.333008, 4216.410156, 4221.025391, 4202.563965, 4265.127930, 4234.358887, 4227.179199, 4292.307617, 4219.487305, 3189.000000, 8187.000000, 8227.000000, 0.000000, 0.000000, 0.000000, -20329.000000, 940.000000, 4.000000, 4.000000, 4.000000, 4.000000, 4.000000, 4.000000, 4.000000, 4.000000, 0.000000, 4.000000, 4.000000, 4.000000, 4.000000, 4.000000, 4.000000, 4.000000
65.000000, 0.000000, 4200.512695, 4170.256348, 4200.512695, 4198.974121, 4207.692383, 4208.205078, 4214.871582, 4221.025391, 4203.076660, 4264.615234, 4233.333008, 4227.692383, 4289.743652, 4215.384277, 3544.000000, 8194.000000, 8227.000000, 0.000000, 0.000000, 0.000000, -20329.000000, 947.692261, 4.000000, 4.000000, 4.000000, 4.000000, 4.000000, 4.000000, 4.000000, 4.000000, 0.000000, 4.000000, 4.000000, 4.000000, 4.000000, 4.000000, 4.000000, 4.000000
66.000000, 0.000000, 4198.461426, 4166.153809, 4204.102539, 4200.000000, 4204.102539, 4200.512695, 4215.897461, 4217.436035, 4203.076660, 4262.563965, 4232.307617, 4227.179199, 4290.769043, 4217.436035, 3566.000000, 8194.000000, 8227.000000, 0.000000, 0.000000, 0.000000, -20329.000000, 955.897400, 4.000000, 4.000000, 4.000000, 4.000000, 4.000000, 4.000000, 4.000000, 4.000000, 0.000000, 4.000000, 4.000000, 4.000000, 4.000000, 4.000000, 4.000000, 4.000000
67.000000, 0.000000, 4198.974121, 4163.589844, 4201.025391, 4197.948730, 4204.102539, 4202.563965, 4215.897461, 4216.922852, 4202.563965, 4260.000000, 4230.769043, 4224.102539, 4286.666504, 4216.922852, 2431.000000, 8195.000000, 8222.000000, 0.000000, 0.000000, 0.000000, -20329.000000, 963.589722, 4.000000, 4.000000, 4.000000, 4.000000, 4.000000, 4.000000, 4.000000, 4.000000, 0.000000, 4.000000, 4.000000, 4.000000, 4.000000, 4.000000, 4.000000, 4.000000
68.000000, 0.000000, 4201.538574, 4161.538574, 4207.179199, 4198.974121, 4210.256348, 4210.769043, 4217.948730, 4218.974121, 4203.589844, 4261.025391, 4232.307617, 4227.692383, 4290.256348, 4217.948730, 3559.000000, 8195.000000, 8222.000000, 0.000000, 0.000000, 0.000000, -20329.000000, 971.282043, 4.000000, 4.000000, 4.000000, 4.000000, 4.000000, 4.000000, 4.000000, 4.000000, 0.000000, 4.000000, 4.000000, 4.000000, 4.000000, 4.000000, 4.000000, 4.000000
69.000000, 0.000000, 4201.025391, 4155.897461, 4214.358887, 4204.615234, 4213.846191, 4211.281738, 4217.948730, 4216.410156, 4204.615234, 4259.487305, 4234.871582, 4229.230469, 4296.410156, 4221.025391, 3580.000000, 8205.000000, 8215.000000, 0.000000, 0.000000, 0.000000, -20329.000000, 978.974365, 4.000000, 4.000000, 4.000000, 4.000000, 4.000000, 4.000000, 4.000000, 4.000000, 0.000000, 4.000000, 4.000000, 4.000000, 4.000000, 4.000000, 4.000000, 4.000000
70.000000, 0.000000, 4192.307617, 4152.820313, 4206.666504, 4197.948730, 4205.641113, 4203.076660, 4213.846191, 4210.256348, 4204.102539, 4248.205078, 4230.769043, 4221.025391, 4286.666504, 4212.307617, 3445.000000, 8205.000000, 8215.000000, 0.000000, 0.000000, 0.000000, -20329.000000, 986.666626, 4.000000, 4.000000, 4.000000, 4.000000, 4.000000, 4.000000, 4.000000, 4.000000, 0.000000, 4.000000, 4.000000, 4.000000, 4.000000, 4.000000, 4.000000, 4.000000
71.000000, 0.000000, 4184.102539, 4151.281738, 4197.948730, 4187.179199, 4199.487305, 4200.000000, 4214.358887, 4211.281738, 4203.076660, 4243.076660, 4222.051270, 4214.871582, 4276.922852, 4200.512695, 3505.000000, 8209.000000, 8214.000000, 0.000000, 0.000000, 0.000000, -20329.000000, 994.871765, 4.000000, 4.000000, 4.000000, 4.000000, 4.000000, 4.000000, 4.000000, 4.000000, 0.000000, 4.000000, 4.000000, 4.000000, 4.000000, 4.000000, 4.000000, 4.000000
72.000000, 0.000000, 4185.641113, 4143.589844, 4201.025391, 4193.846191, 4202.563965, 4204.615234, 4218.974121, 4218.974121, 4202.051270, 4248.205078, 4215.897461, 4212.307617, 4275.897461, 4197.948730, 0.000000, 8209.000000, 8214.000000, 0.000000, 0.000000, 0.000000, -20328.000000, 2.564102, 4.000000, 4.000000, 4.000000, 4.000000, 4.000000, 4.000000, 4.000000, 4.000000, 0.000000, 4.000000, 4.000000, 4.000000, 4.000000, 4.000000, 4.000000, 4.000000
73.000000, 0.000000, 4186.153809, 4137.948730, 4203.076660, 4197.436035, 4200.512695, 4203.589844, 4218.974121, 4217.436035, 4201.538574, 4243.589844, 4213.846191, 4211.281738, 4268.205078, 4194.871582, 3032.000000, 8218.000000, 8210.000000, 0.000000, 0.000000, 0.000000, -20328.000000, 10.256410, 4.000000, 4.000000, 4.000000, 4.000000, 4.000000, 4.000000, 4.000000, 4.000000, 0.000000, 4.000000, 4.000000, 4.000000, 4.000000, 4.000000, 4.000000, 4.000000
74.000000, 0.000000, 4180.512695, 4136.922852, 4199.487305, 4187.179199, 4197.948730, 4200.512695, 4217.948730, 4207.179199, 4201.538574, 4234.871582, 4210.769043, 4210.769043, 4259.487305, 4189.230469, 3584.000000, 8218.000000, 8210.000000, 0.000000, 0.000000, 0.000000, -20328.000000, 17.948717, 4.000000, 4.000000, 4.000000, 4.000000, 4.000000, 4.000000, 4.000000, 4.000000, 0.000000, 4.000000, 4.000000, 4.000000, 4.000000, 4.000000, 4.000000, 4.000000
75.000000, 0.000000, 4186.153809, 4138.461426, 4206.153809, 4190.769043, 4203.076660, 4204.102539, 4219.487305, 4210.769043, 4202.051270, 4242.563965, 4213.846191, 4214.871582, 4269.743652, 4196.410156, 3560.000000, 8217.000000, 8203.000000, 0.000000, 0.000000, 0.000000, -20328.000000, 25.641026, 4.000000, 4.000000, 4.000000, 4.000000, 4.000000, 4.000000, 4.000000, 4.000000, 0.000000, 4.000000, 4.000000, 4.000000, 4.000000, 4.000000, 4.000000, 4.000000
76.000000, 0.000000, 4201.538574, 4140.512695, 4217.948730, 4204.102539, 4205.127930, 4211.281738, 4219.487305, 4223.076660, 4202.051270, 4253.333008, 4224.102539, 4225.641113, 4281.538574, 4210.256348, 3518.000000, 8217.000000, 8203.000000, 0.000000, 0.000000, 0.000000, -20328.000000, 33.846153, 4.000000, 4.000000, 4.000000, 4.000000, 4.000000, 4.000000, 4.000000, 4.000000, 0.000000, 4.000000, 4.000000, 4.000000, 4.000000, 4.000000, 4.000000, 4.000000
77.000000, 0.000000, 4205.641113, 4139.487305, 4220.512695, 4205.641113, 4204.615234, 4210.769043, 4215.897461, 4221.025391, 4202.051270, 4251.794922, 4228.205078, 4232.820313, 4281.025391, 4214.358887, 3465.000000, 8217.000000, 8202.000000, 0.000000, 0.000000, 0.000000, -20328.000000, 41.538460, 4.000000, 4.000000, 4.000000, 4.000000, 4.000000, 4.000000, 4.000000, 4.000000, 0.000000, 4.000000, 4.000000, 4.000000, 4.000000, 4.000000, 4.000000, 4.000000
78.000000, 0.000000, 4202.563965, 4136.410156, 4216.410156, 4203.076660, 4202.563965, 4203.589844, 4216.922852, 4212.820313, 4202.051270, 4249.743652, 4228.205078, 4231.794922, 4277.948730, 4213.333008, 3584.000000, 8217.000000, 8202.000000, 0.000000, 0.000000, 0.000000, -20328.000000, 49.230766, 4.000000, 4.000000, 4.000000, 4.000000, 4.000000, 4.000000, 4.000000, 4.000000, 0.000000, 4.000000, 4.000000, 4.000000, 4.000000, 4.000000, 4.000000, 4.000000
79.000000, 0.000000, 4208.717773, 4136.922852, 4216.410156, 4203.589844, 4200.000000, 4200.512695, 4214.871582, 4214.871582, 4202.051270, 4252.307617, 4230.256348, 4230.256348, 4278.461426, 4216.410156, 3560.000000, 8213.000000, 8204.000000, 0.000000, 0.000000, 0.000000, -20328.000000, 56.923077, 4.000000, 4.000000, 4.000000, 4.000000, 4.000000, 4.000000, 4.000000, 4.000000, 0.000000, 4.000000, 4.000000, 4.000000, 4.000000, 4.000000, 4.000000, 4.000000
80.000000, 0.000000, 4216.410156, 4136.922852, 4222.563965, 4202.563965, 4202.563965, 4203.076660, 4206.666504, 4218.974121, 4202.051270, 4250.256348, 4231.794922, 4232.307617, 4279.487305, 4219.487305, 3518.000000, 8213.000000, 8204.000000, 0.000000, 0.000000, 0.000000, -20328.000000, 64.615379, 4.000000, 4.000000, 4.000000, 4.000000, 4.000000, 4.000000, 4.000000, 4.000000, 0.000000, 4.000000, 4.000000, 4.000000, 4.000000, 4.000000, 4.000000, 4.000000
81.000000, 0.000000, 4215.897461, 4133.333008, 4222.563965, 4203.589844, 4204.102539, 4203.076660, 4210.769043, 4216.922852, 4202.051270, 4248.717773, 4228.717773, 4233.846191, 4277.436035, 4217.948730, 3465.000000, 8214.000000, 8204.000000, 0.000000, 0.000000, 0.000000, -20328.000000, 72.820511, 4.000000, 4.000000, 4.000000, 4.000000, 4.000000, 4.000000, 4.000000, 4.000000, 0.000000, 4.000000, 4.000000, 4.000000, 4.000000, 4.000000, 4.000000, 4.000000
82.000000, 0.000000, 4211.281738, 4129.230469, 4218.974121, 4204.615234, 4202.563965, 4202.563965, 4216.922852, 4215.897461, 4202.563965, 4250.769043, 4224.615234, 4231.794922, 4270.256348, 4215.897461, 3584.000000, 8214.000000, 8204.000000, 0.000000, 0.000000, 0.000000, -20328.000000, 80.512817, 4.000000, 4.000000, 4.000000, 4.000000, 4.000000, 4.000000, 4.000000, 4.000000, 0.000000, 4.000000, 4.000000, 4.000000, 4.000000, 4.000000, 4.000000, 4.000000
83.000000, 0.000000, 4206.153809, 4125.127930, 4213.846191, 4204.615234, 4203.076660, 4203.076660, 4207.179199, 4217.436035, 4203.076660, 4249.743652, 4219.487305, 4224.615234, 4263.076660, 4217.436035, 3560.000000, 8204.000000, 8204.000000, 0.000000, 0.000000, 0.000000, -20328.000000, 88.205124, 4.000000, 4.000000, 4.000000, 4.000000, 4.000000, 4.000000, 4.000000, 4.000000, 0.000000, 4.000000, 4.000000, 4.000000, 4.000000, 4.000000, 4.000000, 4.000000
84.000000, 0.000000, 4199.487305, 4121.538574, 4208.717773, 4200.512695, 4201.538574, 4200.000000, 4197.948730, 4212.820313, 4202.051270, 4244.615234, 4215.897461, 4218.974121, 4267.179199, 4215.897461, 3518.000000, 8204.000000, 8204.000000, 0.000000, 0.000000, 0.000000, -20328.000000, 95.897430, 4.000000, 4.000000, 4.000000, 4.000000, 4.000000, 4.000000, 4.000000, 4.000000, 0.000000, 4.000000, 4.000000, 4.000000, 4.000000, 4.000000, 4.000000, 4.000000
85.000000, 0.000000, 4198.461426, 4118.974121, 4206.666504, 4200.000000, 4197.948730, 4198.461426, 4202.051270, 4205.127930, 4201.025391, 4244.615234, 4223.589844, 4226.666504, 4276.410156, 4216.410156, 3465.000000, 8205.000000, 8208.000000, 0.000000, 0.000000, 0.000000, -20328.000000, 103.589745, 4.000000, 4.000000, 4.000000, 4.000000, 4.000000, 4.000000, 4.000000, 4.000000, 0.000000, 4.000000, 4.000000, 4.000000, 4.000000, 4.000000, 4.000000, 4.000000
86.000000, 0.000000, 4204.102539, 4121.538574, 4209.743652, 4207.179199, 4200.512695, 4200.512695, 4202.563965, 4202.563965, 4201.025391, 4248.205078, 4230.256348, 4231.794922, 4274.358887, 4217.948730, 3584.000000, 8205.000000, 8208.000000, 0.000000, 0.000000, 0.000000, -20328.000000, 111.282051, 4.000000, 4.000000, 4.000000, 4.000000, 4.000000, 4.000000, 4.000000, 4.000000, 0.000000, 4.000000, 4.000000, 4.000000, 4.000000, 4.000000, 4.000000, 4.000000
87.000000, 0.000000, 4199.487305, 4120.512695, 4207.692383, 4209.230469, 4204.615234, 4201.025391, 4196.922852, 4197.436035, 4201.025391, 4235.384277, 4216.410156, 4216.410156, 4257.436035, 4203.589844, 3560.000000, 8208.000000, 8210.000000, 0.000000, 0.000000, 0.000000, -20328.000000, 119.487175, 4.000000, 4.000000, 4.000000, 4.000000, 4.000000, 4.000000, 4.000000, 4.000000, 0.000000, 4.000000, 4.000000, 4.000000, 4.000000, 4.000000, 4.000000, 4.000000
88.000000, 0.000000, 4187.179199, 4109.743652, 4196.922852, 4200.000000, 4204.102539, 4206.153809, 4200.512695, 4191.281738, 4201.025391, 4215.384277, 4195.897461, 4198.974121, 4238.461426, 4185.641113, 3518.000000, 8208.000000, 8210.000000, 0.000000, 0.000000, 0.000000, -20328.000000, 127.179482, 4.000000, 4.000000, 4.000000, 4.000000, 4.000000, 4.000000, 4.000000, 4.000000, 0.000000, 4.000000, 4.000000, 4.000000, 4.000000, 4.000000, 4.000000, 4.000000
89.000000, 0.000000, 4179.487305, 4102.051270, 4189.230469, 4196.922852, 4203.076660, 4216.410156, 4211.794922, 4199.487305, 4201.025391, 4213.333008, 4189.743652, 4195.897461, 4230.769043, 4181.025391, 3465.000000, 8217.000000, 8209.000000, 0.000000, 0.000000, 0.000000, -20328.000000, 135.384613, 4.000000, 4.000000, 4.000000, 4.000000, 4.000000, 4.000000, 4.000000, 4.000000, 0.000000, 4.000000, 4.000000, 4.000000, 4.000000, 4.000000, 4.000000, 4.000000
90.000000, 0.000000, 4181.025391, 4103.589844, 4190.769043, 4200.000000, 4201.538574, 4218.461426, 4215.897461, 4217.436035, 4201.025391, 4229.743652, 4197.948730, 4201.025391, 4235.897461, 4183.589844, 3584.000000, 8217.000000, 8209.000000, 0.000000, 0.000000, 0.000000, -20328.000000, 143.076920, 4.000000, 4.000000, 4.000000, 4.000000, 4.000000, 4.000000, 4.000000, 4.000000, 0.000000, 4.000000, 4.000000, 4.000000, 4.000000, 4.000000, 4.000000, 4.000000
91.000000, 0.000000, 4190.256348, 4107.179199, 4196.410156, 4200.000000, 4198.974121, 4206.666504, 4204.615234, 4225.641113, 4202.051270, 4240.512695, 4210.256348, 4207.179199, 4249.743652, 4192.820313, 3560.000000, 8221.000000, 8214.000000, 0.000000, 0.000000, 0.000000, -20328.000000, 151.282043, 4.000000, 4.000000, 4.000000, 4.000000, 4.000000, 4.000000, 4.000000, 4.000000, 0.000000, 4.000000, 4.000000, 4.000000, 4.000000, 4.000000, 4.000000, 4.000000
92.000000, 0.000000, 4198.461426, 4107.692383, 4198.461426, 4204.102539, 4200.000000, 4197.948730, 4195.384277, 4211.281738, 4203.076660, 4236.922852, 4217.436035, 4209.743652, 4262.051270, 4201.538574, 3518.000000, 8221.000000, 8214.000000, 0.000000, 0.000000, 0.000000, -20328.000000, 158.974350, 4.000000, 4.000000, 4.000000, 4.000000, 4.000000, 4.000000, 4.000000, 4.000000, 0.000000, 4.000000, 4.000000, 4.000000, 4.000000, 4.000000, 4.000000, 4.000000
93.000000, 0.000000, 4203.589844, 4108.205078, 4201.025391, 4213.333008, 4202.051270, 4199.487305, 4197.948730, 4192.307617, 4203.076660, 4232.820313, 4214.871582, 4209.230469, 4264.102539, 4203.589844, 3465.000000, 8242.000000, 8216.000000, 0.000000, 0.000000, 0.000000, -20328.000000, 167.179489, 4.000000, 4.000000, 4.000000, 4.000000, 4.000000, 4.000000, 4.000000, 4.000000, 0.000000, 4.000000, 4.000000, 4.000000, 4.000000, 4.000000, 4.000000, 4.000000
94.000000, 0.000000, 4210.256348, 4110.769043, 4210.769043, 4217.436035, 4201.538574, 4200.000000, 4199.487305, 4191.281738, 4202.563965, 4233.333008, 4216.410156, 4214.871582, 4262.051270, 4208.205078, 3584.000000, 8242.000000, 8216.000000, 0.000000, 0.000000, 0.000000, -20328.000000, 174.871796, 4.000000, 4.000000, 4.000000, 4.000000, 4.000000, 4.000000, 4.000000, 4.000000, 0.000000, 4.000000, 4.000000, 4.000000, 4.000000, 4.000000, 4.000000, 4.000000
95.000000, 0.000000, 4218.974121, 4113.333008, 4218.461426, 4215.384277, 4200.000000, 4197.948730, 4195.384277, 4200.000000, 4203.076660, 4235.897461, 4228.205078, 4229.743652, 4265.641113, 4221.025391, 3560.000000, 8253.000000, 8210.000000, 0.000000, 0.000000, 0.000000, -20328.000000, 183.076920, 4.000000, 4.000000, 4.000000, 4.000000, 4.000000, 4.000000, 4.000000, 4.000000, 0.000000, 4.000000, 4.000000, 4.000000, 4.000000, 4.000000, 4.000000, 4.000000
96.000000, 0.000000, 4219.487305, 4110.256348, 4219.487305, 4215.384277, 4200.000000, 4198.974121, 4194.358887, 4199.487305, 4203.076660, 4238.461426, 4233.846191, 4235.384277, 4271.794922, 4228.205078, 3518.000000, 8253.000000, 8210.000000, 0.000000, 0.000000, 0.000000, -20328.000000, 190.769226, 4.000000, 4.000000, 4.000000, 4.000000, 4.000000, 4.000000, 4.000000, 4.000000, 0.000000, 4.000000, 4.000000, 4.000000, 4.000000, 4.000000, 4.000000, 4.000000
97.000000, 0.000000, 4219.487305, 4109.743652, 4218.974121, 4217.436035, 4201.025391, 4201.538574, 4201.538574, 4198.974121, 4202.563965, 4242.563965, 4231.794922, 4230.769043, 4270.769043, 4229.230469, 3465.000000, 8267.000000, 8197.000000, 0.000000, 0.000000, 0.000000, -20328.000000, 198.974350, 4.000000, 4.000000, 4.000000, 4.000000, 4.000000, 4.000000, 4.000000, 4.000000, 0.000000, 4.000000, 4.000000, 4.000000, 4.000000, 4.000000, 4.000000, 4.000000
98.000000, 0.000000, 4225.127930, 4115.384277, 4221.025391, 4218.461426, 4204.615234, 4201.538574, 4207.179199, 4208.205078, 4203.076660, 4249.230469, 4234.358887, 4231.281738, 4269.230469, 4231.794922, 3584.000000, 8267.000000, 8197.000000, 0.000000, 0.000000, 0.000000, -20328.000000, 207.179489, 4.000000, 4.000000, 4.000000, 4.000000, 4.000000, 4.000000, 4.000000, 4.000000, 0.000000, 4.000000, 4.000000, 4.000000, 4.000000, 4.000000, 4.000000, 4.000000
99.000000, 0.000000, 4225.127930, 4111.281738, 4223.076660, 4220.000000, 4203.076660, 4203.589844, 4205.127930, 4210.769043, 4203.589844, 4247.179199, 4234.358887, 4233.846191, 4269.743652, 4230.256348, 3560.000000, 8274.000000, 8199.000000, 0.000000, 0.000000, 0.000000, -20328.000000, 214.871796, 4.000000, 4.000000, 4.000000, 4.000000, 4.000000, 4.000000, 4.000000, 4.000000, 0.000000, 4.000000, 4.000000, 4.000000, 4.000000, 4.000000, 4.000000, 4.000000
100.000000, 0.000000, 4212.820313, 4097.436035, 4216.922852, 4212.820313, 4190.769043, 4198.461426, 4200.512695, 4198.461426, 4202.051270, 4236.410156, 4223.076660, 4225.641113, 4260.512695, 4221.025391, 3518.000000, 8274.000000, 8199.000000, 0.000000, 0.000000, 0.000000, -20328.000000, 222.564102, 4.000000, 4.000000, 4.000000, 4.000000, 4.000000, 4.000000, 4.000000, 4.000000, 0.000000, 4.000000, 4.000000, 4.000000, 4.000000, 4.000000, 4.000000, 4.000000
101.000000, 0.000000, 4200.512695, 4090.256348, 4206.153809, 4202.051270, 4184.615234, 4189.743652, 4195.897461, 4188.205078, 4200.000000, 4228.717773, 4214.358887, 4214.871582, 4249.230469, 4212.307617, 3465.000000, 8274.000000, 8202.000000, 0.000000, 0.000000, 0.000000, -20328.000000, 230.769226, 4.000000, 4.000000, 4.000000, 4.000000, 4.000000, 4.000000, 4.000000, 4.000000, 0.000000, 4.000000, 4.000000, 4.000000, 4.000000, 4.000000, 4.000000, 4.000000
102.000000, 0.000000, 4204.615234, 4091.794678, 4206.153809, 4200.512695, 4189.743652, 4192.307617, 4194.871582, 4193.333008, 4200.512695, 4230.256348, 4218.974121, 4220.512695, 4252.820313, 4215.384277, 3584.000000, 8274.000000, 8202.000000, 0.000000, 0.000000, 0.000000, -20328.000000, 238.974350, 4.000000, 4.000000, 4.000000, 4.000000, 4.000000, 4.000000, 4.000000, 4.000000, 0.000000, 4.000000, 4.000000, 4.000000, 4.000000, 4.000000, 4.000000, 4.000000
103.000000, 0.000000, 4214.358887, 4094.871582, 4212.820313, 4205.641113, 4196.922852, 4200.000000, 4199.487305, 4194.358887, 4202.563965, 4228.205078, 4220.512695, 4225.641113, 4254.871582, 4220.000000, 3560.000000, 8277.000000, 8215.000000, 0.000000, 0.000000, 0.000000, -20328.000000, 246.666656, 4.000000, 4.000000, 4.000000, 4.000000, 4.000000, 4.000000, 4.000000, 4.000000, 0.000000, 4.000000, 4.000000, 4.000000, 4.000000, 4.000000, 4.000000, 4.000000
104.000000, 0.000000, 4211.794922, 4100.000000, 4212.820313, 4206.153809, 4196.922852, 4200.512695, 4202.563965, 4189.743652, 4203.076660, 4222.563965, 4214.358887, 4218.461426, 4234.871582, 4216.410156, 3518.000000, 8277.000000, 8215.000000, 0.000000, 0.000000, 0.000000, -20328.000000, 254.871796, 4.000000, 4.000000, 4.000000, 4.000000, 4.000000, 4.000000, 4.000000, 4.000000, 0.000000, 4.000000, 4.000000, 4.000000, 4.000000, 4.000000, 4.000000, 4.000000
105.000000, 0.000000, 4207.179199, 4104.102539, 4212.307617, 4204.615234, 4190.769043, 4197.436035, 4200.512695, 4195.384277, 4202.563965, 4223.076660, 4212.820313, 4212.307617, 4213.846191, 4214.358887, 3465.000000, 8274.000000, 8228.000000, 0.000000, 0.000000, 0.000000, -20328.000000, 262.564087, 4.000000, 4.000000, 4.000000, 4.000000, 4.000000, 4.000000, 4.000000, 4.000000, 0.000000, 4.000000, 4.000000, 4.000000, 4.000000, 4.000000, 4.000000, 4.000000
106.000000, 0.000000, 4210.769043, 4111.281738, 4213.846191, 4206.666504, 4191.281738, 4198.461426, 4200.000000, 4192.820313, 4202.563965, 4220.000000, 4213.846191, 4212.307617, 4196.922852, 4215.897461, 3584.000000, 8274.000000, 8228.000000, 0.000000, 0.000000, 0.000000, -20328.000000, 270.769226, 4.000000, 4.000000, 4.000000, 4.000000, 4.000000, 4.000000, 4.000000, 4.000000, 0.000000, 4.000000, 4.000000, 4.000000, 4.000000, 4.000000, 4.000000, 4.000000
107.000000, 0.000000, 4213.846191, 4119.487305, 4216.922852, 4208.717773, 4196.922852, 4197.948730, 4200.512695, 4181.025391, 4203.076660, 4213.846191, 4213.846191, 4218.974121, 4181.538574, 4216.922852, 3560.000000, 8272.000000, 8247.000000, 0.000000, 0.000000, 0.000000, -20328.000000, 278.461517, 4.000000, 4.000000, 4.000000, 4.000000, 4.000000, 4.000000, 4.000000, 4.000000, 0.000000, 4.000000, 4.000000, 4.000000, 4.000000, 4.000000, 4.000000, 4.000000
108.000000, 0.000000, 4214.358887, 4124.615234, 4225.641113, 4214.871582, 4201.538574, 4197.948730, 4201.025391, 4188.205078, 4203.076660, 4221.025391, 4225.127930, 4232.820313, 4187.179199, 4226.666504, 3518.000000, 8272.000000, 8247.000000, 0.000000, 0.000000, 0.000000, -20328.000000, 286.666656, 4.000000, 4.000000, 4.000000, 4.000000, 4.000000, 4.000000, 4.000000, 4.000000, 0.000000, 4.000000, 4.000000, 4.000000, 4.000000, 4.000000, 4.000000, 4.000000
109.000000, 0.000000, 4222.051270, 4132.307617, 4232.820313, 4225.127930, 4206.666504, 4200.512695, 4201.025391, 4205.127930, 4202.051270, 4232.307617, 4237.436035, 4241.538574, 4198.974121, 4242.563965, 3465.000000, 8267.000000, 8254.000000, 0.000000, 0.000000, 0.000000, -20328.000000, 294.358978, 4.000000, 4.000000, 4.000000, 4.000000, 4.000000, 4.000000, 4.000000, 4.000000, 0.000000, 4.000000, 4.000000, 4.000000, 4.000000, 4.000000, 4.000000, 4.000000
110.000000, 0.000000, 4232.307617, 4138.974121, 4232.820313, 4231.281738, 4213.846191, 4201.538574, 4199.487305, 4202.563965, 4201.025391, 4228.205078, 4232.307617, 4234.871582, 4193.846191, 4245.641113, 3584.000000, 8267.000000, 8254.000000, 0.000000, 0.000000, 0.000000, -20328.000000, 302.564087, 4.000000, 4.000000, 4.000000, 4.000000, 4.000000, 4.000000, 4.000000, 4.000000, 0.000000, 4.000000, 4.000000, 4.000000, 4.000000, 4.000000, 4.000000, 4.000000
111.000000, 0.000000, 4231.794922, 4139.487305, 4233.846191, 4232.820313, 4214.871582, 4202.051270, 4201.025391, 4198.461426, 4200.512695, 4216.410156, 4218.974121, 4225.127930, 4178.974121, 4235.384277, 3560.000000, 8255.000000, 8255.000000, 0.000000, 0.000000, 0.000000, -20328.000000, 310.256409, 4.000000, 4.000000, 4.000000, 4.000000, 4.000000, 4.000000, 4.000000, 4.000000, 0.000000, 4.000000, 4.000000, 4.000000, 4.000000, 4.000000, 4.000000, 4.000000
112.000000, 0.000000, 4222.563965, 4139.487305, 4232.307617, 4234.871582, 4210.769043, 4202.563965, 4203.076660, 4205.127930, 4202.563965, 4214.358887, 4213.846191, 4218.461426, 4173.846191, 4230.769043, 3518.000000, 8255.000000, 8255.000000, 0.000000, 0.000000, 0.000000, -20328.000000, 318.461517, 4.000000, 4.000000, 4.000000, 4.000000, 4.000000, 4.000000, 4.000000, 4.000000, 0.000000, 4.000000, 4.000000, 4.000000, 4.000000, 4.000000, 4.000000, 4.000000
113.000000, 0.000000, 4218.461426, 4136.922852, 4223.076660, 4230.769043, 4206.666504, 4202.051270, 4202.563965, 4202.051270, 4204.102539, 4213.333008, 4216.922852, 4216.410156, 4175.384277, 4231.281738, 3465.000000, 8254.000000, 8266.000000, 0.000000, 0.000000, 0.000000, -20328.000000, 326.666656, 4.000000, 4.000000, 4.000000, 4.000000, 4.000000, 4.000000, 4.000000, 4.000000, 0.000000, 4.000000, 4.000000, 4.000000, 4.000000, 4.000000, 4.000000, 4.000000
114.000000, 0.000000, 4214.358887, 4124.102539, 4216.922852, 4215.384277, 4200.512695, 4200.512695, 4201.538574, 4187.179199, 4203.076660, 4204.615234, 4212.820313, 4214.871582, 4171.794922, 4226.153809, 3584.000000, 8254.000000, 8266.000000, 0.000000, 0.000000, 0.000000, -20328.000000, 334.358978, 4.000000, 4.000000, 4.000000, 4.000000, 4.000000, 4.000000, 4.000000, 4.000000, 0.000000, 4.000000, 4.000000, 4.000000, 4.000000, 4.000000, 4.000000, 4.000000
115.000000, 0.000000, 4211.281738, 4119.487305, 4217.436035, 4212.820313, 4197.436035, 4195.384277, 4199.487305, 4183.076660, 4204.615234, 4196.922852, 4201.025391, 4214.871582, 4171.794922, 4222.563965, 3560.000000, 8251.000000, 8273.000000, 0.000000, 0.000000, 0.000000, -20328.000000, 342.564087, 4.000000, 4.000000, 4.000000, 4.000000, 4.000000, 4.000000, 4.000000, 4.000000, 0.000000, 4.000000, 4.000000, 4.000000, 4.000000, 4.000000, 4.000000, 4.000000
116.000000, 0.000000, 4221.538574, 4128.205078, 4221.538574, 4224.615234, 4200.000000, 4189.743652, 4198.461426, 4183.076660, 4206.153809, 4198.974121, 4205.641113, 4221.538574, 4181.538574, 4229.230469, 3518.000000, 8251.000000, 8273.000000, 0.000000, 0.000000, 0.000000, -20328.000000, 350.256409, 4.000000, 4.000000, 4.000000, 4.000000, 4.000000, 4.000000, 4.000000, 4.000000, 0.000000, 4.000000, 4.000000, 4.000000, 4.000000, 4.000000, 4.000000, 4.000000
